LabVIEW Measurement	
Writer_Version	2
Reader_Version	2
Separator	Tab
Decimal_Separator	.
Multi_Headings	Yes
X_Columns	One
Time_Pref	Absolute
Operator	W-Tunnel
Date	1904/01/01
Time	01:00:00
***End_of_Header***	
	
Channels	1	
Samples	10000	
Date	2024/05/17	
Time	17:48:12.6503789812497241694	
Y_Unit_Label	Volts	
X_Dimension	Time	
X0	0.0000000000000000E+0	
Delta_X	0.000488	
***End_of_Header***		
X_Value	Voltage	Comment
0.000000	1.752159
0.000488	1.752231
0.000977	1.752092
0.001465	1.752014
0.001953	1.752067
0.002441	1.752110
0.002930	1.752366
0.003418	1.752337
0.003906	1.752321
0.004395	1.752276
0.004883	1.752347
0.005371	1.752225
0.005859	1.752345
0.006348	1.752259
0.006836	1.752078
0.007324	1.752139
0.007812	1.752020
0.008301	1.752446
0.008789	1.752363
0.009277	1.752291
0.009766	1.752248
0.010254	1.752042
0.010742	1.752116
0.011230	1.752141
0.011719	1.752234
0.012207	1.752148
0.012695	1.752171
0.013184	1.752212
0.013672	1.751988
0.014160	1.751968
0.014648	1.752093
0.015137	1.751804
0.015625	1.751843
0.016113	1.751874
0.016602	1.751597
0.017090	1.751800
0.017578	1.751896
0.018066	1.751600
0.018555	1.751630
0.019043	1.751695
0.019531	1.751708
0.020020	1.751552
0.020508	1.751503
0.020996	1.751752
0.021484	1.751691
0.021973	1.751581
0.022461	1.751466
0.022949	1.751413
0.023437	1.751508
0.023926	1.751642
0.024414	1.751469
0.024902	1.751481
0.025391	1.751340
0.025879	1.751425
0.026367	1.751384
0.026855	1.751231
0.027344	1.751163
0.027832	1.751187
0.028320	1.751343
0.028809	1.751300
0.029297	1.751233
0.029785	1.751421
0.030273	1.751305
0.030762	1.751229
0.031250	1.751318
0.031738	1.751267
0.032227	1.751111
0.032715	1.751287
0.033203	1.751311
0.033691	1.751328
0.034180	1.751254
0.034668	1.751552
0.035156	1.751307
0.035645	1.751584
0.036133	1.751475
0.036621	1.751547
0.037109	1.751415
0.037598	1.751354
0.038086	1.751711
0.038574	1.751841
0.039062	1.751534
0.039551	1.751592
0.040039	1.751874
0.040527	1.751620
0.041016	1.751937
0.041504	1.751829
0.041992	1.751650
0.042480	1.751805
0.042969	1.751665
0.043457	1.751626
0.043945	1.751458
0.044434	1.751431
0.044922	1.751589
0.045410	1.751719
0.045898	1.751714
0.046387	1.751882
0.046875	1.751864
0.047363	1.751877
0.047852	1.751838
0.048340	1.752040
0.048828	1.752111
0.049316	1.751616
0.049805	1.751788
0.050293	1.752013
0.050781	1.751921
0.051270	1.751473
0.051758	1.751846
0.052246	1.752049
0.052734	1.751549
0.053223	1.751662
0.053711	1.751686
0.054199	1.751599
0.054687	1.751830
0.055176	1.751551
0.055664	1.751647
0.056152	1.751667
0.056641	1.751701
0.057129	1.751472
0.057617	1.751099
0.058105	1.751641
0.058594	1.751633
0.059082	1.751486
0.059570	1.751555
0.060059	1.751727
0.060547	1.751430
0.061035	1.751879
0.061523	1.751878
0.062012	1.751696
0.062500	1.751638
0.062988	1.751628
0.063477	1.751752
0.063965	1.751758
0.064453	1.751883
0.064941	1.751807
0.065430	1.751730
0.065918	1.751862
0.066406	1.751884
0.066895	1.751822
0.067383	1.751814
0.067871	1.751865
0.068359	1.751678
0.068848	1.751691
0.069336	1.752148
0.069824	1.751877
0.070312	1.751473
0.070801	1.751920
0.071289	1.751914
0.071777	1.752060
0.072266	1.751999
0.072754	1.752051
0.073242	1.751993
0.073730	1.751885
0.074219	1.751855
0.074707	1.752210
0.075195	1.752040
0.075684	1.752253
0.076172	1.752314
0.076660	1.752412
0.077148	1.752225
0.077637	1.752198
0.078125	1.752427
0.078613	1.752449
0.079102	1.752118
0.079590	1.752241
0.080078	1.752582
0.080566	1.752194
0.081055	1.752745
0.081543	1.752764
0.082031	1.752466
0.082520	1.752464
0.083008	1.752517
0.083496	1.752545
0.083984	1.752557
0.084473	1.752688
0.084961	1.752577
0.085449	1.752582
0.085937	1.752679
0.086426	1.752735
0.086914	1.752689
0.087402	1.752711
0.087891	1.752607
0.088379	1.752445
0.088867	1.752591
0.089355	1.753106
0.089844	1.752828
0.090332	1.752357
0.090820	1.752878
0.091309	1.752899
0.091797	1.752777
0.092285	1.752763
0.092773	1.752500
0.093262	1.752480
0.093750	1.752497
0.094238	1.752598
0.094727	1.752519
0.095215	1.752397
0.095703	1.752328
0.096191	1.752236
0.096680	1.752332
0.097168	1.752328
0.097656	1.752033
0.098145	1.752137
0.098633	1.752184
0.099121	1.752184
0.099609	1.752003
0.100098	1.752329
0.100586	1.752126
0.101074	1.752290
0.101562	1.752331
0.102051	1.752012
0.102539	1.752009
0.103027	1.751702
0.103516	1.751908
0.104004	1.752117
0.104492	1.752067
0.104980	1.751905
0.105469	1.751871
0.105957	1.752023
0.106445	1.752212
0.106934	1.752083
0.107422	1.751959
0.107910	1.751981
0.108398	1.752051
0.108887	1.752123
0.109375	1.752308
0.109863	1.752297
0.110352	1.752233
0.110840	1.752048
0.111328	1.752045
0.111816	1.752120
0.112305	1.751985
0.112793	1.751826
0.113281	1.751782
0.113770	1.751884
0.114258	1.751998
0.114746	1.751932
0.115234	1.751963
0.115723	1.752015
0.116211	1.752059
0.116699	1.751973
0.117187	1.751964
0.117676	1.751868
0.118164	1.751882
0.118652	1.751966
0.119141	1.751996
0.119629	1.752152
0.120117	1.752198
0.120605	1.752024
0.121094	1.752100
0.121582	1.752028
0.122070	1.751902
0.122559	1.751855
0.123047	1.751896
0.123535	1.751772
0.124023	1.752078
0.124512	1.751830
0.125000	1.751951
0.125488	1.751771
0.125977	1.751790
0.126465	1.751790
0.126953	1.751633
0.127441	1.751658
0.127930	1.751768
0.128418	1.751990
0.128906	1.751908
0.129395	1.752017
0.129883	1.751940
0.130371	1.751790
0.130859	1.751887
0.131348	1.751944
0.131836	1.751982
0.132324	1.752125
0.132812	1.751976
0.133301	1.752042
0.133789	1.751976
0.134277	1.752090
0.134766	1.752060
0.135254	1.752012
0.135742	1.752001
0.136230	1.751995
0.136719	1.751911
0.137207	1.752150
0.137695	1.752001
0.138184	1.752189
0.138672	1.752175
0.139160	1.752328
0.139648	1.752092
0.140137	1.752323
0.140625	1.752065
0.141113	1.752298
0.141602	1.752302
0.142090	1.752189
0.142578	1.752071
0.143066	1.751923
0.143555	1.752039
0.144043	1.752204
0.144531	1.751990
0.145020	1.751877
0.145508	1.751963
0.145996	1.751690
0.146484	1.752043
0.146973	1.752162
0.147461	1.751564
0.147949	1.751756
0.148437	1.752096
0.148926	1.752061
0.149414	1.751976
0.149902	1.752023
0.150391	1.751669
0.150879	1.751727
0.151367	1.751780
0.151855	1.751736
0.152344	1.751677
0.152832	1.751751
0.153320	1.751591
0.153809	1.751499
0.154297	1.751582
0.154785	1.751996
0.155273	1.751923
0.155762	1.751528
0.156250	1.751717
0.156738	1.751897
0.157227	1.751990
0.157715	1.751805
0.158203	1.751783
0.158691	1.751933
0.159180	1.752019
0.159668	1.751965
0.160156	1.751934
0.160645	1.752115
0.161133	1.751931
0.161621	1.751907
0.162109	1.751814
0.162598	1.751885
0.163086	1.751532
0.163574	1.751714
0.164062	1.751710
0.164551	1.751927
0.165039	1.751960
0.165527	1.752062
0.166016	1.751955
0.166504	1.751807
0.166992	1.751960
0.167480	1.751920
0.167969	1.752098
0.168457	1.751722
0.168945	1.751851
0.169434	1.752096
0.169922	1.752152
0.170410	1.751806
0.170898	1.751993
0.171387	1.752032
0.171875	1.752241
0.172363	1.752338
0.172852	1.752057
0.173340	1.752148
0.173828	1.751926
0.174316	1.751937
0.174805	1.752308
0.175293	1.751995
0.175781	1.751924
0.176270	1.751978
0.176758	1.751952
0.177246	1.751900
0.177734	1.752065
0.178223	1.751949
0.178711	1.751951
0.179199	1.752048
0.179687	1.751965
0.180176	1.752222
0.180664	1.752341
0.181152	1.751830
0.181641	1.751884
0.182129	1.752383
0.182617	1.752200
0.183105	1.751998
0.183594	1.751935
0.184082	1.752064
0.184570	1.751827
0.185059	1.751691
0.185547	1.751877
0.186035	1.751851
0.186523	1.751604
0.187012	1.751618
0.187500	1.752002
0.187988	1.751880
0.188477	1.751868
0.188965	1.751902
0.189453	1.751597
0.189941	1.751787
0.190430	1.752012
0.190918	1.751748
0.191406	1.751670
0.191895	1.751901
0.192383	1.751838
0.192871	1.751805
0.193359	1.751928
0.193848	1.751963
0.194336	1.751822
0.194824	1.751918
0.195312	1.751923
0.195801	1.752006
0.196289	1.751987
0.196777	1.751641
0.197266	1.751907
0.197754	1.751990
0.198242	1.751923
0.198730	1.751744
0.199219	1.751986
0.199707	1.752117
0.200195	1.752125
0.200684	1.752204
0.201172	1.752075
0.201660	1.752083
0.202148	1.751998
0.202637	1.752213
0.203125	1.752086
0.203613	1.752087
0.204102	1.752209
0.204590	1.752203
0.205078	1.751996
0.205566	1.752378
0.206055	1.752297
0.206543	1.752056
0.207031	1.752122
0.207520	1.752143
0.208008	1.752043
0.208496	1.752292
0.208984	1.752361
0.209473	1.752369
0.209961	1.752246
0.210449	1.752529
0.210937	1.752269
0.211426	1.752031
0.211914	1.752473
0.212402	1.752503
0.212891	1.752138
0.213379	1.752247
0.213867	1.752474
0.214355	1.752228
0.214844	1.752458
0.215332	1.752427
0.215820	1.752451
0.216309	1.752296
0.216797	1.752557
0.217285	1.752388
0.217773	1.751983
0.218262	1.752516
0.218750	1.752593
0.219238	1.752389
0.219727	1.752381
0.220215	1.752644
0.220703	1.752350
0.221191	1.752275
0.221680	1.752408
0.222168	1.752348
0.222656	1.752192
0.223145	1.752066
0.223633	1.752293
0.224121	1.752173
0.224609	1.752175
0.225098	1.752056
0.225586	1.751982
0.226074	1.752122
0.226562	1.752075
0.227051	1.752132
0.227539	1.752015
0.228027	1.751995
0.228516	1.751868
0.229004	1.752051
0.229492	1.752422
0.229980	1.752254
0.230469	1.751980
0.230957	1.752185
0.231445	1.752019
0.231934	1.752223
0.232422	1.752311
0.232910	1.751965
0.233398	1.752189
0.233887	1.752172
0.234375	1.752378
0.234863	1.751809
0.235352	1.751953
0.235840	1.752274
0.236328	1.752245
0.236816	1.751909
0.237305	1.752161
0.237793	1.752209
0.238281	1.752151
0.238770	1.752352
0.239258	1.752411
0.239746	1.752400
0.240234	1.752132
0.240723	1.752165
0.241211	1.752204
0.241699	1.752201
0.242187	1.752211
0.242676	1.752075
0.243164	1.752068
0.243652	1.752204
0.244141	1.752308
0.244629	1.751998
0.245117	1.752026
0.245605	1.752203
0.246094	1.752187
0.246582	1.752176
0.247070	1.752050
0.247559	1.752298
0.248047	1.752248
0.248535	1.752060
0.249023	1.752120
0.249512	1.752274
0.250000	1.752360
0.250488	1.752673
0.250977	1.752085
0.251465	1.752089
0.251953	1.752374
0.252441	1.752320
0.252930	1.752068
0.253418	1.752142
0.253906	1.752169
0.254395	1.752128
0.254883	1.752046
0.255371	1.752254
0.255859	1.752043
0.256348	1.752151
0.256836	1.752517
0.257324	1.752312
0.257812	1.752292
0.258301	1.752303
0.258789	1.752288
0.259277	1.752450
0.259766	1.752683
0.260254	1.752358
0.260742	1.752329
0.261230	1.752381
0.261719	1.752545
0.262207	1.752304
0.262695	1.752295
0.263184	1.752129
0.263672	1.752207
0.264160	1.752015
0.264648	1.752071
0.265137	1.752105
0.265625	1.752198
0.266113	1.752198
0.266602	1.752120
0.267090	1.751957
0.267578	1.752045
0.268066	1.751964
0.268555	1.751994
0.269043	1.752028
0.269531	1.752155
0.270020	1.752175
0.270508	1.752007
0.270996	1.751996
0.271484	1.752112
0.271973	1.751844
0.272461	1.751871
0.272949	1.751822
0.273437	1.751885
0.273926	1.752091
0.274414	1.751984
0.274902	1.752082
0.275391	1.752080
0.275879	1.751757
0.276367	1.751999
0.276855	1.752206
0.277344	1.751842
0.277832	1.751751
0.278320	1.751938
0.278809	1.751916
0.279297	1.751969
0.279785	1.751931
0.280273	1.751684
0.280762	1.751931
0.281250	1.751891
0.281738	1.751636
0.282227	1.752165
0.282715	1.751879
0.283203	1.752007
0.283691	1.751953
0.284180	1.752064
0.284668	1.752095
0.285156	1.752025
0.285645	1.751947
0.286133	1.751873
0.286621	1.752115
0.287109	1.752133
0.287598	1.751984
0.288086	1.752063
0.288574	1.751832
0.289062	1.751891
0.289551	1.751879
0.290039	1.751925
0.290527	1.751905
0.291016	1.751777
0.291504	1.752064
0.291992	1.751827
0.292480	1.751842
0.292969	1.751761
0.293457	1.751687
0.293945	1.752128
0.294434	1.752036
0.294922	1.751905
0.295410	1.751782
0.295898	1.752279
0.296387	1.752036
0.296875	1.751845
0.297363	1.751916
0.297852	1.752054
0.298340	1.751920
0.298828	1.751941
0.299316	1.752034
0.299805	1.751981
0.300293	1.752104
0.300781	1.752183
0.301270	1.751902
0.301758	1.751916
0.302246	1.752332
0.302734	1.752197
0.303223	1.752187
0.303711	1.752215
0.304199	1.752266
0.304687	1.752029
0.305176	1.752128
0.305664	1.752430
0.306152	1.752538
0.306641	1.752012
0.307129	1.752017
0.307617	1.752315
0.308105	1.752272
0.308594	1.752144
0.309082	1.752258
0.309570	1.752059
0.310059	1.752187
0.310547	1.751988
0.311035	1.752088
0.311523	1.752161
0.312012	1.751985
0.312500	1.751974
0.312988	1.751693
0.313477	1.751789
0.313965	1.752009
0.314453	1.751821
0.314941	1.751577
0.315430	1.751724
0.315918	1.751937
0.316406	1.751817
0.316895	1.751805
0.317383	1.751866
0.317871	1.751851
0.318359	1.751971
0.318848	1.752023
0.319336	1.751859
0.319824	1.751948
0.320312	1.752068
0.320801	1.752192
0.321289	1.751909
0.321777	1.751957
0.322266	1.752267
0.322754	1.751986
0.323242	1.752010
0.323730	1.752133
0.324219	1.752145
0.324707	1.752071
0.325195	1.752209
0.325684	1.752076
0.326172	1.752125
0.326660	1.751968
0.327148	1.752281
0.327637	1.752183
0.328125	1.752183
0.328613	1.752339
0.329102	1.752391
0.329590	1.752491
0.330078	1.752366
0.330566	1.752167
0.331055	1.752403
0.331543	1.752751
0.332031	1.752178
0.332520	1.752034
0.333008	1.752208
0.333496	1.752192
0.333984	1.752106
0.334473	1.752139
0.334961	1.752107
0.335449	1.752086
0.335937	1.751929
0.336426	1.752111
0.336914	1.752136
0.337402	1.752023
0.337891	1.752057
0.338379	1.752125
0.338867	1.752165
0.339355	1.752363
0.339844	1.752342
0.340332	1.752303
0.340820	1.752432
0.341309	1.752319
0.341797	1.752269
0.342285	1.752447
0.342773	1.752355
0.343262	1.752574
0.343750	1.752215
0.344238	1.752379
0.344727	1.752295
0.345215	1.752132
0.345703	1.752353
0.346191	1.752429
0.346680	1.752084
0.347168	1.752241
0.347656	1.752050
0.348145	1.752113
0.348633	1.752370
0.349121	1.752208
0.349609	1.752030
0.350098	1.752189
0.350586	1.752334
0.351074	1.752294
0.351562	1.752251
0.352051	1.752153
0.352539	1.752237
0.353027	1.751984
0.353516	1.752210
0.354004	1.752242
0.354492	1.752173
0.354980	1.752101
0.355469	1.752264
0.355957	1.752144
0.356445	1.752406
0.356934	1.752478
0.357422	1.752370
0.357910	1.752488
0.358398	1.752792
0.358887	1.752509
0.359375	1.752768
0.359863	1.752576
0.360352	1.752735
0.360840	1.752662
0.361328	1.752563
0.361816	1.752582
0.362305	1.752573
0.362793	1.752459
0.363281	1.752481
0.363770	1.752347
0.364258	1.752451
0.364746	1.752334
0.365234	1.752386
0.365723	1.752660
0.366211	1.752463
0.366699	1.752415
0.367187	1.752521
0.367676	1.752710
0.368164	1.752568
0.368652	1.752556
0.369141	1.752458
0.369629	1.752389
0.370117	1.752341
0.370605	1.752319
0.371094	1.752421
0.371582	1.752370
0.372070	1.752199
0.372559	1.752367
0.373047	1.752024
0.373535	1.752407
0.374023	1.752022
0.374512	1.752118
0.375000	1.752367
0.375488	1.752346
0.375977	1.752320
0.376465	1.752475
0.376953	1.752375
0.377441	1.752398
0.377930	1.752568
0.378418	1.752470
0.378906	1.752430
0.379395	1.752428
0.379883	1.752536
0.380371	1.752494
0.380859	1.752378
0.381348	1.752249
0.381836	1.752423
0.382324	1.752208
0.382812	1.752303
0.383301	1.752332
0.383789	1.752141
0.384277	1.752082
0.384766	1.752464
0.385254	1.752203
0.385742	1.752488
0.386230	1.752348
0.386719	1.752231
0.387207	1.752254
0.387695	1.752302
0.388184	1.752154
0.388672	1.752198
0.389160	1.752346
0.389648	1.752310
0.390137	1.752005
0.390625	1.751812
0.391113	1.751986
0.391602	1.751935
0.392090	1.751973
0.392578	1.752001
0.393066	1.751884
0.393555	1.751855
0.394043	1.751938
0.394531	1.751948
0.395020	1.751858
0.395508	1.751957
0.395996	1.751920
0.396484	1.751931
0.396973	1.751815
0.397461	1.751988
0.397949	1.752021
0.398437	1.751814
0.398926	1.751889
0.399414	1.752143
0.399902	1.752113
0.400391	1.751902
0.400879	1.751903
0.401367	1.752208
0.401855	1.752171
0.402344	1.751829
0.402832	1.751920
0.403320	1.751990
0.403809	1.752205
0.404297	1.752307
0.404785	1.752164
0.405273	1.752017
0.405762	1.752074
0.406250	1.752024
0.406738	1.752100
0.407227	1.752179
0.407715	1.752096
0.408203	1.752123
0.408691	1.752070
0.409180	1.751960
0.409668	1.752076
0.410156	1.751951
0.410645	1.752035
0.411133	1.751918
0.411621	1.751760
0.412109	1.752103
0.412598	1.752076
0.413086	1.751956
0.413574	1.751931
0.414062	1.752327
0.414551	1.752410
0.415039	1.752314
0.415527	1.752272
0.416016	1.752510
0.416504	1.752252
0.416992	1.752275
0.417480	1.752138
0.417969	1.752136
0.418457	1.752313
0.418945	1.752436
0.419434	1.752038
0.419922	1.752156
0.420410	1.752458
0.420898	1.752439
0.421387	1.752390
0.421875	1.752524
0.422363	1.752490
0.422852	1.752478
0.423340	1.752605
0.423828	1.752784
0.424316	1.752606
0.424805	1.752711
0.425293	1.752616
0.425781	1.752455
0.426270	1.752631
0.426758	1.752623
0.427246	1.752329
0.427734	1.752548
0.428223	1.752657
0.428711	1.752595
0.429199	1.752687
0.429687	1.752861
0.430176	1.752617
0.430664	1.752603
0.431152	1.752936
0.431641	1.752810
0.432129	1.753045
0.432617	1.752828
0.433105	1.752957
0.433594	1.753003
0.434082	1.752907
0.434570	1.752921
0.435059	1.752975
0.435547	1.752937
0.436035	1.753031
0.436523	1.752791
0.437012	1.752724
0.437500	1.752631
0.437988	1.752699
0.438477	1.752663
0.438965	1.752696
0.439453	1.752803
0.439941	1.752662
0.440430	1.752551
0.440918	1.752623
0.441406	1.752529
0.441895	1.752508
0.442383	1.752709
0.442871	1.752630
0.443359	1.752380
0.443848	1.752674
0.444336	1.752731
0.444824	1.752702
0.445312	1.752740
0.445801	1.752665
0.446289	1.752634
0.446777	1.752583
0.447266	1.752639
0.447754	1.752757
0.448242	1.752713
0.448730	1.752601
0.449219	1.752724
0.449707	1.753025
0.450195	1.752870
0.450684	1.752674
0.451172	1.752648
0.451660	1.752710
0.452148	1.752525
0.452637	1.752561
0.453125	1.752738
0.453613	1.752630
0.454102	1.752580
0.454590	1.752662
0.455078	1.752560
0.455566	1.752416
0.456055	1.752295
0.456543	1.752493
0.457031	1.752641
0.457520	1.752441
0.458008	1.752306
0.458496	1.752451
0.458984	1.752432
0.459473	1.752849
0.459961	1.752812
0.460449	1.752538
0.460937	1.752452
0.461426	1.752452
0.461914	1.752442
0.462402	1.752637
0.462891	1.752338
0.463379	1.752362
0.463867	1.752369
0.464355	1.752374
0.464844	1.752498
0.465332	1.752763
0.465820	1.752230
0.466309	1.752277
0.466797	1.752633
0.467285	1.752615
0.467773	1.752162
0.468262	1.752532
0.468750	1.752606
0.469238	1.752485
0.469727	1.752337
0.470215	1.752680
0.470703	1.752480
0.471191	1.752460
0.471680	1.752683
0.472168	1.752518
0.472656	1.752397
0.473145	1.752236
0.473633	1.752359
0.474121	1.752510
0.474609	1.752459
0.475098	1.752469
0.475586	1.752302
0.476074	1.752531
0.476562	1.752611
0.477051	1.752585
0.477539	1.752502
0.478027	1.752461
0.478516	1.752335
0.479004	1.752362
0.479492	1.752704
0.479980	1.752576
0.480469	1.752184
0.480957	1.752388
0.481445	1.752658
0.481934	1.752408
0.482422	1.752623
0.482910	1.752361
0.483398	1.752434
0.483887	1.752334
0.484375	1.752306
0.484863	1.752585
0.485352	1.752783
0.485840	1.752372
0.486328	1.752493
0.486816	1.752479
0.487305	1.752547
0.487793	1.752410
0.488281	1.752230
0.488770	1.752451
0.489258	1.752435
0.489746	1.752254
0.490234	1.752281
0.490723	1.752231
0.491211	1.752388
0.491699	1.752406
0.492187	1.752145
0.492676	1.752062
0.493164	1.752087
0.493652	1.752212
0.494141	1.752144
0.494629	1.752010
0.495117	1.752202
0.495605	1.752020
0.496094	1.751913
0.496582	1.752107
0.497070	1.751833
0.497559	1.751931
0.498047	1.751910
0.498535	1.751959
0.499023	1.751832
0.499512	1.752130
0.500000	1.752051
0.500488	1.751902
0.500977	1.751979
0.501465	1.752114
0.501953	1.752078
0.502441	1.752294
0.502930	1.752287
0.503418	1.752196
0.503906	1.752326
0.504395	1.752396
0.504883	1.752112
0.505371	1.752199
0.505859	1.752519
0.506348	1.752459
0.506836	1.752493
0.507324	1.752436
0.507812	1.752331
0.508301	1.752424
0.508789	1.752771
0.509277	1.752506
0.509766	1.752430
0.510254	1.752630
0.510742	1.752485
0.511230	1.752599
0.511719	1.752610
0.512207	1.752651
0.512695	1.752691
0.513184	1.752536
0.513672	1.752614
0.514160	1.752731
0.514648	1.752666
0.515137	1.753140
0.515625	1.752788
0.516113	1.752660
0.516602	1.752848
0.517090	1.752993
0.517578	1.752870
0.518066	1.752968
0.518555	1.753017
0.519043	1.752839
0.519531	1.752873
0.520020	1.752989
0.520508	1.753000
0.520996	1.752976
0.521484	1.752713
0.521973	1.752882
0.522461	1.753008
0.522949	1.753166
0.523437	1.752960
0.523926	1.753039
0.524414	1.752813
0.524902	1.753061
0.525391	1.753011
0.525879	1.753114
0.526367	1.753059
0.526855	1.753127
0.527344	1.753177
0.527832	1.753225
0.528320	1.753111
0.528809	1.753159
0.529297	1.753455
0.529785	1.753337
0.530273	1.753164
0.530762	1.753429
0.531250	1.753022
0.531738	1.753246
0.532227	1.753186
0.532715	1.753075
0.533203	1.752940
0.533691	1.753033
0.534180	1.752873
0.534668	1.752773
0.535156	1.752879
0.535645	1.752809
0.536133	1.752845
0.536621	1.752773
0.537109	1.752848
0.537598	1.752569
0.538086	1.752694
0.538574	1.752772
0.539062	1.752808
0.539551	1.752889
0.540039	1.752834
0.540527	1.752723
0.541016	1.752809
0.541504	1.753049
0.541992	1.753036
0.542480	1.752875
0.542969	1.752831
0.543457	1.752682
0.543945	1.752785
0.544434	1.752590
0.544922	1.752540
0.545410	1.752585
0.545898	1.752830
0.546387	1.752794
0.546875	1.752809
0.547363	1.752750
0.547852	1.752867
0.548340	1.752676
0.548828	1.752719
0.549316	1.752824
0.549805	1.752807
0.550293	1.752703
0.550781	1.752954
0.551270	1.752614
0.551758	1.752502
0.552246	1.752840
0.552734	1.752741
0.553223	1.752635
0.553711	1.752544
0.554199	1.752678
0.554687	1.752541
0.555176	1.752459
0.555664	1.752868
0.556152	1.752504
0.556641	1.752616
0.557129	1.752663
0.557617	1.752690
0.558105	1.752608
0.558594	1.752730
0.559082	1.752795
0.559570	1.752629
0.560059	1.752850
0.560547	1.752757
0.561035	1.752900
0.561523	1.752912
0.562012	1.752784
0.562500	1.752693
0.562988	1.752710
0.563477	1.752842
0.563965	1.752594
0.564453	1.752376
0.564941	1.752909
0.565430	1.752689
0.565918	1.752615
0.566406	1.752538
0.566895	1.752724
0.567383	1.752487
0.567871	1.752774
0.568359	1.752556
0.568848	1.752421
0.569336	1.752563
0.569824	1.752436
0.570312	1.752511
0.570801	1.752569
0.571289	1.752466
0.571777	1.752287
0.572266	1.752688
0.572754	1.752597
0.573242	1.752601
0.573730	1.752462
0.574219	1.752572
0.574707	1.752612
0.575195	1.752411
0.575684	1.752624
0.576172	1.752280
0.576660	1.752322
0.577148	1.752375
0.577637	1.752472
0.578125	1.752329
0.578613	1.752526
0.579102	1.752427
0.579590	1.752438
0.580078	1.752532
0.580566	1.752341
0.581055	1.752350
0.581543	1.752590
0.582031	1.752385
0.582520	1.752770
0.583008	1.752483
0.583496	1.752394
0.583984	1.752365
0.584473	1.752363
0.584961	1.752532
0.585449	1.752461
0.585937	1.752546
0.586426	1.752491
0.586914	1.752424
0.587402	1.752591
0.587891	1.752626
0.588379	1.752615
0.588867	1.752522
0.589355	1.752544
0.589844	1.752606
0.590332	1.752556
0.590820	1.752554
0.591309	1.752417
0.591797	1.752416
0.592285	1.752756
0.592773	1.752694
0.593262	1.752647
0.593750	1.752616
0.594238	1.752648
0.594727	1.752712
0.595215	1.752616
0.595703	1.752859
0.596191	1.752488
0.596680	1.752680
0.597168	1.752883
0.597656	1.752860
0.598145	1.752723
0.598633	1.752948
0.599121	1.753008
0.599609	1.753120
0.600098	1.753129
0.600586	1.752887
0.601074	1.753116
0.601562	1.753203
0.602051	1.753213
0.602539	1.753315
0.603027	1.753059
0.603516	1.752976
0.604004	1.752924
0.604492	1.752965
0.604980	1.753092
0.605469	1.753098
0.605957	1.752955
0.606445	1.752884
0.606934	1.752921
0.607422	1.752948
0.607910	1.752849
0.608398	1.752959
0.608887	1.752841
0.609375	1.752848
0.609863	1.753070
0.610352	1.752983
0.610840	1.752748
0.611328	1.753092
0.611816	1.753052
0.612305	1.752867
0.612793	1.752687
0.613281	1.753253
0.613770	1.752914
0.614258	1.752935
0.614746	1.753078
0.615234	1.753017
0.615723	1.752792
0.616211	1.752819
0.616699	1.752890
0.617187	1.752987
0.617676	1.752924
0.618164	1.752836
0.618652	1.752809
0.619141	1.753000
0.619629	1.752941
0.620117	1.752925
0.620605	1.752906
0.621094	1.752869
0.621582	1.752743
0.622070	1.752821
0.622559	1.752911
0.623047	1.752746
0.623535	1.752980
0.624023	1.752665
0.624512	1.752701
0.625000	1.752940
0.625488	1.752939
0.625977	1.752765
0.626465	1.752826
0.626953	1.752717
0.627441	1.752834
0.627930	1.752876
0.628418	1.752950
0.628906	1.752654
0.629395	1.752835
0.629883	1.753038
0.630371	1.752903
0.630859	1.752673
0.631348	1.752842
0.631836	1.752727
0.632324	1.752841
0.632812	1.752911
0.633301	1.752851
0.633789	1.752850
0.634277	1.752592
0.634766	1.752842
0.635254	1.753085
0.635742	1.752904
0.636230	1.752848
0.636719	1.753131
0.637207	1.752833
0.637695	1.752877
0.638184	1.752814
0.638672	1.752931
0.639160	1.752883
0.639648	1.752887
0.640137	1.752949
0.640625	1.752577
0.641113	1.752781
0.641602	1.753154
0.642090	1.752678
0.642578	1.752632
0.643066	1.752743
0.643555	1.752796
0.644043	1.753017
0.644531	1.752994
0.645020	1.752773
0.645508	1.752806
0.645996	1.752865
0.646484	1.752843
0.646973	1.752619
0.647461	1.752635
0.647949	1.752731
0.648437	1.752651
0.648926	1.752468
0.649414	1.752460
0.649902	1.752438
0.650391	1.752559
0.650879	1.752592
0.651367	1.752417
0.651855	1.752618
0.652344	1.752500
0.652832	1.752297
0.653320	1.752723
0.653809	1.752632
0.654297	1.752119
0.654785	1.752496
0.655273	1.752547
0.655762	1.752534
0.656250	1.752458
0.656738	1.752494
0.657227	1.752333
0.657715	1.752322
0.658203	1.752223
0.658691	1.752294
0.659180	1.752078
0.659668	1.752197
0.660156	1.752182
0.660645	1.752095
0.661133	1.751823
0.661621	1.751757
0.662109	1.752023
0.662598	1.752007
0.663086	1.751667
0.663574	1.751495
0.664062	1.751658
0.664551	1.751733
0.665039	1.752011
0.665527	1.751990
0.666016	1.751691
0.666504	1.751770
0.666992	1.751822
0.667480	1.752025
0.667969	1.751777
0.668457	1.751924
0.668945	1.752054
0.669434	1.751995
0.669922	1.751837
0.670410	1.752269
0.670898	1.752203
0.671387	1.752178
0.671875	1.752180
0.672363	1.752247
0.672852	1.752112
0.673340	1.751885
0.673828	1.752077
0.674316	1.752334
0.674805	1.752162
0.675293	1.752023
0.675781	1.751942
0.676270	1.751927
0.676758	1.752126
0.677246	1.752365
0.677734	1.752131
0.678223	1.752229
0.678711	1.752092
0.679199	1.752389
0.679687	1.752402
0.680176	1.752222
0.680664	1.752097
0.681152	1.752459
0.681641	1.752533
0.682129	1.752497
0.682617	1.752416
0.683105	1.752212
0.683594	1.752185
0.684082	1.752099
0.684570	1.752331
0.685059	1.752164
0.685547	1.752254
0.686035	1.752317
0.686523	1.752283
0.687012	1.752186
0.687500	1.752117
0.687988	1.752398
0.688477	1.752301
0.688965	1.752298
0.689453	1.752380
0.689941	1.752411
0.690430	1.752247
0.690918	1.752440
0.691406	1.752574
0.691895	1.752345
0.692383	1.752627
0.692871	1.752561
0.693359	1.752569
0.693848	1.752389
0.694336	1.752247
0.694824	1.752377
0.695312	1.752551
0.695801	1.752381
0.696289	1.752463
0.696777	1.752233
0.697266	1.752155
0.697754	1.752558
0.698242	1.752552
0.698730	1.752051
0.699219	1.752112
0.699707	1.752065
0.700195	1.752251
0.700684	1.752168
0.701172	1.751999
0.701660	1.752012
0.702148	1.752100
0.702637	1.751871
0.703125	1.752047
0.703613	1.751954
0.704102	1.751946
0.704590	1.752044
0.705078	1.752113
0.705566	1.751830
0.706055	1.751893
0.706543	1.751991
0.707031	1.752103
0.707520	1.751962
0.708008	1.752088
0.708496	1.751920
0.708984	1.752026
0.709473	1.752132
0.709961	1.752259
0.710449	1.752064
0.710937	1.752026
0.711426	1.752126
0.711914	1.752137
0.712402	1.752220
0.712891	1.752001
0.713379	1.751922
0.713867	1.752041
0.714355	1.751938
0.714844	1.752000
0.715332	1.751768
0.715820	1.751882
0.716309	1.751607
0.716797	1.751848
0.717285	1.751743
0.717773	1.752051
0.718262	1.751750
0.718750	1.751872
0.719238	1.751860
0.719727	1.752079
0.720215	1.751834
0.720703	1.751713
0.721191	1.751849
0.721680	1.752147
0.722168	1.751879
0.722656	1.751907
0.723145	1.751910
0.723633	1.751880
0.724121	1.752021
0.724609	1.752222
0.725098	1.752168
0.725586	1.752095
0.726074	1.752215
0.726562	1.752048
0.727051	1.751965
0.727539	1.752064
0.728027	1.752231
0.728516	1.752017
0.729004	1.751828
0.729492	1.752186
0.729980	1.752312
0.730469	1.752072
0.730957	1.752171
0.731445	1.752236
0.731934	1.752013
0.732422	1.752150
0.732910	1.752071
0.733398	1.752293
0.733887	1.752132
0.734375	1.752255
0.734863	1.752089
0.735352	1.752143
0.735840	1.752256
0.736328	1.752327
0.736816	1.752026
0.737305	1.752163
0.737793	1.752089
0.738281	1.752247
0.738770	1.752223
0.739258	1.752281
0.739746	1.752064
0.740234	1.752344
0.740723	1.752322
0.741211	1.752371
0.741699	1.752271
0.742187	1.752251
0.742676	1.752256
0.743164	1.752131
0.743652	1.752246
0.744141	1.752437
0.744629	1.752106
0.745117	1.752479
0.745605	1.752322
0.746094	1.751899
0.746582	1.752125
0.747070	1.752461
0.747559	1.752309
0.748047	1.752213
0.748535	1.752303
0.749023	1.752284
0.749512	1.752395
0.750000	1.752399
0.750488	1.752396
0.750977	1.752278
0.751465	1.752357
0.751953	1.752477
0.752441	1.752366
0.752930	1.752300
0.753418	1.752457
0.753906	1.752357
0.754395	1.752701
0.754883	1.752267
0.755371	1.752481
0.755859	1.752312
0.756348	1.752233
0.756836	1.752532
0.757324	1.752707
0.757812	1.752137
0.758301	1.752212
0.758789	1.752543
0.759277	1.752697
0.759766	1.752463
0.760254	1.752514
0.760742	1.752334
0.761230	1.752472
0.761719	1.752380
0.762207	1.752663
0.762695	1.752565
0.763184	1.752326
0.763672	1.752547
0.764160	1.752360
0.764648	1.752346
0.765137	1.752390
0.765625	1.752394
0.766113	1.752723
0.766602	1.752506
0.767090	1.752310
0.767578	1.752425
0.768066	1.752407
0.768555	1.752723
0.769043	1.752914
0.769531	1.752492
0.770020	1.752484
0.770508	1.752629
0.770996	1.752552
0.771484	1.752662
0.771973	1.752513
0.772461	1.752312
0.772949	1.752216
0.773437	1.752092
0.773926	1.752286
0.774414	1.752212
0.774902	1.752276
0.775391	1.752568
0.775879	1.752125
0.776367	1.752103
0.776855	1.752283
0.777344	1.752503
0.777832	1.752344
0.778320	1.752198
0.778809	1.752194
0.779297	1.752505
0.779785	1.752414
0.780273	1.752461
0.780762	1.752399
0.781250	1.752280
0.781738	1.752164
0.782227	1.752262
0.782715	1.752252
0.783203	1.751879
0.783691	1.751660
0.784180	1.752423
0.784668	1.752101
0.785156	1.752118
0.785645	1.751985
0.786133	1.752046
0.786621	1.751966
0.787109	1.752091
0.787598	1.752145
0.788086	1.752098
0.788574	1.751883
0.789062	1.751888
0.789551	1.752208
0.790039	1.752330
0.790527	1.751959
0.791016	1.751949
0.791504	1.752052
0.791992	1.752122
0.792480	1.752176
0.792969	1.752068
0.793457	1.752012
0.793945	1.752238
0.794434	1.752149
0.794922	1.752136
0.795410	1.751954
0.795898	1.751995
0.796387	1.752151
0.796875	1.752099
0.797363	1.752039
0.797852	1.752187
0.798340	1.752055
0.798828	1.752074
0.799316	1.752096
0.799805	1.752196
0.800293	1.752030
0.800781	1.751904
0.801270	1.752256
0.801758	1.752156
0.802246	1.751927
0.802734	1.751787
0.803223	1.751993
0.803711	1.752019
0.804199	1.752068
0.804687	1.752103
0.805176	1.751785
0.805664	1.751958
0.806152	1.751760
0.806641	1.751780
0.807129	1.751819
0.807617	1.752073
0.808105	1.751766
0.808594	1.752135
0.809082	1.752176
0.809570	1.751985
0.810059	1.751925
0.810547	1.752382
0.811035	1.752319
0.811523	1.752178
0.812012	1.752422
0.812500	1.752239
0.812988	1.752083
0.813477	1.752011
0.813965	1.752131
0.814453	1.752202
0.814941	1.752138
0.815430	1.752257
0.815918	1.751950
0.816406	1.752184
0.816895	1.752217
0.817383	1.752123
0.817871	1.751970
0.818359	1.752136
0.818848	1.751938
0.819336	1.752075
0.819824	1.752190
0.820312	1.752289
0.820801	1.751989
0.821289	1.752187
0.821777	1.752255
0.822266	1.752352
0.822754	1.752045
0.823242	1.752165
0.823730	1.752232
0.824219	1.751780
0.824707	1.751904
0.825195	1.752098
0.825684	1.751930
0.826172	1.751927
0.826660	1.751808
0.827148	1.751946
0.827637	1.751695
0.828125	1.751868
0.828613	1.751825
0.829102	1.751763
0.829590	1.751636
0.830078	1.751716
0.830566	1.751854
0.831055	1.751899
0.831543	1.751899
0.832031	1.751808
0.832520	1.751970
0.833008	1.751921
0.833496	1.751829
0.833984	1.752108
0.834473	1.752079
0.834961	1.751916
0.835449	1.752245
0.835937	1.752239
0.836426	1.752149
0.836914	1.751905
0.837402	1.752101
0.837891	1.752209
0.838379	1.752255
0.838867	1.752045
0.839355	1.752228
0.839844	1.752474
0.840332	1.752278
0.840820	1.752388
0.841309	1.752020
0.841797	1.752092
0.842285	1.752109
0.842773	1.752049
0.843262	1.752164
0.843750	1.752311
0.844238	1.752051
0.844727	1.751938
0.845215	1.752115
0.845703	1.752096
0.846191	1.752248
0.846680	1.752029
0.847168	1.752106
0.847656	1.752309
0.848145	1.752267
0.848633	1.752202
0.849121	1.752312
0.849609	1.752394
0.850098	1.752323
0.850586	1.752350
0.851074	1.752330
0.851562	1.752542
0.852051	1.752347
0.852539	1.752525
0.853027	1.752270
0.853516	1.752514
0.854004	1.752315
0.854492	1.751973
0.854980	1.752380
0.855469	1.752478
0.855957	1.752270
0.856445	1.752073
0.856934	1.752517
0.857422	1.752287
0.857910	1.752244
0.858398	1.752335
0.858887	1.752466
0.859375	1.752431
0.859863	1.752580
0.860352	1.752764
0.860840	1.752697
0.861328	1.752597
0.861816	1.752488
0.862305	1.752625
0.862793	1.752720
0.863281	1.752413
0.863770	1.752463
0.864258	1.752195
0.864746	1.752305
0.865234	1.752209
0.865723	1.752252
0.866211	1.752217
0.866699	1.752165
0.867187	1.752338
0.867676	1.752152
0.868164	1.752331
0.868652	1.752264
0.869141	1.752185
0.869629	1.752434
0.870117	1.752502
0.870605	1.752212
0.871094	1.752543
0.871582	1.752792
0.872070	1.752461
0.872559	1.752777
0.873047	1.752609
0.873535	1.752322
0.874023	1.752452
0.874512	1.752626
0.875000	1.752645
0.875488	1.752497
0.875977	1.752514
0.876465	1.752488
0.876953	1.752457
0.877441	1.752522
0.877930	1.752446
0.878418	1.752510
0.878906	1.752514
0.879395	1.752493
0.879883	1.752686
0.880371	1.752791
0.880859	1.752328
0.881348	1.752499
0.881836	1.752522
0.882324	1.752154
0.882812	1.752129
0.883301	1.752076
0.883789	1.751884
0.884277	1.752071
0.884766	1.751965
0.885254	1.751710
0.885742	1.751732
0.886230	1.751744
0.886719	1.751873
0.887207	1.751705
0.887695	1.751720
0.888184	1.751780
0.888672	1.751995
0.889160	1.752015
0.889648	1.752234
0.890137	1.752212
0.890625	1.752048
0.891113	1.752176
0.891602	1.752233
0.892090	1.751935
0.892578	1.752021
0.893066	1.752021
0.893555	1.752186
0.894043	1.752098
0.894531	1.751880
0.895020	1.751871
0.895508	1.751882
0.895996	1.752228
0.896484	1.751993
0.896973	1.751802
0.897461	1.752017
0.897949	1.752130
0.898437	1.752072
0.898926	1.751822
0.899414	1.752231
0.899902	1.752259
0.900391	1.752154
0.900879	1.751974
0.901367	1.752071
0.901855	1.751873
0.902344	1.752204
0.902832	1.752215
0.903320	1.751783
0.903809	1.752009
0.904297	1.752081
0.904785	1.752000
0.905273	1.752217
0.905762	1.752127
0.906250	1.752214
0.906738	1.752237
0.907227	1.752408
0.907715	1.752204
0.908203	1.751984
0.908691	1.752242
0.909180	1.752199
0.909668	1.752459
0.910156	1.752461
0.910645	1.752310
0.911133	1.752291
0.911621	1.752392
0.912109	1.752200
0.912598	1.751898
0.913086	1.751996
0.913574	1.751852
0.914062	1.751912
0.914551	1.752134
0.915039	1.752089
0.915527	1.751949
0.916016	1.752185
0.916504	1.752400
0.916992	1.752177
0.917480	1.752370
0.917969	1.752357
0.918457	1.752470
0.918945	1.752453
0.919434	1.752596
0.919922	1.752264
0.920410	1.752392
0.920898	1.752380
0.921387	1.752366
0.921875	1.752162
0.922363	1.752142
0.922852	1.752078
0.923340	1.752225
0.923828	1.752084
0.924316	1.751946
0.924805	1.751887
0.925293	1.752104
0.925781	1.752152
0.926270	1.752469
0.926758	1.752280
0.927246	1.752510
0.927734	1.752228
0.928223	1.752211
0.928711	1.752160
0.929199	1.752319
0.929687	1.752266
0.930176	1.752268
0.930664	1.752281
0.931152	1.752281
0.931641	1.752309
0.932129	1.752351
0.932617	1.752059
0.933105	1.752131
0.933594	1.752012
0.934082	1.752120
0.934570	1.752189
0.935059	1.752218
0.935547	1.752207
0.936035	1.751942
0.936523	1.752193
0.937012	1.752130
0.937500	1.752050
0.937988	1.752009
0.938477	1.751960
0.938965	1.751821
0.939453	1.751954
0.939941	1.752379
0.940430	1.751983
0.940918	1.751801
0.941406	1.751980
0.941895	1.751872
0.942383	1.751938
0.942871	1.751915
0.943359	1.751886
0.943848	1.751980
0.944336	1.752012
0.944824	1.751959
0.945312	1.752230
0.945801	1.752031
0.946289	1.752365
0.946777	1.752148
0.947266	1.752352
0.947754	1.751932
0.948242	1.751913
0.948730	1.752167
0.949219	1.752271
0.949707	1.752123
0.950195	1.752237
0.950684	1.752184
0.951172	1.752028
0.951660	1.752417
0.952148	1.752304
0.952637	1.751908
0.953125	1.752195
0.953613	1.752206
0.954102	1.752219
0.954590	1.752280
0.955078	1.752092
0.955566	1.752296
0.956055	1.751930
0.956543	1.752153
0.957031	1.752324
0.957520	1.752009
0.958008	1.752075
0.958496	1.752044
0.958984	1.752431
0.959473	1.752219
0.959961	1.752455
0.960449	1.752325
0.960937	1.752283
0.961426	1.752145
0.961914	1.752291
0.962402	1.752262
0.962891	1.752447
0.963379	1.752155
0.963867	1.752169
0.964355	1.752224
0.964844	1.752293
0.965332	1.752536
0.965820	1.752427
0.966309	1.752281
0.966797	1.752395
0.967285	1.752280
0.967773	1.752317
0.968262	1.752270
0.968750	1.752239
0.969238	1.752173
0.969727	1.752362
0.970215	1.752363
0.970703	1.752393
0.971191	1.752338
0.971680	1.752285
0.972168	1.752422
0.972656	1.752318
0.973145	1.752457
0.973633	1.752178
0.974121	1.752438
0.974609	1.752518
0.975098	1.752434
0.975586	1.752215
0.976074	1.752476
0.976562	1.752436
0.977051	1.752635
0.977539	1.752551
0.978027	1.752469
0.978516	1.752532
0.979004	1.752458
0.979492	1.752456
0.979980	1.752471
0.980469	1.752424
0.980957	1.752459
0.981445	1.752522
0.981934	1.752330
0.982422	1.752514
0.982910	1.752393
0.983398	1.752339
0.983887	1.752370
0.984375	1.752436
0.984863	1.752474
0.985352	1.752012
0.985840	1.752242
0.986328	1.752672
0.986816	1.752599
0.987305	1.752266
0.987793	1.752401
0.988281	1.752538
0.988770	1.752441
0.989258	1.752676
0.989746	1.752286
0.990234	1.752537
0.990723	1.752281
0.991211	1.752309
0.991699	1.752030
0.992187	1.752228
0.992676	1.752319
0.993164	1.752118
0.993652	1.751860
0.994141	1.752058
0.994629	1.752082
0.995117	1.752001
0.995605	1.752210
0.996094	1.751954
0.996582	1.752015
0.997070	1.752137
0.997559	1.752219
0.998047	1.751893
0.998535	1.752218
0.999023	1.752139
0.999512	1.752331
1.000000	1.752361
1.000488	1.752252
1.000977	1.751979
1.001465	1.752503
1.001953	1.752513
1.002441	1.752322
1.002930	1.752068
1.003418	1.752282
1.003906	1.752102
1.004395	1.752563
1.004883	1.752512
1.005371	1.752122
1.005859	1.752248
1.006348	1.752499
1.006836	1.752450
1.007324	1.752128
1.007812	1.752190
1.008301	1.752156
1.008789	1.752264
1.009277	1.752190
1.009766	1.752562
1.010254	1.752189
1.010742	1.752527
1.011230	1.752588
1.011719	1.752130
1.012207	1.752301
1.012695	1.752572
1.013184	1.752449
1.013672	1.752464
1.014160	1.752354
1.014648	1.752314
1.015137	1.752274
1.015625	1.752374
1.016113	1.752431
1.016602	1.752356
1.017090	1.752486
1.017578	1.752364
1.018066	1.752214
1.018555	1.752528
1.019043	1.752347
1.019531	1.752365
1.020020	1.752699
1.020508	1.752518
1.020996	1.752194
1.021484	1.752502
1.021973	1.752486
1.022461	1.752635
1.022949	1.752679
1.023437	1.752421
1.023926	1.752618
1.024414	1.752489
1.024902	1.752623
1.025391	1.752555
1.025879	1.752399
1.026367	1.752503
1.026855	1.752468
1.027344	1.752507
1.027832	1.752494
1.028320	1.752573
1.028809	1.752453
1.029297	1.752579
1.029785	1.752642
1.030273	1.752660
1.030762	1.752579
1.031250	1.752549
1.031738	1.752684
1.032227	1.752629
1.032715	1.752570
1.033203	1.752402
1.033691	1.752251
1.034180	1.752589
1.034668	1.752578
1.035156	1.752265
1.035645	1.752267
1.036133	1.752292
1.036621	1.752172
1.037109	1.752500
1.037598	1.752518
1.038086	1.752062
1.038574	1.752140
1.039062	1.752089
1.039551	1.752321
1.040039	1.752087
1.040527	1.752114
1.041016	1.751951
1.041504	1.752209
1.041992	1.751899
1.042480	1.752388
1.042969	1.752271
1.043457	1.752183
1.043945	1.752386
1.044434	1.752145
1.044922	1.752262
1.045410	1.752336
1.045898	1.752328
1.046387	1.752322
1.046875	1.752364
1.047363	1.752308
1.047852	1.751999
1.048340	1.752099
1.048828	1.752045
1.049316	1.751975
1.049805	1.752016
1.050293	1.752027
1.050781	1.751696
1.051270	1.751776
1.051758	1.751882
1.052246	1.751884
1.052734	1.751900
1.053223	1.751819
1.053711	1.751734
1.054199	1.751999
1.054687	1.751912
1.055176	1.751677
1.055664	1.751898
1.056152	1.751963
1.056641	1.752080
1.057129	1.751929
1.057617	1.751928
1.058105	1.751790
1.058594	1.751808
1.059082	1.752140
1.059570	1.751838
1.060059	1.751631
1.060547	1.751859
1.061035	1.751948
1.061523	1.751827
1.062012	1.751460
1.062500	1.751772
1.062988	1.751447
1.063477	1.751815
1.063965	1.752165
1.064453	1.751590
1.064941	1.751653
1.065430	1.751783
1.065918	1.751842
1.066406	1.751754
1.066895	1.751714
1.067383	1.751801
1.067871	1.751727
1.068359	1.751707
1.068848	1.751904
1.069336	1.751937
1.069824	1.751920
1.070312	1.751928
1.070801	1.751949
1.071289	1.751818
1.071777	1.751782
1.072266	1.751829
1.072754	1.752034
1.073242	1.751827
1.073730	1.751840
1.074219	1.751646
1.074707	1.751669
1.075195	1.751954
1.075684	1.752037
1.076172	1.751677
1.076660	1.751716
1.077148	1.752062
1.077637	1.752015
1.078125	1.751878
1.078613	1.751777
1.079102	1.751809
1.079590	1.751865
1.080078	1.751881
1.080566	1.751820
1.081055	1.751824
1.081543	1.751658
1.082031	1.751710
1.082520	1.751611
1.083008	1.751790
1.083496	1.751564
1.083984	1.751627
1.084473	1.752068
1.084961	1.751699
1.085449	1.751867
1.085937	1.751766
1.086426	1.751716
1.086914	1.751588
1.087402	1.751840
1.087891	1.751406
1.088379	1.751581
1.088867	1.751462
1.089355	1.751641
1.089844	1.751693
1.090332	1.751678
1.090820	1.751348
1.091309	1.751557
1.091797	1.751965
1.092285	1.751793
1.092773	1.751804
1.093262	1.751745
1.093750	1.751865
1.094238	1.751693
1.094727	1.751853
1.095215	1.751914
1.095703	1.751782
1.096191	1.751954
1.096680	1.752002
1.097168	1.751963
1.097656	1.752057
1.098145	1.752204
1.098633	1.751914
1.099121	1.751980
1.099609	1.752143
1.100098	1.752114
1.100586	1.752120
1.101074	1.752226
1.101562	1.752099
1.102051	1.752195
1.102539	1.752168
1.103027	1.752094
1.103516	1.751903
1.104004	1.752197
1.104492	1.752345
1.104980	1.752166
1.105469	1.751833
1.105957	1.752254
1.106445	1.752449
1.106934	1.752297
1.107422	1.752255
1.107910	1.752163
1.108398	1.752040
1.108887	1.752173
1.109375	1.752128
1.109863	1.752287
1.110352	1.752230
1.110840	1.752507
1.111328	1.752195
1.111816	1.752101
1.112305	1.752284
1.112793	1.752454
1.113281	1.752425
1.113770	1.752524
1.114258	1.752378
1.114746	1.752363
1.115234	1.752482
1.115723	1.752532
1.116211	1.752471
1.116699	1.752428
1.117187	1.752658
1.117676	1.752399
1.118164	1.752532
1.118652	1.752359
1.119141	1.752314
1.119629	1.752349
1.120117	1.752684
1.120605	1.752244
1.121094	1.752421
1.121582	1.752317
1.122070	1.752247
1.122559	1.752452
1.123047	1.752594
1.123535	1.752228
1.124023	1.752338
1.124512	1.752428
1.125000	1.752427
1.125488	1.752721
1.125977	1.752557
1.126465	1.752511
1.126953	1.752411
1.127441	1.752685
1.127930	1.752461
1.128418	1.752438
1.128906	1.752512
1.129395	1.752495
1.129883	1.752453
1.130371	1.752256
1.130859	1.752186
1.131348	1.752383
1.131836	1.752222
1.132324	1.752189
1.132812	1.752217
1.133301	1.752128
1.133789	1.752391
1.134277	1.752283
1.134766	1.752149
1.135254	1.752538
1.135742	1.752504
1.136230	1.752333
1.136719	1.752294
1.137207	1.752568
1.137695	1.752486
1.138184	1.752560
1.138672	1.752421
1.139160	1.752430
1.139648	1.752429
1.140137	1.752462
1.140625	1.752350
1.141113	1.752217
1.141602	1.752238
1.142090	1.752050
1.142578	1.751987
1.143066	1.752014
1.143555	1.752021
1.144043	1.751811
1.144531	1.752067
1.145020	1.752126
1.145508	1.752048
1.145996	1.751982
1.146484	1.751801
1.146973	1.752132
1.147461	1.752214
1.147949	1.752108
1.148437	1.752092
1.148926	1.752139
1.149414	1.752098
1.149902	1.752444
1.150391	1.752561
1.150879	1.751984
1.151367	1.752173
1.151855	1.752003
1.152344	1.752227
1.152832	1.752075
1.153320	1.752045
1.153809	1.752074
1.154297	1.752163
1.154785	1.751737
1.155273	1.752256
1.155762	1.752111
1.156250	1.751874
1.156738	1.751854
1.157227	1.752089
1.157715	1.751714
1.158203	1.751929
1.158691	1.751936
1.159180	1.751839
1.159668	1.751724
1.160156	1.751927
1.160645	1.751578
1.161133	1.751506
1.161621	1.751874
1.162109	1.752022
1.162598	1.751691
1.163086	1.751771
1.163574	1.751628
1.164062	1.751627
1.164551	1.751768
1.165039	1.751687
1.165527	1.751763
1.166016	1.751791
1.166504	1.751813
1.166992	1.751843
1.167480	1.751750
1.167969	1.751957
1.168457	1.752086
1.168945	1.751840
1.169434	1.751993
1.169922	1.751954
1.170410	1.751915
1.170898	1.751765
1.171387	1.751899
1.171875	1.751857
1.172363	1.752020
1.172852	1.751782
1.173340	1.751845
1.173828	1.752034
1.174316	1.751903
1.174805	1.751983
1.175293	1.751948
1.175781	1.751985
1.176270	1.751708
1.176758	1.751681
1.177246	1.751818
1.177734	1.752009
1.178223	1.751787
1.178711	1.751721
1.179199	1.751788
1.179687	1.751877
1.180176	1.752090
1.180664	1.751903
1.181152	1.751926
1.181641	1.751835
1.182129	1.751934
1.182617	1.752017
1.183105	1.751947
1.183594	1.751965
1.184082	1.752153
1.184570	1.751893
1.185059	1.752032
1.185547	1.752322
1.186035	1.752024
1.186523	1.751866
1.187012	1.752259
1.187500	1.752229
1.187988	1.752241
1.188477	1.752126
1.188965	1.752109
1.189453	1.752312
1.189941	1.752190
1.190430	1.752098
1.190918	1.752166
1.191406	1.752364
1.191895	1.752536
1.192383	1.752297
1.192871	1.752576
1.193359	1.752172
1.193848	1.752174
1.194336	1.752510
1.194824	1.752233
1.195312	1.752311
1.195801	1.752503
1.196289	1.752311
1.196777	1.752241
1.197266	1.752305
1.197754	1.752360
1.198242	1.752223
1.198730	1.752223
1.199219	1.752064
1.199707	1.752233
1.200195	1.752110
1.200684	1.752240
1.201172	1.752540
1.201660	1.752061
1.202148	1.752291
1.202637	1.752276
1.203125	1.752290
1.203613	1.752141
1.204102	1.752146
1.204590	1.752051
1.205078	1.752315
1.205566	1.752338
1.206055	1.752277
1.206543	1.752222
1.207031	1.752358
1.207520	1.752362
1.208008	1.752277
1.208496	1.752325
1.208984	1.752205
1.209473	1.752216
1.209961	1.752043
1.210449	1.752060
1.210937	1.752249
1.211426	1.752175
1.211914	1.752020
1.212402	1.751992
1.212891	1.752066
1.213379	1.752028
1.213867	1.752056
1.214355	1.751924
1.214844	1.752039
1.215332	1.751805
1.215820	1.751754
1.216309	1.751819
1.216797	1.751726
1.217285	1.751649
1.217773	1.751707
1.218262	1.751819
1.218750	1.751874
1.219238	1.751737
1.219727	1.752033
1.220215	1.752125
1.220703	1.751931
1.221191	1.751982
1.221680	1.751931
1.222168	1.751934
1.222656	1.752583
1.223145	1.752140
1.223633	1.751532
1.224121	1.752059
1.224609	1.752209
1.225098	1.752016
1.225586	1.752052
1.226074	1.751912
1.226562	1.751876
1.227051	1.752095
1.227539	1.752151
1.228027	1.751738
1.228516	1.751791
1.229004	1.752020
1.229492	1.752115
1.229980	1.751962
1.230469	1.752006
1.230957	1.752190
1.231445	1.752128
1.231934	1.752344
1.232422	1.752236
1.232910	1.752202
1.233398	1.752035
1.233887	1.752284
1.234375	1.752162
1.234863	1.752182
1.235352	1.752136
1.235840	1.752028
1.236328	1.752277
1.236816	1.752203
1.237305	1.752053
1.237793	1.752068
1.238281	1.752137
1.238770	1.752050
1.239258	1.752090
1.239746	1.752220
1.240234	1.751924
1.240723	1.751835
1.241211	1.752012
1.241699	1.752167
1.242187	1.752038
1.242676	1.752045
1.243164	1.752117
1.243652	1.751978
1.244141	1.752025
1.244629	1.752127
1.245117	1.752115
1.245605	1.752147
1.246094	1.752152
1.246582	1.752067
1.247070	1.752126
1.247559	1.752014
1.248047	1.752236
1.248535	1.751926
1.249023	1.752289
1.249512	1.752174
1.250000	1.751967
1.250488	1.752011
1.250977	1.752245
1.251465	1.752048
1.251953	1.752153
1.252441	1.752034
1.252930	1.752017
1.253418	1.751839
1.253906	1.751826
1.254395	1.751910
1.254883	1.751715
1.255371	1.751779
1.255859	1.751650
1.256348	1.751538
1.256836	1.751765
1.257324	1.751339
1.257812	1.751558
1.258301	1.751780
1.258789	1.751693
1.259277	1.751473
1.259766	1.751891
1.260254	1.751948
1.260742	1.751852
1.261230	1.751873
1.261719	1.751944
1.262207	1.751924
1.262695	1.751775
1.263184	1.751965
1.263672	1.752022
1.264160	1.751769
1.264648	1.751875
1.265137	1.751896
1.265625	1.752086
1.266113	1.752051
1.266602	1.752117
1.267090	1.751927
1.267578	1.752048
1.268066	1.751888
1.268555	1.751942
1.269043	1.752014
1.269531	1.752061
1.270020	1.752084
1.270508	1.751981
1.270996	1.751951
1.271484	1.752038
1.271973	1.751917
1.272461	1.751999
1.272949	1.751889
1.273437	1.751902
1.273926	1.751949
1.274414	1.752105
1.274902	1.752089
1.275391	1.752164
1.275879	1.752155
1.276367	1.751939
1.276855	1.752122
1.277344	1.751994
1.277832	1.752082
1.278320	1.752413
1.278809	1.752284
1.279297	1.752209
1.279785	1.752145
1.280273	1.752432
1.280762	1.752410
1.281250	1.752453
1.281738	1.752196
1.282227	1.752201
1.282715	1.752216
1.283203	1.752157
1.283691	1.752278
1.284180	1.752181
1.284668	1.751931
1.285156	1.752172
1.285645	1.752117
1.286133	1.752356
1.286621	1.752261
1.287109	1.752023
1.287598	1.752106
1.288086	1.752208
1.288574	1.752065
1.289062	1.752158
1.289551	1.752373
1.290039	1.752345
1.290527	1.752382
1.291016	1.752309
1.291504	1.752322
1.291992	1.752118
1.292480	1.752317
1.292969	1.752359
1.293457	1.752261
1.293945	1.752190
1.294434	1.752499
1.294922	1.752242
1.295410	1.752198
1.295898	1.752419
1.296387	1.752284
1.296875	1.752266
1.297363	1.752197
1.297852	1.752313
1.298340	1.752226
1.298828	1.752275
1.299316	1.752051
1.299805	1.752230
1.300293	1.752274
1.300781	1.752475
1.301270	1.752563
1.301758	1.752296
1.302246	1.752247
1.302734	1.752366
1.303223	1.752336
1.303711	1.752567
1.304199	1.752445
1.304687	1.752331
1.305176	1.752440
1.305664	1.752338
1.306152	1.752399
1.306641	1.752466
1.307129	1.752139
1.307617	1.752108
1.308105	1.752173
1.308594	1.752070
1.309082	1.752062
1.309570	1.752210
1.310059	1.752214
1.310547	1.752136
1.311035	1.752114
1.311523	1.752294
1.312012	1.752640
1.312500	1.752288
1.312988	1.752300
1.313477	1.752212
1.313965	1.752263
1.314453	1.752660
1.314941	1.752550
1.315430	1.752435
1.315918	1.752454
1.316406	1.752388
1.316895	1.752473
1.317383	1.752501
1.317871	1.752389
1.318359	1.752294
1.318848	1.752456
1.319336	1.752330
1.319824	1.752082
1.320312	1.752107
1.320801	1.752413
1.321289	1.752296
1.321777	1.752028
1.322266	1.752059
1.322754	1.752356
1.323242	1.752130
1.323730	1.752253
1.324219	1.752026
1.324707	1.752028
1.325195	1.751779
1.325684	1.751916
1.326172	1.752009
1.326660	1.752097
1.327148	1.751939
1.327637	1.751937
1.328125	1.751965
1.328613	1.752131
1.329102	1.752001
1.329590	1.752153
1.330078	1.752215
1.330566	1.752151
1.331055	1.752188
1.331543	1.752370
1.332031	1.752471
1.332520	1.752342
1.333008	1.752325
1.333496	1.752381
1.333984	1.752204
1.334473	1.752229
1.334961	1.752094
1.335449	1.752045
1.335937	1.752082
1.336426	1.752157
1.336914	1.752096
1.337402	1.751915
1.337891	1.752111
1.338379	1.752081
1.338867	1.752075
1.339355	1.752122
1.339844	1.752059
1.340332	1.752147
1.340820	1.752323
1.341309	1.752422
1.341797	1.751798
1.342285	1.752070
1.342773	1.752067
1.343262	1.751925
1.343750	1.751841
1.344238	1.752049
1.344727	1.752295
1.345215	1.752001
1.345703	1.751884
1.346191	1.751808
1.346680	1.751867
1.347168	1.752115
1.347656	1.751984
1.348145	1.751899
1.348633	1.752007
1.349121	1.752284
1.349609	1.752241
1.350098	1.752310
1.350586	1.752115
1.351074	1.752139
1.351562	1.752049
1.352051	1.752085
1.352539	1.752132
1.353027	1.752086
1.353516	1.752175
1.354004	1.752188
1.354492	1.752205
1.354980	1.752079
1.355469	1.752001
1.355957	1.752100
1.356445	1.752248
1.356934	1.752206
1.357422	1.751862
1.357910	1.752214
1.358398	1.752275
1.358887	1.752194
1.359375	1.752502
1.359863	1.752499
1.360352	1.752358
1.360840	1.752152
1.361328	1.752395
1.361816	1.752266
1.362305	1.752303
1.362793	1.752300
1.363281	1.752041
1.363770	1.751853
1.364258	1.752214
1.364746	1.752275
1.365234	1.751941
1.365723	1.751990
1.366211	1.751950
1.366699	1.751905
1.367187	1.752187
1.367676	1.751940
1.368164	1.752039
1.368652	1.752115
1.369141	1.752168
1.369629	1.751949
1.370117	1.751807
1.370605	1.751960
1.371094	1.752003
1.371582	1.751982
1.372070	1.752148
1.372559	1.751855
1.373047	1.751926
1.373535	1.751973
1.374023	1.752012
1.374512	1.751591
1.375000	1.751812
1.375488	1.751729
1.375977	1.751619
1.376465	1.751188
1.376953	1.751593
1.377441	1.751471
1.377930	1.751455
1.378418	1.751326
1.378906	1.751560
1.379395	1.751444
1.379883	1.751614
1.380371	1.751528
1.380859	1.751475
1.381348	1.751541
1.381836	1.751340
1.382324	1.751467
1.382812	1.751560
1.383301	1.751554
1.383789	1.751112
1.384277	1.751425
1.384766	1.751718
1.385254	1.751769
1.385742	1.751775
1.386230	1.751745
1.386719	1.751714
1.387207	1.751611
1.387695	1.751880
1.388184	1.751745
1.388672	1.751730
1.389160	1.751683
1.389648	1.751846
1.390137	1.751702
1.390625	1.751799
1.391113	1.751946
1.391602	1.751584
1.392090	1.751577
1.392578	1.751681
1.393066	1.751606
1.393555	1.751498
1.394043	1.751562
1.394531	1.751872
1.395020	1.751757
1.395508	1.751715
1.395996	1.751720
1.396484	1.751974
1.396973	1.751937
1.397461	1.751951
1.397949	1.751739
1.398437	1.751940
1.398926	1.751811
1.399414	1.751685
1.399902	1.752098
1.400391	1.752170
1.400879	1.751415
1.401367	1.751744
1.401855	1.751769
1.402344	1.751768
1.402832	1.751520
1.403320	1.751603
1.403809	1.751627
1.404297	1.751436
1.404785	1.751407
1.405273	1.751725
1.405762	1.751576
1.406250	1.751599
1.406738	1.751572
1.407227	1.751628
1.407715	1.751736
1.408203	1.751781
1.408691	1.751622
1.409180	1.751579
1.409668	1.751837
1.410156	1.751804
1.410645	1.751738
1.411133	1.751714
1.411621	1.752015
1.412109	1.752114
1.412598	1.751909
1.413086	1.751896
1.413574	1.751585
1.414062	1.751754
1.414551	1.751986
1.415039	1.751876
1.415527	1.751918
1.416016	1.751713
1.416504	1.751827
1.416992	1.751839
1.417480	1.752009
1.417969	1.751750
1.418457	1.751745
1.418945	1.752017
1.419434	1.751907
1.419922	1.751700
1.420410	1.751835
1.420898	1.751602
1.421387	1.751863
1.421875	1.752076
1.422363	1.751949
1.422852	1.751878
1.423340	1.751885
1.423828	1.752035
1.424316	1.751853
1.424805	1.751713
1.425293	1.752192
1.425781	1.751984
1.426270	1.751750
1.426758	1.751892
1.427246	1.752071
1.427734	1.751905
1.428223	1.751914
1.428711	1.751923
1.429199	1.752067
1.429687	1.752116
1.430176	1.751940
1.430664	1.751890
1.431152	1.752115
1.431641	1.752268
1.432129	1.752100
1.432617	1.752086
1.433105	1.752062
1.433594	1.751915
1.434082	1.752032
1.434570	1.751747
1.435059	1.751895
1.435547	1.752054
1.436035	1.752028
1.436523	1.751818
1.437012	1.751959
1.437500	1.752101
1.437988	1.752076
1.438477	1.752068
1.438965	1.752112
1.439453	1.752291
1.439941	1.752286
1.440430	1.752371
1.440918	1.752547
1.441406	1.752465
1.441895	1.752438
1.442383	1.752417
1.442871	1.752513
1.443359	1.752418
1.443848	1.752457
1.444336	1.752439
1.444824	1.752557
1.445312	1.752364
1.445801	1.752306
1.446289	1.752330
1.446777	1.752256
1.447266	1.751994
1.447754	1.751931
1.448242	1.751785
1.448730	1.752150
1.449219	1.751840
1.449707	1.751890
1.450195	1.751923
1.450684	1.752195
1.451172	1.752165
1.451660	1.752182
1.452148	1.752165
1.452637	1.751908
1.453125	1.751921
1.453613	1.751910
1.454102	1.752118
1.454590	1.751683
1.455078	1.751880
1.455566	1.752087
1.456055	1.751870
1.456543	1.751821
1.457031	1.751752
1.457520	1.751850
1.458008	1.751874
1.458496	1.752043
1.458984	1.751906
1.459473	1.751950
1.459961	1.751889
1.460449	1.752060
1.460937	1.751877
1.461426	1.751823
1.461914	1.751753
1.462402	1.752020
1.462891	1.751638
1.463379	1.751736
1.463867	1.751686
1.464355	1.752081
1.464844	1.751952
1.465332	1.751856
1.465820	1.751758
1.466309	1.751802
1.466797	1.751796
1.467285	1.752075
1.467773	1.751988
1.468262	1.751651
1.468750	1.751885
1.469238	1.751965
1.469727	1.752028
1.470215	1.752031
1.470703	1.751877
1.471191	1.751876
1.471680	1.752101
1.472168	1.751897
1.472656	1.752035
1.473145	1.751714
1.473633	1.751818
1.474121	1.751705
1.474609	1.751512
1.475098	1.751638
1.475586	1.751526
1.476074	1.751500
1.476562	1.751744
1.477051	1.751608
1.477539	1.751550
1.478027	1.751436
1.478516	1.751710
1.479004	1.751494
1.479492	1.751655
1.479980	1.751711
1.480469	1.751803
1.480957	1.751592
1.481445	1.751704
1.481934	1.751816
1.482422	1.751564
1.482910	1.751863
1.483398	1.751456
1.483887	1.751469
1.484375	1.751517
1.484863	1.751323
1.485352	1.751571
1.485840	1.751580
1.486328	1.751536
1.486816	1.751542
1.487305	1.751550
1.487793	1.751511
1.488281	1.751556
1.488770	1.751594
1.489258	1.751426
1.489746	1.751378
1.490234	1.751367
1.490723	1.751380
1.491211	1.751317
1.491699	1.751317
1.492187	1.751327
1.492676	1.751225
1.493164	1.751099
1.493652	1.751262
1.494141	1.751170
1.494629	1.751570
1.495117	1.751369
1.495605	1.751348
1.496094	1.751303
1.496582	1.751055
1.497070	1.751374
1.497559	1.751335
1.498047	1.751496
1.498535	1.751293
1.499023	1.751575
1.499512	1.751550
1.500000	1.751732
1.500488	1.751605
1.500977	1.751517
1.501465	1.751479
1.501953	1.751351
1.502441	1.751480
1.502930	1.751892
1.503418	1.751345
1.503906	1.751309
1.504395	1.751617
1.504883	1.751484
1.505371	1.751491
1.505859	1.751541
1.506348	1.751867
1.506836	1.751689
1.507324	1.751441
1.507812	1.751419
1.508301	1.751489
1.508789	1.751582
1.509277	1.752032
1.509766	1.751783
1.510254	1.751724
1.510742	1.752035
1.511230	1.751917
1.511719	1.751971
1.512207	1.752136
1.512695	1.751940
1.513184	1.751854
1.513672	1.751929
1.514160	1.752020
1.514648	1.752134
1.515137	1.752231
1.515625	1.752236
1.516113	1.752189
1.516602	1.752443
1.517090	1.752496
1.517578	1.752181
1.518066	1.752117
1.518555	1.752235
1.519043	1.752273
1.519531	1.752350
1.520020	1.752411
1.520508	1.752353
1.520996	1.752349
1.521484	1.752347
1.521973	1.752251
1.522461	1.752447
1.522949	1.752519
1.523437	1.752649
1.523926	1.752626
1.524414	1.752536
1.524902	1.752634
1.525391	1.752411
1.525879	1.752438
1.526367	1.752763
1.526855	1.752537
1.527344	1.752476
1.527832	1.752323
1.528320	1.752433
1.528809	1.752463
1.529297	1.752492
1.529785	1.752392
1.530273	1.752095
1.530762	1.752222
1.531250	1.752135
1.531738	1.752347
1.532227	1.752423
1.532715	1.752255
1.533203	1.752234
1.533691	1.752363
1.534180	1.752338
1.534668	1.752458
1.535156	1.752155
1.535645	1.752349
1.536133	1.752068
1.536621	1.752068
1.537109	1.752272
1.537598	1.752103
1.538086	1.752167
1.538574	1.752122
1.539062	1.752321
1.539551	1.752300
1.540039	1.752502
1.540527	1.752228
1.541016	1.752314
1.541504	1.752278
1.541992	1.752205
1.542480	1.752092
1.542969	1.752019
1.543457	1.752184
1.543945	1.752171
1.544434	1.751912
1.544922	1.751718
1.545410	1.752028
1.545898	1.751929
1.546387	1.751921
1.546875	1.751743
1.547363	1.751933
1.547852	1.751799
1.548340	1.751921
1.548828	1.751845
1.549316	1.751859
1.549805	1.751918
1.550293	1.751790
1.550781	1.751863
1.551270	1.752094
1.551758	1.752170
1.552246	1.752078
1.552734	1.752159
1.553223	1.752022
1.553711	1.751962
1.554199	1.752040
1.554687	1.751879
1.555176	1.751757
1.555664	1.751829
1.556152	1.752040
1.556641	1.751781
1.557129	1.752155
1.557617	1.751945
1.558105	1.751617
1.558594	1.751776
1.559082	1.752061
1.559570	1.751973
1.560059	1.751567
1.560547	1.751805
1.561035	1.751979
1.561523	1.751910
1.562012	1.751819
1.562500	1.751708
1.562988	1.751735
1.563477	1.751824
1.563965	1.752037
1.564453	1.751520
1.564941	1.751712
1.565430	1.751567
1.565918	1.751688
1.566406	1.751462
1.566895	1.751512
1.567383	1.751422
1.567871	1.751512
1.568359	1.751524
1.568848	1.751639
1.569336	1.751589
1.569824	1.751749
1.570312	1.751827
1.570801	1.751640
1.571289	1.751606
1.571777	1.751910
1.572266	1.751699
1.572754	1.752043
1.573242	1.751895
1.573730	1.751411
1.574219	1.751769
1.574707	1.751766
1.575195	1.751724
1.575684	1.751740
1.576172	1.751776
1.576660	1.751697
1.577148	1.751662
1.577637	1.751791
1.578125	1.751875
1.578613	1.751929
1.579102	1.751853
1.579590	1.752016
1.580078	1.752364
1.580566	1.752333
1.581055	1.751999
1.581543	1.752168
1.582031	1.752473
1.582520	1.752311
1.583008	1.752197
1.583496	1.752070
1.583984	1.752162
1.584473	1.752212
1.584961	1.752300
1.585449	1.751982
1.585937	1.752109
1.586426	1.752276
1.586914	1.752006
1.587402	1.751897
1.587891	1.752083
1.588379	1.752035
1.588867	1.752145
1.589355	1.751860
1.589844	1.752229
1.590332	1.752186
1.590820	1.751963
1.591309	1.752083
1.591797	1.752194
1.592285	1.752051
1.592773	1.752137
1.593262	1.752023
1.593750	1.752200
1.594238	1.752216
1.594727	1.752057
1.595215	1.751899
1.595703	1.752078
1.596191	1.752149
1.596680	1.751987
1.597168	1.751957
1.597656	1.752064
1.598145	1.752085
1.598633	1.751699
1.599121	1.752436
1.599609	1.752244
1.600098	1.751762
1.600586	1.751980
1.601074	1.752075
1.601562	1.751919
1.602051	1.751984
1.602539	1.751817
1.603027	1.751711
1.603516	1.751722
1.604004	1.751652
1.604492	1.751978
1.604980	1.751829
1.605469	1.751963
1.605957	1.751998
1.606445	1.752143
1.606934	1.752209
1.607422	1.751851
1.607910	1.752067
1.608398	1.752272
1.608887	1.752207
1.609375	1.752009
1.609863	1.752190
1.610352	1.752150
1.610840	1.752178
1.611328	1.752200
1.611816	1.751818
1.612305	1.751926
1.612793	1.751735
1.613281	1.751970
1.613770	1.751846
1.614258	1.751875
1.614746	1.751795
1.615234	1.751821
1.615723	1.751643
1.616211	1.751835
1.616699	1.751797
1.617187	1.752070
1.617676	1.751916
1.618164	1.752105
1.618652	1.751895
1.619141	1.751877
1.619629	1.751992
1.620117	1.752184
1.620605	1.751911
1.621094	1.751860
1.621582	1.751755
1.622070	1.751725
1.622559	1.751953
1.623047	1.752122
1.623535	1.751596
1.624023	1.751606
1.624512	1.751978
1.625000	1.751982
1.625488	1.752075
1.625977	1.752183
1.626465	1.751876
1.626953	1.751987
1.627441	1.752279
1.627930	1.752115
1.628418	1.752136
1.628906	1.752097
1.629395	1.752341
1.629883	1.752275
1.630371	1.752273
1.630859	1.752079
1.631348	1.752200
1.631836	1.752122
1.632324	1.752211
1.632812	1.751978
1.633301	1.751998
1.633789	1.751660
1.634277	1.751988
1.634766	1.751884
1.635254	1.751993
1.635742	1.751943
1.636230	1.752221
1.636719	1.752262
1.637207	1.752247
1.637695	1.752249
1.638184	1.752192
1.638672	1.752181
1.639160	1.752120
1.639648	1.752350
1.640137	1.752034
1.640625	1.752046
1.641113	1.751885
1.641602	1.751875
1.642090	1.752046
1.642578	1.752046
1.643066	1.752132
1.643555	1.751746
1.644043	1.751971
1.644531	1.751931
1.645020	1.752088
1.645508	1.752194
1.645996	1.752124
1.646484	1.752251
1.646973	1.752275
1.647461	1.752057
1.647949	1.752237
1.648437	1.752345
1.648926	1.752309
1.649414	1.752317
1.649902	1.752208
1.650391	1.752314
1.650879	1.752002
1.651367	1.752026
1.651855	1.752187
1.652344	1.752039
1.652832	1.751960
1.653320	1.751940
1.653809	1.752003
1.654297	1.752032
1.654785	1.751771
1.655273	1.752051
1.655762	1.752209
1.656250	1.752020
1.656738	1.751877
1.657227	1.752027
1.657715	1.752044
1.658203	1.752211
1.658691	1.752269
1.659180	1.751913
1.659668	1.752056
1.660156	1.752248
1.660645	1.752247
1.661133	1.752349
1.661621	1.752247
1.662109	1.752153
1.662598	1.752162
1.663086	1.752173
1.663574	1.752286
1.664062	1.752315
1.664551	1.752211
1.665039	1.752380
1.665527	1.752213
1.666016	1.752510
1.666504	1.752394
1.666992	1.752335
1.667480	1.752349
1.667969	1.752330
1.668457	1.752145
1.668945	1.752272
1.669434	1.752411
1.669922	1.752239
1.670410	1.752219
1.670898	1.752164
1.671387	1.752167
1.671875	1.752029
1.672363	1.751894
1.672852	1.752164
1.673340	1.752034
1.673828	1.751982
1.674316	1.752057
1.674805	1.752123
1.675293	1.752285
1.675781	1.752536
1.676270	1.752256
1.676758	1.752305
1.677246	1.752143
1.677734	1.752086
1.678223	1.752345
1.678711	1.752532
1.679199	1.752071
1.679687	1.752091
1.680176	1.752579
1.680664	1.752485
1.681152	1.752278
1.681641	1.752333
1.682129	1.752106
1.682617	1.752046
1.683105	1.752146
1.683594	1.752345
1.684082	1.752106
1.684570	1.752184
1.685059	1.752477
1.685547	1.752143
1.686035	1.752246
1.686523	1.752244
1.687012	1.752206
1.687500	1.752256
1.687988	1.752332
1.688477	1.752026
1.688965	1.752216
1.689453	1.752217
1.689941	1.752281
1.690430	1.752381
1.690918	1.752161
1.691406	1.752200
1.691895	1.752104
1.692383	1.752237
1.692871	1.752363
1.693359	1.752183
1.693848	1.751910
1.694336	1.751992
1.694824	1.751845
1.695312	1.752053
1.695801	1.752092
1.696289	1.751918
1.696777	1.751711
1.697266	1.752012
1.697754	1.751970
1.698242	1.751788
1.698730	1.751759
1.699219	1.751979
1.699707	1.751862
1.700195	1.751942
1.700684	1.751889
1.701172	1.751899
1.701660	1.751941
1.702148	1.752106
1.702637	1.752125
1.703125	1.751971
1.703613	1.752123
1.704102	1.752264
1.704590	1.751987
1.705078	1.752101
1.705566	1.751945
1.706055	1.752051
1.706543	1.751995
1.707031	1.751974
1.707520	1.751940
1.708008	1.752043
1.708496	1.752106
1.708984	1.751936
1.709473	1.752036
1.709961	1.752043
1.710449	1.751546
1.710937	1.751968
1.711426	1.752115
1.711914	1.751851
1.712402	1.751854
1.712891	1.752030
1.713379	1.751674
1.713867	1.751979
1.714355	1.751818
1.714844	1.751685
1.715332	1.751753
1.715820	1.751741
1.716309	1.751787
1.716797	1.751780
1.717285	1.751650
1.717773	1.751813
1.718262	1.751788
1.718750	1.751809
1.719238	1.751885
1.719727	1.751902
1.720215	1.751704
1.720703	1.751874
1.721191	1.751697
1.721680	1.751747
1.722168	1.751870
1.722656	1.751733
1.723145	1.751648
1.723633	1.751711
1.724121	1.751761
1.724609	1.751459
1.725098	1.751619
1.725586	1.751891
1.726074	1.751818
1.726562	1.751860
1.727051	1.751890
1.727539	1.751790
1.728027	1.751911
1.728516	1.751717
1.729004	1.751824
1.729492	1.751726
1.729980	1.751849
1.730469	1.751537
1.730957	1.751939
1.731445	1.752009
1.731934	1.751970
1.732422	1.751859
1.732910	1.751922
1.733398	1.751849
1.733887	1.751464
1.734375	1.751957
1.734863	1.752124
1.735352	1.752006
1.735840	1.751678
1.736328	1.752051
1.736816	1.752077
1.737305	1.752046
1.737793	1.752190
1.738281	1.752009
1.738770	1.752048
1.739258	1.751995
1.739746	1.752303
1.740234	1.752156
1.740723	1.752167
1.741211	1.752060
1.741699	1.752236
1.742187	1.752265
1.742676	1.752289
1.743164	1.752260
1.743652	1.752126
1.744141	1.752453
1.744629	1.752277
1.745117	1.752459
1.745605	1.752361
1.746094	1.752358
1.746582	1.752395
1.747070	1.752537
1.747559	1.752579
1.748047	1.752519
1.748535	1.752568
1.749023	1.752629
1.749512	1.752685
1.750000	1.752608
1.750488	1.752372
1.750977	1.752540
1.751465	1.752289
1.751953	1.752365
1.752441	1.752272
1.752930	1.751877
1.753418	1.752218
1.753906	1.752237
1.754395	1.752353
1.754883	1.752484
1.755371	1.752245
1.755859	1.752352
1.756348	1.752496
1.756836	1.752555
1.757324	1.752353
1.757812	1.752374
1.758301	1.752766
1.758789	1.752541
1.759277	1.752427
1.759766	1.752391
1.760254	1.752372
1.760742	1.752518
1.761230	1.752765
1.761719	1.752289
1.762207	1.752214
1.762695	1.752177
1.763184	1.752183
1.763672	1.752098
1.764160	1.751995
1.764648	1.752166
1.765137	1.752023
1.765625	1.752062
1.766113	1.751925
1.766602	1.752111
1.767090	1.752112
1.767578	1.752307
1.768066	1.752092
1.768555	1.752247
1.769043	1.752256
1.769531	1.752374
1.770020	1.752208
1.770508	1.752045
1.770996	1.752169
1.771484	1.752189
1.771973	1.752117
1.772461	1.752067
1.772949	1.752037
1.773437	1.752107
1.773926	1.752381
1.774414	1.751919
1.774902	1.752042
1.775391	1.751963
1.775879	1.751866
1.776367	1.751891
1.776855	1.751810
1.777344	1.751774
1.777832	1.751714
1.778320	1.752048
1.778809	1.751942
1.779297	1.751859
1.779785	1.751875
1.780273	1.751785
1.780762	1.751765
1.781250	1.751790
1.781738	1.751846
1.782227	1.751830
1.782715	1.751832
1.783203	1.751944
1.783691	1.751910
1.784180	1.751822
1.784668	1.751868
1.785156	1.751931
1.785645	1.752039
1.786133	1.751939
1.786621	1.751998
1.787109	1.751802
1.787598	1.751753
1.788086	1.751917
1.788574	1.752334
1.789062	1.751804
1.789551	1.751730
1.790039	1.751960
1.790527	1.751964
1.791016	1.752007
1.791504	1.751901
1.791992	1.751835
1.792480	1.752131
1.792969	1.751881
1.793457	1.751971
1.793945	1.752109
1.794434	1.752117
1.794922	1.752161
1.795410	1.752129
1.795898	1.752230
1.796387	1.752156
1.796875	1.752118
1.797363	1.752029
1.797852	1.752006
1.798340	1.752114
1.798828	1.752112
1.799316	1.752037
1.799805	1.752125
1.800293	1.752235
1.800781	1.752065
1.801270	1.752026
1.801758	1.751995
1.802246	1.751950
1.802734	1.752172
1.803223	1.752270
1.803711	1.751975
1.804199	1.751888
1.804687	1.751958
1.805176	1.751902
1.805664	1.752031
1.806152	1.751952
1.806641	1.752092
1.807129	1.751792
1.807617	1.751603
1.808105	1.751976
1.808594	1.752084
1.809082	1.751782
1.809570	1.751663
1.810059	1.751970
1.810547	1.751969
1.811035	1.752029
1.811523	1.751894
1.812012	1.751887
1.812500	1.752119
1.812988	1.751876
1.813477	1.751767
1.813965	1.751885
1.814453	1.752043
1.814941	1.751784
1.815430	1.752086
1.815918	1.752139
1.816406	1.751873
1.816895	1.751766
1.817383	1.752124
1.817871	1.751856
1.818359	1.751708
1.818848	1.752057
1.819336	1.751948
1.819824	1.751673
1.820312	1.751905
1.820801	1.751853
1.821289	1.751981
1.821777	1.751745
1.822266	1.751642
1.822754	1.751724
1.823242	1.751828
1.823730	1.751553
1.824219	1.751696
1.824707	1.751893
1.825195	1.751986
1.825684	1.751724
1.826172	1.751770
1.826660	1.751882
1.827148	1.751964
1.827637	1.752217
1.828125	1.752284
1.828613	1.752132
1.829102	1.752124
1.829590	1.752264
1.830078	1.752112
1.830566	1.752035
1.831055	1.752093
1.831543	1.752173
1.832031	1.752125
1.832520	1.752294
1.833008	1.752154
1.833496	1.752040
1.833984	1.752006
1.834473	1.751821
1.834961	1.751852
1.835449	1.751927
1.835937	1.751920
1.836426	1.751834
1.836914	1.751998
1.837402	1.751960
1.837891	1.751905
1.838379	1.752147
1.838867	1.752105
1.839355	1.751971
1.839844	1.752394
1.840332	1.752348
1.840820	1.752375
1.841309	1.752386
1.841797	1.752345
1.842285	1.752464
1.842773	1.752303
1.843262	1.752153
1.843750	1.752200
1.844238	1.752135
1.844727	1.752098
1.845215	1.752158
1.845703	1.752146
1.846191	1.752115
1.846680	1.752219
1.847168	1.752127
1.847656	1.752068
1.848145	1.751984
1.848633	1.752073
1.849121	1.752354
1.849609	1.752403
1.850098	1.752508
1.850586	1.752401
1.851074	1.752380
1.851562	1.752485
1.852051	1.752326
1.852539	1.752574
1.853027	1.752582
1.853516	1.752414
1.854004	1.752759
1.854492	1.752568
1.854980	1.752479
1.855469	1.752641
1.855957	1.752651
1.856445	1.752647
1.856934	1.752597
1.857422	1.752618
1.857910	1.752718
1.858398	1.752377
1.858887	1.752620
1.859375	1.752523
1.859863	1.752496
1.860352	1.752394
1.860840	1.752658
1.861328	1.752425
1.861816	1.752702
1.862305	1.752679
1.862793	1.752574
1.863281	1.752486
1.863770	1.752673
1.864258	1.752624
1.864746	1.752567
1.865234	1.752430
1.865723	1.752663
1.866211	1.752538
1.866699	1.752673
1.867187	1.752581
1.867676	1.752790
1.868164	1.752668
1.868652	1.752713
1.869141	1.752508
1.869629	1.752599
1.870117	1.752609
1.870605	1.752687
1.871094	1.752662
1.871582	1.752664
1.872070	1.752458
1.872559	1.752547
1.873047	1.752614
1.873535	1.752516
1.874023	1.752389
1.874512	1.752419
1.875000	1.752414
1.875488	1.752328
1.875977	1.752297
1.876465	1.752430
1.876953	1.752317
1.877441	1.752204
1.877930	1.752390
1.878418	1.752555
1.878906	1.752347
1.879395	1.752064
1.879883	1.752384
1.880371	1.752538
1.880859	1.752469
1.881348	1.752278
1.881836	1.752248
1.882324	1.752405
1.882812	1.752410
1.883301	1.752134
1.883789	1.752195
1.884277	1.752145
1.884766	1.751772
1.885254	1.752102
1.885742	1.752256
1.886230	1.752056
1.886719	1.751932
1.887207	1.752212
1.887695	1.752323
1.888184	1.752258
1.888672	1.752200
1.889160	1.751972
1.889648	1.752126
1.890137	1.752259
1.890625	1.752134
1.891113	1.752044
1.891602	1.752195
1.892090	1.752380
1.892578	1.752183
1.893066	1.752087
1.893555	1.752114
1.894043	1.751948
1.894531	1.752189
1.895020	1.752286
1.895508	1.751969
1.895996	1.751992
1.896484	1.752212
1.896973	1.752099
1.897461	1.752488
1.897949	1.752276
1.898437	1.752156
1.898926	1.752286
1.899414	1.752510
1.899902	1.752444
1.900391	1.752339
1.900879	1.752405
1.901367	1.752350
1.901855	1.752209
1.902344	1.752078
1.902832	1.752383
1.903320	1.752129
1.903809	1.752129
1.904297	1.752164
1.904785	1.751956
1.905273	1.752043
1.905762	1.752042
1.906250	1.752046
1.906738	1.752165
1.907227	1.752449
1.907715	1.752331
1.908203	1.752286
1.908691	1.752232
1.909180	1.752535
1.909668	1.752500
1.910156	1.752388
1.910645	1.752496
1.911133	1.752550
1.911621	1.752410
1.912109	1.752657
1.912598	1.752557
1.913086	1.752457
1.913574	1.752375
1.914062	1.752248
1.914551	1.752383
1.915039	1.752367
1.915527	1.752408
1.916016	1.752121
1.916504	1.752407
1.916992	1.752335
1.917480	1.752189
1.917969	1.752272
1.918457	1.752302
1.918945	1.752264
1.919434	1.752132
1.919922	1.752491
1.920410	1.752767
1.920898	1.752273
1.921387	1.752347
1.921875	1.752383
1.922363	1.752406
1.922852	1.752500
1.923340	1.752440
1.923828	1.752086
1.924316	1.752380
1.924805	1.752581
1.925293	1.752430
1.925781	1.752434
1.926270	1.752327
1.926758	1.752179
1.927246	1.752303
1.927734	1.752156
1.928223	1.752081
1.928711	1.752119
1.929199	1.751986
1.929687	1.752048
1.930176	1.752089
1.930664	1.752076
1.931152	1.751755
1.931641	1.751961
1.932129	1.752165
1.932617	1.752081
1.933105	1.751946
1.933594	1.751962
1.934082	1.752075
1.934570	1.752192
1.935059	1.752313
1.935547	1.752017
1.936035	1.752139
1.936523	1.752266
1.937012	1.752337
1.937500	1.751814
1.937988	1.752162
1.938477	1.752294
1.938965	1.752252
1.939453	1.752095
1.939941	1.752351
1.940430	1.752297
1.940918	1.752209
1.941406	1.752467
1.941895	1.752277
1.942383	1.752117
1.942871	1.752373
1.943359	1.752126
1.943848	1.752118
1.944336	1.752234
1.944824	1.751978
1.945312	1.752051
1.945801	1.752048
1.946289	1.752327
1.946777	1.752250
1.947266	1.752095
1.947754	1.752122
1.948242	1.752116
1.948730	1.752178
1.949219	1.751922
1.949707	1.751930
1.950195	1.752313
1.950684	1.752272
1.951172	1.752101
1.951660	1.752062
1.952148	1.752353
1.952637	1.752208
1.953125	1.752052
1.953613	1.752134
1.954102	1.752170
1.954590	1.752270
1.955078	1.752104
1.955566	1.752094
1.956055	1.752062
1.956543	1.752151
1.957031	1.752233
1.957520	1.751901
1.958008	1.751893
1.958496	1.752200
1.958984	1.752190
1.959473	1.752150
1.959961	1.752196
1.960449	1.752269
1.960937	1.752220
1.961426	1.752413
1.961914	1.751952
1.962402	1.752048
1.962891	1.752163
1.963379	1.752075
1.963867	1.752223
1.964355	1.752267
1.964844	1.751982
1.965332	1.752258
1.965820	1.752179
1.966309	1.752314
1.966797	1.752343
1.967285	1.752149
1.967773	1.752156
1.968262	1.752160
1.968750	1.752313
1.969238	1.752509
1.969727	1.752350
1.970215	1.752291
1.970703	1.752138
1.971191	1.752068
1.971680	1.752109
1.972168	1.752389
1.972656	1.752193
1.973145	1.751839
1.973633	1.751984
1.974121	1.752152
1.974609	1.752184
1.975098	1.751960
1.975586	1.752164
1.976074	1.752006
1.976562	1.752216
1.977051	1.752365
1.977539	1.752183
1.978027	1.752153
1.978516	1.752130
1.979004	1.752203
1.979492	1.752100
1.979980	1.752366
1.980469	1.752756
1.980957	1.752273
1.981445	1.752253
1.981934	1.752247
1.982422	1.752328
1.982910	1.752206
1.983398	1.752107
1.983887	1.752212
1.984375	1.752193
1.984863	1.752067
1.985352	1.752096
1.985840	1.752206
1.986328	1.752163
1.986816	1.752201
1.987305	1.752181
1.987793	1.752349
1.988281	1.752152
1.988770	1.751937
1.989258	1.752174
1.989746	1.752339
1.990234	1.752294
1.990723	1.752279
1.991211	1.752430
1.991699	1.752318
1.992187	1.752125
1.992676	1.752357
1.993164	1.752222
1.993652	1.752319
1.994141	1.752380
1.994629	1.752273
1.995117	1.752255
1.995605	1.752382
1.996094	1.752433
1.996582	1.751968
1.997070	1.752073
1.997559	1.752172
1.998047	1.752128
1.998535	1.751945
1.999023	1.752050
1.999512	1.752137
2.000000	1.752001
2.000488	1.752167
2.000977	1.752109
2.001465	1.751924
2.001953	1.752284
2.002441	1.752120
2.002930	1.752276
2.003418	1.752262
2.003906	1.752125
2.004395	1.752167
2.004883	1.751783
2.005371	1.752066
2.005859	1.752360
2.006348	1.752039
2.006836	1.751917
2.007324	1.752270
2.007812	1.752197
2.008301	1.752151
2.008789	1.752079
2.009277	1.752256
2.009766	1.752265
2.010254	1.752170
2.010742	1.752220
2.011230	1.752247
2.011719	1.752278
2.012207	1.752271
2.012695	1.752267
2.013184	1.752170
2.013672	1.752093
2.014160	1.752361
2.014648	1.752112
2.015137	1.752214
2.015625	1.752154
2.016113	1.752456
2.016602	1.752247
2.017090	1.752330
2.017578	1.752475
2.018066	1.752433
2.018555	1.752428
2.019043	1.752370
2.019531	1.752284
2.020020	1.752475
2.020508	1.752882
2.020996	1.752319
2.021484	1.752222
2.021973	1.752561
2.022461	1.752466
2.022949	1.752237
2.023437	1.752277
2.023926	1.752050
2.024414	1.752253
2.024902	1.751852
2.025391	1.752102
2.025879	1.752031
2.026367	1.752118
2.026855	1.752333
2.027344	1.752206
2.027832	1.752145
2.028320	1.752089
2.028809	1.752064
2.029297	1.752051
2.029785	1.752187
2.030273	1.752434
2.030762	1.752153
2.031250	1.752135
2.031738	1.752372
2.032227	1.752436
2.032715	1.752161
2.033203	1.752242
2.033691	1.752071
2.034180	1.752086
2.034668	1.752150
2.035156	1.752152
2.035645	1.752020
2.036133	1.752045
2.036621	1.752240
2.037109	1.752167
2.037598	1.752314
2.038086	1.752003
2.038574	1.751910
2.039062	1.752022
2.039551	1.752175
2.040039	1.751949
2.040527	1.751883
2.041016	1.751980
2.041504	1.751965
2.041992	1.751777
2.042480	1.751846
2.042969	1.751705
2.043457	1.751827
2.043945	1.751884
2.044434	1.751897
2.044922	1.751916
2.045410	1.751804
2.045898	1.751603
2.046387	1.751977
2.046875	1.752134
2.047363	1.751863
2.047852	1.751892
2.048340	1.752073
2.048828	1.752084
2.049316	1.752007
2.049805	1.752040
2.050293	1.752003
2.050781	1.752068
2.051270	1.751964
2.051758	1.752100
2.052246	1.751881
2.052734	1.751832
2.053223	1.751813
2.053711	1.751838
2.054199	1.751884
2.054687	1.751981
2.055176	1.751946
2.055664	1.751993
2.056152	1.752020
2.056641	1.751869
2.057129	1.751844
2.057617	1.751779
2.058105	1.751892
2.058594	1.752111
2.059082	1.751933
2.059570	1.751785
2.060059	1.752014
2.060547	1.752103
2.061035	1.751976
2.061523	1.751972
2.062012	1.751924
2.062500	1.752047
2.062988	1.752009
2.063477	1.751932
2.063965	1.752161
2.064453	1.752188
2.064941	1.752217
2.065430	1.752099
2.065918	1.752117
2.066406	1.752356
2.066895	1.752231
2.067383	1.752207
2.067871	1.752217
2.068359	1.752312
2.068848	1.752299
2.069336	1.752398
2.069824	1.752364
2.070312	1.752490
2.070801	1.752361
2.071289	1.752342
2.071777	1.752554
2.072266	1.752638
2.072754	1.752437
2.073242	1.752685
2.073730	1.752469
2.074219	1.752589
2.074707	1.752569
2.075195	1.752594
2.075684	1.752685
2.076172	1.752574
2.076660	1.752735
2.077148	1.752625
2.077637	1.752680
2.078125	1.752644
2.078613	1.752619
2.079102	1.752521
2.079590	1.752522
2.080078	1.752524
2.080566	1.752333
2.081055	1.752484
2.081543	1.752553
2.082031	1.752328
2.082520	1.752355
2.083008	1.752594
2.083496	1.752344
2.083984	1.752499
2.084473	1.752581
2.084961	1.752511
2.085449	1.752442
2.085937	1.752407
2.086426	1.752699
2.086914	1.752713
2.087402	1.752492
2.087891	1.752465
2.088379	1.752780
2.088867	1.752770
2.089355	1.752680
2.089844	1.752737
2.090332	1.752631
2.090820	1.752586
2.091309	1.752500
2.091797	1.752685
2.092285	1.752329
2.092773	1.752392
2.093262	1.752305
2.093750	1.752422
2.094238	1.752246
2.094727	1.752495
2.095215	1.752303
2.095703	1.752120
2.096191	1.752156
2.096680	1.752203
2.097168	1.752190
2.097656	1.751854
2.098145	1.752098
2.098633	1.752198
2.099121	1.752168
2.099609	1.752043
2.100098	1.752162
2.100586	1.752356
2.101074	1.752172
2.101562	1.752314
2.102051	1.752310
2.102539	1.752275
2.103027	1.752336
2.103516	1.752137
2.104004	1.752215
2.104492	1.752287
2.104980	1.752032
2.105469	1.752129
2.105957	1.752389
2.106445	1.752149
2.106934	1.751982
2.107422	1.751984
2.107910	1.752056
2.108398	1.752010
2.108887	1.752106
2.109375	1.752112
2.109863	1.752176
2.110352	1.752017
2.110840	1.752200
2.111328	1.752158
2.111816	1.752113
2.112305	1.752046
2.112793	1.752261
2.113281	1.752231
2.113770	1.751967
2.114258	1.751896
2.114746	1.752204
2.115234	1.752123
2.115723	1.752478
2.116211	1.752220
2.116699	1.752195
2.117187	1.752148
2.117676	1.752079
2.118164	1.752287
2.118652	1.752232
2.119141	1.752165
2.119629	1.752012
2.120117	1.752413
2.120605	1.752305
2.121094	1.752289
2.121582	1.752373
2.122070	1.752223
2.122559	1.752303
2.123047	1.752015
2.123535	1.752196
2.124023	1.751797
2.124512	1.751754
2.125000	1.751711
2.125488	1.751923
2.125977	1.751978
2.126465	1.752046
2.126953	1.751859
2.127441	1.751797
2.127930	1.751807
2.128418	1.751912
2.128906	1.751859
2.129395	1.751925
2.129883	1.751973
2.130371	1.752012
2.130859	1.751957
2.131348	1.751965
2.131836	1.751926
2.132324	1.751962
2.132812	1.751699
2.133301	1.751641
2.133789	1.751884
2.134277	1.751810
2.134766	1.751790
2.135254	1.751837
2.135742	1.751617
2.136230	1.751631
2.136719	1.751585
2.137207	1.751725
2.137695	1.751596
2.138184	1.751575
2.138672	1.751843
2.139160	1.751655
2.139648	1.751695
2.140137	1.751827
2.140625	1.751728
2.141113	1.751812
2.141602	1.751949
2.142090	1.751683
2.142578	1.751662
2.143066	1.751931
2.143555	1.751850
2.144043	1.752018
2.144531	1.751940
2.145020	1.751970
2.145508	1.751949
2.145996	1.751863
2.146484	1.752031
2.146973	1.752037
2.147461	1.751976
2.147949	1.751927
2.148437	1.752016
2.148926	1.752079
2.149414	1.752092
2.149902	1.752053
2.150391	1.752054
2.150879	1.751921
2.151367	1.751773
2.151855	1.751866
2.152344	1.751741
2.152832	1.751749
2.153320	1.751536
2.153809	1.751852
2.154297	1.751677
2.154785	1.751981
2.155273	1.751948
2.155762	1.752034
2.156250	1.752063
2.156738	1.752294
2.157227	1.752308
2.157715	1.751981
2.158203	1.752103
2.158691	1.752226
2.159180	1.752283
2.159668	1.752380
2.160156	1.752455
2.160645	1.752274
2.161133	1.752149
2.161621	1.752336
2.162109	1.752062
2.162598	1.752319
2.163086	1.752087
2.163574	1.751935
2.164062	1.752333
2.164551	1.752236
2.165039	1.752213
2.165527	1.752261
2.166016	1.752435
2.166504	1.752504
2.166992	1.752493
2.167480	1.752315
2.167969	1.752586
2.168457	1.752432
2.168945	1.752658
2.169434	1.752425
2.169922	1.752455
2.170410	1.752457
2.170898	1.752583
2.171387	1.752491
2.171875	1.752491
2.172363	1.752486
2.172852	1.752435
2.173340	1.752289
2.173828	1.752462
2.174316	1.752596
2.174805	1.752371
2.175293	1.752232
2.175781	1.752742
2.176270	1.752709
2.176758	1.752594
2.177246	1.752734
2.177734	1.752304
2.178223	1.752546
2.178711	1.752815
2.179199	1.752652
2.179687	1.752432
2.180176	1.752772
2.180664	1.752730
2.181152	1.752580
2.181641	1.752630
2.182129	1.752576
2.182617	1.752615
2.183105	1.752657
2.183594	1.752453
2.184082	1.752811
2.184570	1.752658
2.185059	1.752424
2.185547	1.752704
2.186035	1.752525
2.186523	1.752773
2.187012	1.752770
2.187500	1.752676
2.187988	1.752676
2.188477	1.752813
2.188965	1.752705
2.189453	1.752799
2.189941	1.752782
2.190430	1.752740
2.190918	1.752710
2.191406	1.752996
2.191895	1.752629
2.192383	1.752316
2.192871	1.752821
2.193359	1.752916
2.193848	1.752612
2.194336	1.752541
2.194824	1.752795
2.195312	1.752671
2.195801	1.752980
2.196289	1.753004
2.196777	1.752851
2.197266	1.752829
2.197754	1.752878
2.198242	1.752901
2.198730	1.752753
2.199219	1.752832
2.199707	1.752732
2.200195	1.752905
2.200684	1.752959
2.201172	1.752990
2.201660	1.752945
2.202148	1.752907
2.202637	1.752909
2.203125	1.752801
2.203613	1.752648
2.204102	1.752644
2.204590	1.752777
2.205078	1.752973
2.205566	1.752656
2.206055	1.752392
2.206543	1.752760
2.207031	1.752975
2.207520	1.752511
2.208008	1.752468
2.208496	1.752424
2.208984	1.752518
2.209473	1.752414
2.209961	1.752433
2.210449	1.752469
2.210937	1.752352
2.211426	1.752557
2.211914	1.752463
2.212402	1.752463
2.212891	1.752444
2.213379	1.752239
2.213867	1.752415
2.214355	1.752572
2.214844	1.752403
2.215332	1.752244
2.215820	1.752604
2.216309	1.752535
2.216797	1.752614
2.217285	1.752457
2.217773	1.752669
2.218262	1.752383
2.218750	1.752360
2.219238	1.752496
2.219727	1.752320
2.220215	1.752461
2.220703	1.752605
2.221191	1.752335
2.221680	1.752301
2.222168	1.752340
2.222656	1.752504
2.223145	1.752308
2.223633	1.752320
2.224121	1.752357
2.224609	1.752523
2.225098	1.752529
2.225586	1.752586
2.226074	1.752516
2.226562	1.752403
2.227051	1.752430
2.227539	1.752522
2.228027	1.752356
2.228516	1.752362
2.229004	1.752379
2.229492	1.752520
2.229980	1.752391
2.230469	1.752477
2.230957	1.752365
2.231445	1.752646
2.231934	1.752548
2.232422	1.752289
2.232910	1.752582
2.233398	1.752663
2.233887	1.752425
2.234375	1.752442
2.234863	1.752349
2.235352	1.752471
2.235840	1.752287
2.236328	1.752356
2.236816	1.752525
2.237305	1.752344
2.237793	1.752552
2.238281	1.752579
2.238770	1.752629
2.239258	1.752382
2.239746	1.752291
2.240234	1.752594
2.240723	1.752693
2.241211	1.752586
2.241699	1.752403
2.242187	1.752666
2.242676	1.752729
2.243164	1.752749
2.243652	1.752514
2.244141	1.752476
2.244629	1.752505
2.245117	1.752441
2.245605	1.752560
2.246094	1.752543
2.246582	1.752527
2.247070	1.752339
2.247559	1.752506
2.248047	1.752441
2.248535	1.752245
2.249023	1.752303
2.249512	1.752298
2.250000	1.752200
2.250488	1.752208
2.250977	1.752341
2.251465	1.752292
2.251953	1.752309
2.252441	1.752279
2.252930	1.752247
2.253418	1.752223
2.253906	1.752352
2.254395	1.752191
2.254883	1.752396
2.255371	1.752283
2.255859	1.751976
2.256348	1.752081
2.256836	1.752272
2.257324	1.752150
2.257812	1.752176
2.258301	1.752191
2.258789	1.752183
2.259277	1.751996
2.259766	1.752299
2.260254	1.752308
2.260742	1.752150
2.261230	1.752218
2.261719	1.752310
2.262207	1.751912
2.262695	1.752038
2.263184	1.752138
2.263672	1.752081
2.264160	1.751895
2.264648	1.752024
2.265137	1.751954
2.265625	1.752093
2.266113	1.752129
2.266602	1.752184
2.267090	1.752148
2.267578	1.751948
2.268066	1.752023
2.268555	1.752285
2.269043	1.752361
2.269531	1.751908
2.270020	1.752064
2.270508	1.752505
2.270996	1.752373
2.271484	1.752323
2.271973	1.752136
2.272461	1.752086
2.272949	1.752190
2.273437	1.751735
2.273926	1.752274
2.274414	1.752183
2.274902	1.752070
2.275391	1.752319
2.275879	1.751960
2.276367	1.751963
2.276855	1.752170
2.277344	1.752118
2.277832	1.752024
2.278320	1.752149
2.278809	1.752192
2.279297	1.752162
2.279785	1.752076
2.280273	1.752298
2.280762	1.752183
2.281250	1.752241
2.281738	1.752241
2.282227	1.752270
2.282715	1.752347
2.283203	1.752281
2.283691	1.752146
2.284180	1.752173
2.284668	1.752237
2.285156	1.752104
2.285645	1.752206
2.286133	1.752296
2.286621	1.752275
2.287109	1.752165
2.287598	1.752299
2.288086	1.752308
2.288574	1.752303
2.289062	1.752186
2.289551	1.752067
2.290039	1.752306
2.290527	1.752430
2.291016	1.752258
2.291504	1.752347
2.291992	1.752101
2.292480	1.752295
2.292969	1.752158
2.293457	1.752211
2.293945	1.752104
2.294434	1.751973
2.294922	1.752310
2.295410	1.752256
2.295898	1.751913
2.296387	1.751885
2.296875	1.752257
2.297363	1.752143
2.297852	1.752042
2.298340	1.752243
2.298828	1.752284
2.299316	1.752089
2.299805	1.752059
2.300293	1.752239
2.300781	1.752208
2.301270	1.752031
2.301758	1.751979
2.302246	1.752137
2.302734	1.751948
2.303223	1.752480
2.303711	1.752039
2.304199	1.751817
2.304687	1.752026
2.305176	1.751866
2.305664	1.752024
2.306152	1.752392
2.306641	1.751963
2.307129	1.751838
2.307617	1.752219
2.308105	1.752283
2.308594	1.752252
2.309082	1.752192
2.309570	1.752293
2.310059	1.752183
2.310547	1.752219
2.311035	1.752242
2.311523	1.752355
2.312012	1.752202
2.312500	1.752286
2.312988	1.752237
2.313477	1.751941
2.313965	1.752424
2.314453	1.752477
2.314941	1.752052
2.315430	1.752187
2.315918	1.752471
2.316406	1.752183
2.316895	1.752115
2.317383	1.752146
2.317871	1.752101
2.318359	1.752076
2.318848	1.751931
2.319336	1.751985
2.319824	1.751956
2.320312	1.752095
2.320801	1.752001
2.321289	1.752048
2.321777	1.752098
2.322266	1.752339
2.322754	1.752250
2.323242	1.752162
2.323730	1.752298
2.324219	1.752140
2.324707	1.752461
2.325195	1.752258
2.325684	1.752295
2.326172	1.752587
2.326660	1.752395
2.327148	1.752292
2.327637	1.752480
2.328125	1.752453
2.328613	1.752422
2.329102	1.752327
2.329590	1.752435
2.330078	1.752219
2.330566	1.752336
2.331055	1.752151
2.331543	1.752287
2.332031	1.752123
2.332520	1.752234
2.333008	1.752230
2.333496	1.752241
2.333984	1.752283
2.334473	1.752447
2.334961	1.752312
2.335449	1.752191
2.335937	1.751965
2.336426	1.752097
2.336914	1.752417
2.337402	1.752259
2.337891	1.751877
2.338379	1.752052
2.338867	1.752042
2.339355	1.752039
2.339844	1.751999
2.340332	1.752070
2.340820	1.752061
2.341309	1.751963
2.341797	1.752100
2.342285	1.752187
2.342773	1.751970
2.343262	1.752070
2.343750	1.751939
2.344238	1.751988
2.344727	1.752071
2.345215	1.751761
2.345703	1.752006
2.346191	1.752073
2.346680	1.752339
2.347168	1.752165
2.347656	1.752256
2.348145	1.752162
2.348633	1.752087
2.349121	1.752071
2.349609	1.752204
2.350098	1.752283
2.350586	1.751902
2.351074	1.752009
2.351562	1.752483
2.352051	1.752059
2.352539	1.751896
2.353027	1.752266
2.353516	1.752080
2.354004	1.752048
2.354492	1.752231
2.354980	1.752143
2.355469	1.752169
2.355957	1.752272
2.356445	1.752312
2.356934	1.751838
2.357422	1.751987
2.357910	1.752264
2.358398	1.752186
2.358887	1.751878
2.359375	1.752075
2.359863	1.752190
2.360352	1.752283
2.360840	1.752270
2.361328	1.752133
2.361816	1.752039
2.362305	1.752063
2.362793	1.751976
2.363281	1.752521
2.363770	1.752391
2.364258	1.752075
2.364746	1.752214
2.365234	1.752436
2.365723	1.752399
2.366211	1.752341
2.366699	1.752334
2.367187	1.752425
2.367676	1.752443
2.368164	1.752484
2.368652	1.752471
2.369141	1.752516
2.369629	1.752555
2.370117	1.752545
2.370605	1.752550
2.371094	1.752209
2.371582	1.752223
2.372070	1.752241
2.372559	1.752433
2.373047	1.752201
2.373535	1.752131
2.374023	1.751898
2.374512	1.751952
2.375000	1.752449
2.375488	1.752445
2.375977	1.751858
2.376465	1.752180
2.376953	1.752372
2.377441	1.752137
2.377930	1.752315
2.378418	1.752236
2.378906	1.752379
2.379395	1.752413
2.379883	1.752494
2.380371	1.752414
2.380859	1.752220
2.381348	1.752493
2.381836	1.752483
2.382324	1.752322
2.382812	1.752285
2.383301	1.752399
2.383789	1.752312
2.384277	1.752450
2.384766	1.752411
2.385254	1.752101
2.385742	1.752297
2.386230	1.752307
2.386719	1.752366
2.387207	1.752499
2.387695	1.752314
2.388184	1.752264
2.388672	1.752335
2.389160	1.752191
2.389648	1.752285
2.390137	1.752364
2.390625	1.752450
2.391113	1.752144
2.391602	1.752331
2.392090	1.752368
2.392578	1.752263
2.393066	1.752310
2.393555	1.752289
2.394043	1.751918
2.394531	1.752184
2.395020	1.752304
2.395508	1.752139
2.395996	1.752024
2.396484	1.752202
2.396973	1.752424
2.397461	1.752381
2.397949	1.752446
2.398437	1.752393
2.398926	1.752171
2.399414	1.752325
2.399902	1.752532
2.400391	1.752455
2.400879	1.752132
2.401367	1.752618
2.401855	1.752569
2.402344	1.752561
2.402832	1.752419
2.403320	1.752612
2.403809	1.752616
2.404297	1.752619
2.404785	1.752489
2.405273	1.752359
2.405762	1.752416
2.406250	1.752512
2.406738	1.752463
2.407227	1.752216
2.407715	1.752327
2.408203	1.752431
2.408691	1.752657
2.409180	1.752683
2.409668	1.752635
2.410156	1.752550
2.410645	1.752427
2.411133	1.752452
2.411621	1.752649
2.412109	1.752460
2.412598	1.752183
2.413086	1.752576
2.413574	1.752678
2.414062	1.752585
2.414551	1.752433
2.415039	1.752682
2.415527	1.752694
2.416016	1.752762
2.416504	1.752872
2.416992	1.752590
2.417480	1.752725
2.417969	1.752823
2.418457	1.752727
2.418945	1.752372
2.419434	1.752723
2.419922	1.752777
2.420410	1.752722
2.420898	1.752624
2.421387	1.752870
2.421875	1.752839
2.422363	1.752922
2.422852	1.752833
2.423340	1.752646
2.423828	1.752606
2.424316	1.752742
2.424805	1.752526
2.425293	1.752810
2.425781	1.752596
2.426270	1.752529
2.426758	1.752490
2.427246	1.752731
2.427734	1.752644
2.428223	1.752602
2.428711	1.752345
2.429199	1.752463
2.429687	1.752635
2.430176	1.752568
2.430664	1.752614
2.431152	1.752351
2.431641	1.752481
2.432129	1.752554
2.432617	1.752473
2.433105	1.752577
2.433594	1.752580
2.434082	1.752606
2.434570	1.752550
2.435059	1.752814
2.435547	1.752780
2.436035	1.752306
2.436523	1.752555
2.437012	1.753003
2.437500	1.752616
2.437988	1.752402
2.438477	1.752799
2.438965	1.752853
2.439453	1.752790
2.439941	1.752871
2.440430	1.752784
2.440918	1.752854
2.441406	1.752660
2.441895	1.752560
2.442383	1.752803
2.442871	1.752759
2.443359	1.753101
2.443848	1.752837
2.444336	1.752956
2.444824	1.752796
2.445312	1.752508
2.445801	1.752819
2.446289	1.752962
2.446777	1.752691
2.447266	1.752698
2.447754	1.752878
2.448242	1.752759
2.448730	1.752735
2.449219	1.752877
2.449707	1.752785
2.450195	1.752797
2.450684	1.752892
2.451172	1.752799
2.451660	1.752804
2.452148	1.752799
2.452637	1.752734
2.453125	1.753019
2.453613	1.752823
2.454102	1.752937
2.454590	1.752819
2.455078	1.752699
2.455566	1.752800
2.456055	1.752779
2.456543	1.752705
2.457031	1.752518
2.457520	1.752720
2.458008	1.752824
2.458496	1.752720
2.458984	1.752477
2.459473	1.752864
2.459961	1.752751
2.460449	1.752953
2.460937	1.752984
2.461426	1.752984
2.461914	1.752878
2.462402	1.752919
2.462891	1.752910
2.463379	1.753050
2.463867	1.752889
2.464355	1.752850
2.464844	1.752743
2.465332	1.752726
2.465820	1.752763
2.466309	1.752747
2.466797	1.752654
2.467285	1.752712
2.467773	1.752358
2.468262	1.752492
2.468750	1.752801
2.469238	1.752576
2.469727	1.752369
2.470215	1.752506
2.470703	1.752884
2.471191	1.752592
2.471680	1.752575
2.472168	1.752438
2.472656	1.752565
2.473145	1.752457
2.473633	1.752477
2.474121	1.752746
2.474609	1.752464
2.475098	1.752579
2.475586	1.752556
2.476074	1.752538
2.476562	1.752334
2.477051	1.752422
2.477539	1.752392
2.478027	1.752173
2.478516	1.752244
2.479004	1.751982
2.479492	1.752194
2.479980	1.752125
2.480469	1.752153
2.480957	1.752227
2.481445	1.752087
2.481934	1.752086
2.482422	1.751993
2.482910	1.751936
2.483398	1.752341
2.483887	1.752093
2.484375	1.752113
2.484863	1.752187
2.485352	1.752232
2.485840	1.752119
2.486328	1.752300
2.486816	1.752266
2.487305	1.752088
2.487793	1.752161
2.488281	1.752205
2.488770	1.752411
2.489258	1.752371
2.489746	1.752116
2.490234	1.752221
2.490723	1.752526
2.491211	1.752505
2.491699	1.752253
2.492187	1.752248
2.492676	1.752245
2.493164	1.752143
2.493652	1.752027
2.494141	1.752078
2.494629	1.751925
2.495117	1.752102
2.495605	1.752171
2.496094	1.752110
2.496582	1.752079
2.497070	1.752030
2.497559	1.752208
2.498047	1.752065
2.498535	1.752198
2.499023	1.752293
2.499512	1.752167
2.500000	1.752256
2.500488	1.752375
2.500977	1.752424
2.501465	1.752345
2.501953	1.752161
2.502441	1.752175
2.502930	1.752319
2.503418	1.752250
2.503906	1.752026
2.504395	1.752241
2.504883	1.752036
2.505371	1.752041
2.505859	1.752263
2.506348	1.752256
2.506836	1.752157
2.507324	1.752141
2.507812	1.752331
2.508301	1.752207
2.508789	1.752353
2.509277	1.752262
2.509766	1.752233
2.510254	1.752342
2.510742	1.752569
2.511230	1.752220
2.511719	1.752023
2.512207	1.752265
2.512695	1.752463
2.513184	1.752172
2.513672	1.752028
2.514160	1.752195
2.514648	1.752136
2.515137	1.752386
2.515625	1.752316
2.516113	1.752234
2.516602	1.752189
2.517090	1.752088
2.517578	1.752383
2.518066	1.752394
2.518555	1.752229
2.519043	1.752182
2.519531	1.752357
2.520020	1.752372
2.520508	1.752347
2.520996	1.752270
2.521484	1.752096
2.521973	1.752340
2.522461	1.752070
2.522949	1.752029
2.523437	1.752436
2.523926	1.752142
2.524414	1.751900
2.524902	1.752028
2.525391	1.752028
2.525879	1.752167
2.526367	1.752219
2.526855	1.752158
2.527344	1.752103
2.527832	1.752406
2.528320	1.752468
2.528809	1.752350
2.529297	1.752394
2.529785	1.752380
2.530273	1.752513
2.530762	1.752601
2.531250	1.752516
2.531738	1.752178
2.532227	1.752305
2.532715	1.752402
2.533203	1.752231
2.533691	1.752003
2.534180	1.752258
2.534668	1.752206
2.535156	1.752140
2.535645	1.752172
2.536133	1.752154
2.536621	1.752111
2.537109	1.751957
2.537598	1.751999
2.538086	1.752057
2.538574	1.751934
2.539062	1.752040
2.539551	1.752024
2.540039	1.752127
2.540527	1.752311
2.541016	1.752356
2.541504	1.752079
2.541992	1.752194
2.542480	1.752162
2.542969	1.752269
2.543457	1.752517
2.543945	1.752347
2.544434	1.752060
2.544922	1.752304
2.545410	1.752527
2.545898	1.752443
2.546387	1.752283
2.546875	1.752526
2.547363	1.752360
2.547852	1.752276
2.548340	1.752226
2.548828	1.752392
2.549316	1.752153
2.549805	1.752364
2.550293	1.752428
2.550781	1.752062
2.551270	1.752423
2.551758	1.752519
2.552246	1.752263
2.552734	1.752394
2.553223	1.752256
2.553711	1.752292
2.554199	1.752184
2.554687	1.752375
2.555176	1.752281
2.555664	1.752295
2.556152	1.752045
2.556641	1.752349
2.557129	1.752298
2.557617	1.752366
2.558105	1.752175
2.558594	1.752030
2.559082	1.752053
2.559570	1.752244
2.560059	1.752127
2.560547	1.752414
2.561035	1.752353
2.561523	1.752246
2.562012	1.752097
2.562500	1.752444
2.562988	1.752469
2.563477	1.751954
2.563965	1.752126
2.564453	1.752504
2.564941	1.752198
2.565430	1.752281
2.565918	1.752454
2.566406	1.752505
2.566895	1.752717
2.567383	1.752562
2.567871	1.752432
2.568359	1.752500
2.568848	1.752733
2.569336	1.752552
2.569824	1.752624
2.570312	1.752723
2.570801	1.752671
2.571289	1.752622
2.571777	1.752622
2.572266	1.752814
2.572754	1.752795
2.573242	1.752668
2.573730	1.752498
2.574219	1.752483
2.574707	1.752478
2.575195	1.752751
2.575684	1.752694
2.576172	1.752503
2.576660	1.752582
2.577148	1.752688
2.577637	1.752530
2.578125	1.752639
2.578613	1.752521
2.579102	1.752569
2.579590	1.752543
2.580078	1.752687
2.580566	1.752677
2.581055	1.752574
2.581543	1.752812
2.582031	1.752718
2.582520	1.752653
2.583008	1.752610
2.583496	1.752665
2.583984	1.752541
2.584473	1.752716
2.584961	1.752702
2.585449	1.752637
2.585937	1.752828
2.586426	1.752750
2.586914	1.752500
2.587402	1.752666
2.587891	1.752528
2.588379	1.752627
2.588867	1.752630
2.589355	1.752449
2.589844	1.752609
2.590332	1.752693
2.590820	1.752414
2.591309	1.752340
2.591797	1.752546
2.592285	1.752361
2.592773	1.752380
2.593262	1.752468
2.593750	1.752369
2.594238	1.751996
2.594727	1.752245
2.595215	1.752623
2.595703	1.752389
2.596191	1.751996
2.596680	1.752226
2.597168	1.752138
2.597656	1.752267
2.598145	1.752166
2.598633	1.752062
2.599121	1.751996
2.599609	1.752198
2.600098	1.752105
2.600586	1.752275
2.601074	1.752374
2.601562	1.752118
2.602051	1.752184
2.602539	1.752034
2.603027	1.752136
2.603516	1.751960
2.604004	1.751954
2.604492	1.752498
2.604980	1.752170
2.605469	1.752108
2.605957	1.752208
2.606445	1.752040
2.606934	1.752176
2.607422	1.752262
2.607910	1.752181
2.608398	1.752100
2.608887	1.752140
2.609375	1.752234
2.609863	1.752125
2.610352	1.752280
2.610840	1.752308
2.611328	1.752196
2.611816	1.752308
2.612305	1.752334
2.612793	1.752316
2.613281	1.752256
2.613770	1.752156
2.614258	1.752014
2.614746	1.752116
2.615234	1.752092
2.615723	1.752111
2.616211	1.751970
2.616699	1.752111
2.617187	1.751972
2.617676	1.752068
2.618164	1.752051
2.618652	1.751990
2.619141	1.751899
2.619629	1.751992
2.620117	1.751947
2.620605	1.752313
2.621094	1.752167
2.621582	1.752168
2.622070	1.752087
2.622559	1.752143
2.623047	1.752156
2.623535	1.752280
2.624023	1.751823
2.624512	1.752086
2.625000	1.752179
2.625488	1.751967
2.625977	1.752181
2.626465	1.752181
2.626953	1.752250
2.627441	1.752194
2.627930	1.752302
2.628418	1.752238
2.628906	1.752035
2.629395	1.752250
2.629883	1.752588
2.630371	1.752423
2.630859	1.752185
2.631348	1.752167
2.631836	1.752131
2.632324	1.752219
2.632812	1.752211
2.633301	1.751935
2.633789	1.751929
2.634277	1.752006
2.634766	1.751938
2.635254	1.752106
2.635742	1.752012
2.636230	1.752114
2.636719	1.752409
2.637207	1.752329
2.637695	1.752080
2.638184	1.752113
2.638672	1.752392
2.639160	1.752429
2.639648	1.752352
2.640137	1.752346
2.640625	1.752604
2.641113	1.752303
2.641602	1.752564
2.642090	1.752493
2.642578	1.752231
2.643066	1.752180
2.643555	1.752030
2.644043	1.751949
2.644531	1.752134
2.645020	1.752062
2.645508	1.752009
2.645996	1.751946
2.646484	1.751980
2.646973	1.751891
2.647461	1.751851
2.647949	1.751860
2.648437	1.751922
2.648926	1.751837
2.649414	1.752119
2.649902	1.751941
2.650391	1.752015
2.650879	1.752225
2.651367	1.751976
2.651855	1.751827
2.652344	1.752133
2.652832	1.752115
2.653320	1.751965
2.653809	1.752089
2.654297	1.752148
2.654785	1.751906
2.655273	1.751830
2.655762	1.752002
2.656250	1.752093
2.656738	1.751970
2.657227	1.752035
2.657715	1.751859
2.658203	1.752003
2.658691	1.752134
2.659180	1.752176
2.659668	1.751966
2.660156	1.752242
2.660645	1.752036
2.661133	1.751938
2.661621	1.752513
2.662109	1.752419
2.662598	1.751948
2.663086	1.752292
2.663574	1.752201
2.664062	1.752223
2.664551	1.752316
2.665039	1.752297
2.665527	1.752190
2.666016	1.752230
2.666504	1.752367
2.666992	1.752452
2.667480	1.752251
2.667969	1.752251
2.668457	1.752287
2.668945	1.752123
2.669434	1.752275
2.669922	1.752563
2.670410	1.752462
2.670898	1.752079
2.671387	1.752397
2.671875	1.752397
2.672363	1.752356
2.672852	1.752425
2.673340	1.752393
2.673828	1.752318
2.674316	1.752280
2.674805	1.752385
2.675293	1.752417
2.675781	1.752425
2.676270	1.752261
2.676758	1.752392
2.677246	1.752560
2.677734	1.752064
2.678223	1.751853
2.678711	1.752241
2.679199	1.752225
2.679687	1.752204
2.680176	1.752029
2.680664	1.752366
2.681152	1.752108
2.681641	1.752411
2.682129	1.752385
2.682617	1.752271
2.683105	1.752281
2.683594	1.752311
2.684082	1.752181
2.684570	1.752475
2.685059	1.752151
2.685547	1.752239
2.686035	1.752001
2.686523	1.752041
2.687012	1.752002
2.687500	1.752033
2.687988	1.751989
2.688477	1.752003
2.688965	1.751984
2.689453	1.751934
2.689941	1.752087
2.690430	1.752029
2.690918	1.751828
2.691406	1.752134
2.691895	1.752117
2.692383	1.752201
2.692871	1.752153
2.693359	1.752224
2.693848	1.751938
2.694336	1.752237
2.694824	1.752288
2.695312	1.752168
2.695801	1.752096
2.696289	1.751932
2.696777	1.751810
2.697266	1.751852
2.697754	1.751932
2.698242	1.751873
2.698730	1.751925
2.699219	1.751858
2.699707	1.751772
2.700195	1.751776
2.700684	1.751943
2.701172	1.751738
2.701660	1.751660
2.702148	1.751851
2.702637	1.751816
2.703125	1.751837
2.703613	1.751848
2.704102	1.751873
2.704590	1.751838
2.705078	1.751719
2.705566	1.751788
2.706055	1.751986
2.706543	1.751810
2.707031	1.751931
2.707520	1.752006
2.708008	1.751785
2.708496	1.751915
2.708984	1.751895
2.709473	1.751941
2.709961	1.752079
2.710449	1.752029
2.710937	1.751907
2.711426	1.751943
2.711914	1.751907
2.712402	1.752135
2.712891	1.751969
2.713379	1.751841
2.713867	1.751792
2.714355	1.752106
2.714844	1.751916
2.715332	1.751941
2.715820	1.751803
2.716309	1.751778
2.716797	1.751883
2.717285	1.751780
2.717773	1.751885
2.718262	1.751982
2.718750	1.751885
2.719238	1.752061
2.719727	1.752123
2.720215	1.752258
2.720703	1.751863
2.721191	1.751843
2.721680	1.752154
2.722168	1.752156
2.722656	1.751764
2.723145	1.751852
2.723633	1.751970
2.724121	1.751797
2.724609	1.752137
2.725098	1.751870
2.725586	1.752010
2.726074	1.751708
2.726562	1.751729
2.727051	1.751968
2.727539	1.751863
2.728027	1.751776
2.728516	1.751781
2.729004	1.751855
2.729492	1.751907
2.729980	1.752052
2.730469	1.752030
2.730957	1.752060
2.731445	1.751932
2.731934	1.752012
2.732422	1.752190
2.732910	1.752249
2.733398	1.751912
2.733887	1.751893
2.734375	1.752298
2.734863	1.752226
2.735352	1.752129
2.735840	1.752121
2.736328	1.752056
2.736816	1.752137
2.737305	1.752075
2.737793	1.751992
2.738281	1.752110
2.738770	1.752038
2.739258	1.752020
2.739746	1.751963
2.740234	1.752089
2.740723	1.752031
2.741211	1.751806
2.741699	1.752214
2.742187	1.752059
2.742676	1.752032
2.743164	1.751990
2.743652	1.752008
2.744141	1.751909
2.744629	1.751985
2.745117	1.751940
2.745605	1.752042
2.746094	1.751796
2.746582	1.751960
2.747070	1.752159
2.747559	1.751959
2.748047	1.751913
2.748535	1.752048
2.749023	1.752236
2.749512	1.752270
2.750000	1.752214
2.750488	1.752313
2.750977	1.752096
2.751465	1.752277
2.751953	1.752388
2.752441	1.752424
2.752930	1.752197
2.753418	1.752289
2.753906	1.752297
2.754395	1.752094
2.754883	1.752237
2.755371	1.752192
2.755859	1.752087
2.756348	1.752287
2.756836	1.752043
2.757324	1.751924
2.757812	1.751989
2.758301	1.752074
2.758789	1.751882
2.759277	1.751858
2.759766	1.751854
2.760254	1.751909
2.760742	1.752100
2.761230	1.751942
2.761719	1.752177
2.762207	1.752016
2.762695	1.752048
2.763184	1.752122
2.763672	1.751938
2.764160	1.751974
2.764648	1.752090
2.765137	1.751929
2.765625	1.752157
2.766113	1.752144
2.766602	1.752046
2.767090	1.752215
2.767578	1.752232
2.768066	1.752257
2.768555	1.752140
2.769043	1.752247
2.769531	1.752139
2.770020	1.751909
2.770508	1.752381
2.770996	1.752633
2.771484	1.751984
2.771973	1.751962
2.772461	1.752215
2.772949	1.752042
2.773437	1.752088
2.773926	1.752082
2.774414	1.751833
2.774902	1.752117
2.775391	1.751937
2.775879	1.752087
2.776367	1.752058
2.776855	1.752196
2.777344	1.752031
2.777832	1.752064
2.778320	1.752274
2.778809	1.752228
2.779297	1.752239
2.779785	1.752248
2.780273	1.752317
2.780762	1.752332
2.781250	1.752287
2.781738	1.752524
2.782227	1.752259
2.782715	1.752562
2.783203	1.752605
2.783691	1.752389
2.784180	1.752261
2.784668	1.752391
2.785156	1.752737
2.785645	1.752637
2.786133	1.752560
2.786621	1.752657
2.787109	1.752527
2.787598	1.752674
2.788086	1.752551
2.788574	1.752629
2.789062	1.752563
2.789551	1.752522
2.790039	1.752467
2.790527	1.752819
2.791016	1.752469
2.791504	1.752477
2.791992	1.752539
2.792480	1.752699
2.792969	1.752818
2.793457	1.752851
2.793945	1.752784
2.794434	1.752754
2.794922	1.752631
2.795410	1.752738
2.795898	1.752800
2.796387	1.752977
2.796875	1.752805
2.797363	1.753110
2.797852	1.752829
2.798340	1.752796
2.798828	1.753045
2.799316	1.753006
2.799805	1.752894
2.800293	1.753129
2.800781	1.752963
2.801270	1.752907
2.801758	1.752853
2.802246	1.752822
2.802734	1.752943
2.803223	1.752988
2.803711	1.752776
2.804199	1.752942
2.804687	1.752605
2.805176	1.752917
2.805664	1.752924
2.806152	1.752864
2.806641	1.752904
2.807129	1.753026
2.807617	1.753004
2.808105	1.752744
2.808594	1.752899
2.809082	1.753134
2.809570	1.752989
2.810059	1.752952
2.810547	1.752873
2.811035	1.752920
2.811523	1.752701
2.812012	1.753097
2.812500	1.752651
2.812988	1.752640
2.813477	1.752429
2.813965	1.752610
2.814453	1.752627
2.814941	1.752465
2.815430	1.752508
2.815918	1.752663
2.816406	1.752334
2.816895	1.752649
2.817383	1.752907
2.817871	1.752687
2.818359	1.752701
2.818848	1.752879
2.819336	1.752784
2.819824	1.752739
2.820312	1.752917
2.820801	1.752950
2.821289	1.752774
2.821777	1.752853
2.822266	1.752770
2.822754	1.752911
2.823242	1.752779
2.823730	1.752775
2.824219	1.752652
2.824707	1.752799
2.825195	1.752601
2.825684	1.752700
2.826172	1.752699
2.826660	1.752638
2.827148	1.752514
2.827637	1.752737
2.828125	1.752696
2.828613	1.752649
2.829102	1.752907
2.829590	1.752870
2.830078	1.752903
2.830566	1.752960
2.831055	1.752953
2.831543	1.752649
2.832031	1.752650
2.832520	1.752876
2.833008	1.752831
2.833496	1.752543
2.833984	1.752525
2.834473	1.752707
2.834961	1.752660
2.835449	1.753177
2.835937	1.752890
2.836426	1.752661
2.836914	1.752835
2.837402	1.752960
2.837891	1.752984
2.838379	1.752928
2.838867	1.753127
2.839355	1.753051
2.839844	1.753009
2.840332	1.753250
2.840820	1.752931
2.841309	1.753075
2.841797	1.753098
2.842285	1.752933
2.842773	1.752911
2.843262	1.753012
2.843750	1.752558
2.844238	1.752702
2.844727	1.752945
2.845215	1.752829
2.845703	1.752507
2.846191	1.752791
2.846680	1.752959
2.847168	1.752804
2.847656	1.752745
2.848145	1.753092
2.848633	1.752951
2.849121	1.752657
2.849609	1.752791
2.850098	1.752729
2.850586	1.752719
2.851074	1.752674
2.851562	1.752446
2.852051	1.752467
2.852539	1.752489
2.853027	1.752613
2.853516	1.752438
2.854004	1.752306
2.854492	1.752400
2.854980	1.752384
2.855469	1.752344
2.855957	1.752397
2.856445	1.752333
2.856934	1.752500
2.857422	1.752618
2.857910	1.752596
2.858398	1.752671
2.858887	1.752634
2.859375	1.752521
2.859863	1.752632
2.860352	1.752718
2.860840	1.752759
2.861328	1.752379
2.861816	1.752694
2.862305	1.752578
2.862793	1.752247
2.863281	1.752439
2.863770	1.752514
2.864258	1.752378
2.864746	1.752538
2.865234	1.752381
2.865723	1.752372
2.866211	1.752163
2.866699	1.752450
2.867187	1.752224
2.867676	1.752007
2.868164	1.752237
2.868652	1.752151
2.869141	1.752145
2.869629	1.752089
2.870117	1.752370
2.870605	1.752244
2.871094	1.752332
2.871582	1.752221
2.872070	1.752317
2.872559	1.752168
2.873047	1.752322
2.873535	1.752384
2.874023	1.752356
2.874512	1.752336
2.875000	1.752443
2.875488	1.752421
2.875977	1.752367
2.876465	1.752302
2.876953	1.752517
2.877441	1.752513
2.877930	1.752297
2.878418	1.752231
2.878906	1.752334
2.879395	1.752230
2.879883	1.752448
2.880371	1.752592
2.880859	1.752524
2.881348	1.752359
2.881836	1.752535
2.882324	1.752684
2.882812	1.752502
2.883301	1.752449
2.883789	1.752493
2.884277	1.752398
2.884766	1.752469
2.885254	1.752564
2.885742	1.752702
2.886230	1.752431
2.886719	1.752619
2.887207	1.752425
2.887695	1.752391
2.888184	1.752231
2.888672	1.752368
2.889160	1.752532
2.889648	1.752444
2.890137	1.752386
2.890625	1.752572
2.891113	1.752703
2.891602	1.752638
2.892090	1.752712
2.892578	1.752754
2.893066	1.752822
2.893555	1.752715
2.894043	1.752733
2.894531	1.753181
2.895020	1.752972
2.895508	1.752444
2.895996	1.752965
2.896484	1.752893
2.896973	1.752848
2.897461	1.752738
2.897949	1.752896
2.898437	1.752749
2.898926	1.752721
2.899414	1.752788
2.899902	1.752932
2.900391	1.752794
2.900879	1.753158
2.901367	1.752957
2.901855	1.752643
2.902344	1.753055
2.902832	1.753170
2.903320	1.752992
2.903809	1.752973
2.904297	1.752790
2.904785	1.753063
2.905273	1.752682
2.905762	1.752802
2.906250	1.752818
2.906738	1.752851
2.907227	1.752633
2.907715	1.752745
2.908203	1.752803
2.908691	1.753072
2.909180	1.752947
2.909668	1.752722
2.910156	1.752685
2.910645	1.753168
2.911133	1.752790
2.911621	1.753076
2.912109	1.752962
2.912598	1.753026
2.913086	1.753140
2.913574	1.752990
2.914062	1.752868
2.914551	1.752701
2.915039	1.752901
2.915527	1.752853
2.916016	1.752657
2.916504	1.753031
2.916992	1.752829
2.917480	1.752776
2.917969	1.752958
2.918457	1.752916
2.918945	1.752985
2.919434	1.752903
2.919922	1.753213
2.920410	1.753050
2.920898	1.753130
2.921387	1.753178
2.921875	1.753186
2.922363	1.753148
2.922852	1.753117
2.923340	1.752867
2.923828	1.752736
2.924316	1.753031
2.924805	1.753152
2.925293	1.752608
2.925781	1.752858
2.926270	1.752967
2.926758	1.752958
2.927246	1.753030
2.927734	1.753021
2.928223	1.752876
2.928711	1.753151
2.929199	1.753297
2.929687	1.753065
2.930176	1.753108
2.930664	1.753195
2.931152	1.753141
2.931641	1.753213
2.932129	1.753293
2.932617	1.752914
2.933105	1.752979
2.933594	1.753200
2.934082	1.752970
2.934570	1.752707
2.935059	1.752867
2.935547	1.752849
2.936035	1.752734
2.936523	1.753377
2.937012	1.752833
2.937500	1.752639
2.937988	1.752965
2.938477	1.753193
2.938965	1.752842
2.939453	1.752976
2.939941	1.752873
2.940430	1.752951
2.940918	1.752923
2.941406	1.752942
2.941895	1.752980
2.942383	1.752756
2.942871	1.753055
2.943359	1.752883
2.943848	1.752563
2.944336	1.752608
2.944824	1.752485
2.945312	1.752749
2.945801	1.752663
2.946289	1.752590
2.946777	1.752504
2.947266	1.752587
2.947754	1.752371
2.948242	1.752586
2.948730	1.752479
2.949219	1.752724
2.949707	1.752502
2.950195	1.752843
2.950684	1.752630
2.951172	1.752533
2.951660	1.752597
2.952148	1.752868
2.952637	1.752430
2.953125	1.752563
2.953613	1.752804
2.954102	1.752787
2.954590	1.752561
2.955078	1.752842
2.955566	1.752933
2.956055	1.752887
2.956543	1.753009
2.957031	1.752887
2.957520	1.752834
2.958008	1.753004
2.958496	1.753030
2.958984	1.753064
2.959473	1.752958
2.959961	1.753167
2.960449	1.753164
2.960937	1.753213
2.961426	1.753192
2.961914	1.752761
2.962402	1.752943
2.962891	1.753141
2.963379	1.753047
2.963867	1.752904
2.964355	1.752825
2.964844	1.752967
2.965332	1.753051
2.965820	1.752990
2.966309	1.753070
2.966797	1.752902
2.967285	1.753126
2.967773	1.752873
2.968262	1.752796
2.968750	1.752895
2.969238	1.753037
2.969727	1.752907
2.970215	1.752784
2.970703	1.752951
2.971191	1.752975
2.971680	1.752900
2.972168	1.752907
2.972656	1.752845
2.973145	1.752792
2.973633	1.752617
2.974121	1.752909
2.974609	1.752765
2.975098	1.752807
2.975586	1.753026
2.976074	1.752761
2.976562	1.752837
2.977051	1.752773
2.977539	1.752749
2.978027	1.752590
2.978516	1.752566
2.979004	1.752735
2.979492	1.752635
2.979980	1.752549
2.980469	1.752677
2.980957	1.752550
2.981445	1.752536
2.981934	1.752624
2.982422	1.752431
2.982910	1.752405
2.983398	1.752594
2.983887	1.752312
2.984375	1.752431
2.984863	1.752724
2.985352	1.752422
2.985840	1.752457
2.986328	1.752397
2.986816	1.752485
2.987305	1.752492
2.987793	1.752404
2.988281	1.752280
2.988770	1.752253
2.989258	1.752103
2.989746	1.752287
2.990234	1.752504
2.990723	1.752331
2.991211	1.752176
2.991699	1.752184
2.992187	1.752288
2.992676	1.752287
2.993164	1.752126
2.993652	1.752442
2.994141	1.752446
2.994629	1.752357
2.995117	1.752320
2.995605	1.752173
2.996094	1.752550
2.996582	1.752779
2.997070	1.752365
2.997559	1.752282
2.998047	1.752588
2.998535	1.752579
2.999023	1.752552
2.999512	1.752564
3.000000	1.752605
3.000488	1.752653
3.000977	1.752633
3.001465	1.752655
3.001953	1.752431
3.002441	1.752592
3.002930	1.752582
3.003418	1.752616
3.003906	1.752382
3.004395	1.752771
3.004883	1.752566
3.005371	1.752814
3.005859	1.752522
3.006348	1.752437
3.006836	1.752447
3.007324	1.752288
3.007812	1.752388
3.008301	1.752414
3.008789	1.752166
3.009277	1.752123
3.009766	1.752529
3.010254	1.752658
3.010742	1.752561
3.011230	1.752673
3.011719	1.752400
3.012207	1.752508
3.012695	1.752334
3.013184	1.752504
3.013672	1.752743
3.014160	1.752688
3.014648	1.752575
3.015137	1.752549
3.015625	1.752374
3.016113	1.752590
3.016602	1.752339
3.017090	1.752561
3.017578	1.752514
3.018066	1.752342
3.018555	1.752323
3.019043	1.752708
3.019531	1.752370
3.020020	1.752554
3.020508	1.752680
3.020996	1.752452
3.021484	1.752353
3.021973	1.752615
3.022461	1.752601
3.022949	1.752686
3.023437	1.752595
3.023926	1.752753
3.024414	1.752447
3.024902	1.752355
3.025391	1.752922
3.025879	1.752804
3.026367	1.752288
3.026855	1.752629
3.027344	1.752735
3.027832	1.752563
3.028320	1.752622
3.028809	1.752618
3.029297	1.752411
3.029785	1.752619
3.030273	1.752649
3.030762	1.752309
3.031250	1.752168
3.031738	1.752325
3.032227	1.752358
3.032715	1.752309
3.033203	1.752395
3.033691	1.752359
3.034180	1.752189
3.034668	1.752261
3.035156	1.752309
3.035645	1.752186
3.036133	1.752430
3.036621	1.752297
3.037109	1.752229
3.037598	1.752495
3.038086	1.752360
3.038574	1.752354
3.039062	1.752546
3.039551	1.752519
3.040039	1.752434
3.040527	1.752558
3.041016	1.752541
3.041504	1.752538
3.041992	1.752294
3.042480	1.752523
3.042969	1.752424
3.043457	1.752349
3.043945	1.752281
3.044434	1.752345
3.044922	1.752411
3.045410	1.752425
3.045898	1.752248
3.046387	1.752475
3.046875	1.752414
3.047363	1.752327
3.047852	1.752222
3.048340	1.752151
3.048828	1.752462
3.049316	1.752619
3.049805	1.752197
3.050293	1.752089
3.050781	1.752382
3.051270	1.752347
3.051758	1.752230
3.052246	1.752194
3.052734	1.752095
3.053223	1.752298
3.053711	1.751995
3.054199	1.752088
3.054687	1.752204
3.055176	1.752192
3.055664	1.752172
3.056152	1.752240
3.056641	1.751871
3.057129	1.752289
3.057617	1.752432
3.058105	1.752397
3.058594	1.752434
3.059082	1.752416
3.059570	1.752421
3.060059	1.752483
3.060547	1.752593
3.061035	1.752692
3.061523	1.752497
3.062012	1.752262
3.062500	1.752416
3.062988	1.752421
3.063477	1.752370
3.063965	1.752483
3.064453	1.752416
3.064941	1.752463
3.065430	1.752193
3.065918	1.752500
3.066406	1.752516
3.066895	1.752490
3.067383	1.752648
3.067871	1.752666
3.068359	1.752545
3.068848	1.752714
3.069336	1.752839
3.069824	1.752729
3.070312	1.752821
3.070801	1.752909
3.071289	1.752895
3.071777	1.752466
3.072266	1.752457
3.072754	1.752859
3.073242	1.752804
3.073730	1.752468
3.074219	1.752366
3.074707	1.752574
3.075195	1.752542
3.075684	1.752908
3.076172	1.752356
3.076660	1.752613
3.077148	1.752562
3.077637	1.752468
3.078125	1.752770
3.078613	1.752721
3.079102	1.752549
3.079590	1.752642
3.080078	1.752879
3.080566	1.752834
3.081055	1.752891
3.081543	1.752928
3.082031	1.752811
3.082520	1.752808
3.083008	1.752645
3.083496	1.752866
3.083984	1.752868
3.084473	1.752807
3.084961	1.752951
3.085449	1.752868
3.085937	1.753010
3.086426	1.752461
3.086914	1.752731
3.087402	1.752773
3.087891	1.752773
3.088379	1.752478
3.088867	1.752597
3.089355	1.752680
3.089844	1.752576
3.090332	1.752793
3.090820	1.752644
3.091309	1.752374
3.091797	1.752565
3.092285	1.752403
3.092773	1.752667
3.093262	1.752827
3.093750	1.752350
3.094238	1.752377
3.094727	1.752718
3.095215	1.752615
3.095703	1.752785
3.096191	1.752604
3.096680	1.752904
3.097168	1.752594
3.097656	1.752399
3.098145	1.752701
3.098633	1.752791
3.099121	1.752433
3.099609	1.752550
3.100098	1.752601
3.100586	1.752499
3.101074	1.752533
3.101562	1.752486
3.102051	1.752422
3.102539	1.752548
3.103027	1.752499
3.103516	1.752530
3.104004	1.752532
3.104492	1.752666
3.104980	1.752429
3.105469	1.752538
3.105957	1.752595
3.106445	1.752139
3.106934	1.752287
3.107422	1.752377
3.107910	1.752337
3.108398	1.752060
3.108887	1.752131
3.109375	1.752406
3.109863	1.752194
3.110352	1.752401
3.110840	1.752291
3.111328	1.752187
3.111816	1.752141
3.112305	1.752223
3.112793	1.752178
3.113281	1.752181
3.113770	1.752006
3.114258	1.752201
3.114746	1.752338
3.115234	1.752166
3.115723	1.752490
3.116211	1.752209
3.116699	1.752343
3.117187	1.752046
3.117676	1.752259
3.118164	1.752144
3.118652	1.752118
3.119141	1.752126
3.119629	1.752185
3.120117	1.752260
3.120605	1.752231
3.121094	1.752206
3.121582	1.752100
3.122070	1.752167
3.122559	1.752077
3.123047	1.752100
3.123535	1.752399
3.124023	1.752054
3.124512	1.752155
3.125000	1.752339
3.125488	1.752139
3.125977	1.752155
3.126465	1.752122
3.126953	1.752249
3.127441	1.752302
3.127930	1.752294
3.128418	1.752070
3.128906	1.752120
3.129395	1.752267
3.129883	1.752297
3.130371	1.752096
3.130859	1.752277
3.131348	1.752120
3.131836	1.752043
3.132324	1.751914
3.132812	1.752035
3.133301	1.751921
3.133789	1.752185
3.134277	1.752092
3.134766	1.751690
3.135254	1.751993
3.135742	1.752215
3.136230	1.752232
3.136719	1.752203
3.137207	1.752176
3.137695	1.752026
3.138184	1.752139
3.138672	1.752109
3.139160	1.752116
3.139648	1.751973
3.140137	1.752314
3.140625	1.752228
3.141113	1.751919
3.141602	1.752057
3.142090	1.752197
3.142578	1.751999
3.143066	1.752029
3.143555	1.751895
3.144043	1.751820
3.144531	1.751739
3.145020	1.751624
3.145508	1.751716
3.145996	1.751640
3.146484	1.751637
3.146973	1.751572
3.147461	1.751622
3.147949	1.751780
3.148437	1.751708
3.148926	1.751592
3.149414	1.751852
3.149902	1.751853
3.150391	1.751920
3.150879	1.751807
3.151367	1.752035
3.151855	1.752092
3.152344	1.751799
3.152832	1.752241
3.153320	1.752045
3.153809	1.751840
3.154297	1.751872
3.154785	1.752272
3.155273	1.751833
3.155762	1.752017
3.156250	1.751985
3.156738	1.752018
3.157227	1.751815
3.157715	1.751888
3.158203	1.751804
3.158691	1.751837
3.159180	1.751928
3.159668	1.751921
3.160156	1.751876
3.160645	1.752091
3.161133	1.752194
3.161621	1.751910
3.162109	1.752234
3.162598	1.752118
3.163086	1.752075
3.163574	1.751920
3.164062	1.752136
3.164551	1.752017
3.165039	1.752089
3.165527	1.752185
3.166016	1.752009
3.166504	1.752053
3.166992	1.752130
3.167480	1.752042
3.167969	1.752156
3.168457	1.752222
3.168945	1.752215
3.169434	1.752319
3.169922	1.752185
3.170410	1.751931
3.170898	1.752411
3.171387	1.752445
3.171875	1.752300
3.172363	1.752021
3.172852	1.752264
3.173340	1.752272
3.173828	1.752629
3.174316	1.752394
3.174805	1.752105
3.175293	1.752361
3.175781	1.752378
3.176270	1.752433
3.176758	1.752364
3.177246	1.752190
3.177734	1.752206
3.178223	1.752392
3.178711	1.752184
3.179199	1.752428
3.179687	1.752139
3.180176	1.752493
3.180664	1.752533
3.181152	1.752347
3.181641	1.752131
3.182129	1.752071
3.182617	1.752168
3.183105	1.752282
3.183594	1.752050
3.184082	1.751941
3.184570	1.751926
3.185059	1.751998
3.185547	1.751992
3.186035	1.751874
3.186523	1.752181
3.187012	1.752026
3.187500	1.751915
3.187988	1.751781
3.188477	1.751945
3.188965	1.751832
3.189453	1.752251
3.189941	1.751826
3.190430	1.751832
3.190918	1.752038
3.191406	1.752119
3.191895	1.752021
3.192383	1.751914
3.192871	1.751788
3.193359	1.752001
3.193848	1.751737
3.194336	1.751776
3.194824	1.751929
3.195312	1.751700
3.195801	1.751831
3.196289	1.751657
3.196777	1.751563
3.197266	1.751491
3.197754	1.751805
3.198242	1.751788
3.198730	1.751525
3.199219	1.751428
3.199707	1.751641
3.200195	1.751603
3.200684	1.751670
3.201172	1.751419
3.201660	1.751541
3.202148	1.751738
3.202637	1.751621
3.203125	1.751344
3.203613	1.751296
3.204102	1.751259
3.204590	1.751586
3.205078	1.751612
3.205566	1.751445
3.206055	1.751520
3.206543	1.751297
3.207031	1.751528
3.207520	1.751415
3.208008	1.751512
3.208496	1.751623
3.208984	1.751401
3.209473	1.751232
3.209961	1.751494
3.210449	1.751603
3.210937	1.751783
3.211426	1.751731
3.211914	1.751549
3.212402	1.751600
3.212891	1.751666
3.213379	1.751666
3.213867	1.751541
3.214355	1.751507
3.214844	1.751614
3.215332	1.751490
3.215820	1.751425
3.216309	1.751531
3.216797	1.751116
3.217285	1.751381
3.217773	1.751382
3.218262	1.751548
3.218750	1.751414
3.219238	1.751625
3.219727	1.751423
3.220215	1.751951
3.220703	1.751776
3.221191	1.751701
3.221680	1.751519
3.222168	1.751459
3.222656	1.751717
3.223145	1.751606
3.223633	1.751500
3.224121	1.751443
3.224609	1.751641
3.225098	1.751570
3.225586	1.751836
3.226074	1.751688
3.226562	1.751532
3.227051	1.751539
3.227539	1.751833
3.228027	1.751503
3.228516	1.751501
3.229004	1.751645
3.229492	1.751700
3.229980	1.751564
3.230469	1.751714
3.230957	1.751797
3.231445	1.751787
3.231934	1.752049
3.232422	1.751873
3.232910	1.751907
3.233398	1.751915
3.233887	1.751781
3.234375	1.751888
3.234863	1.751902
3.235352	1.751950
3.235840	1.752073
3.236328	1.751841
3.236816	1.751892
3.237305	1.751492
3.237793	1.751729
3.238281	1.751702
3.238770	1.751646
3.239258	1.751642
3.239746	1.751668
3.240234	1.751602
3.240723	1.751708
3.241211	1.751775
3.241699	1.751844
3.242187	1.751694
3.242676	1.751803
3.243164	1.751874
3.243652	1.751814
3.244141	1.751738
3.244629	1.752065
3.245117	1.751885
3.245605	1.751789
3.246094	1.751837
3.246582	1.751902
3.247070	1.751840
3.247559	1.751825
3.248047	1.751848
3.248535	1.751806
3.249023	1.751789
3.249512	1.751848
3.250000	1.751979
3.250488	1.752208
3.250977	1.752015
3.251465	1.751960
3.251953	1.751928
3.252441	1.752186
3.252930	1.752171
3.253418	1.751841
3.253906	1.751796
3.254395	1.751976
3.254883	1.751641
3.255371	1.751984
3.255859	1.751880
3.256348	1.751722
3.256836	1.751988
3.257324	1.751814
3.257812	1.751737
3.258301	1.751844
3.258789	1.752080
3.259277	1.751802
3.259766	1.751934
3.260254	1.751899
3.260742	1.752067
3.261230	1.752057
3.261719	1.752128
3.262207	1.752130
3.262695	1.752048
3.263184	1.752075
3.263672	1.752110
3.264160	1.751791
3.264648	1.751855
3.265137	1.751866
3.265625	1.751932
3.266113	1.751947
3.266602	1.751685
3.267090	1.751974
3.267578	1.752038
3.268066	1.751854
3.268555	1.751981
3.269043	1.751893
3.269531	1.752046
3.270020	1.752110
3.270508	1.752318
3.270996	1.752046
3.271484	1.751863
3.271973	1.752068
3.272461	1.752223
3.272949	1.752013
3.273437	1.751966
3.273926	1.752071
3.274414	1.752106
3.274902	1.752240
3.275391	1.752100
3.275879	1.752050
3.276367	1.751995
3.276855	1.752060
3.277344	1.752129
3.277832	1.752145
3.278320	1.752115
3.278809	1.752236
3.279297	1.752210
3.279785	1.752289
3.280273	1.752516
3.280762	1.752441
3.281250	1.752303
3.281738	1.752189
3.282227	1.752245
3.282715	1.752245
3.283203	1.752186
3.283691	1.752338
3.284180	1.752073
3.284668	1.752039
3.285156	1.752050
3.285645	1.752106
3.286133	1.751937
3.286621	1.752502
3.287109	1.752294
3.287598	1.751843
3.288086	1.752324
3.288574	1.752567
3.289062	1.752456
3.289551	1.752351
3.290039	1.752470
3.290527	1.752422
3.291016	1.752765
3.291504	1.752608
3.291992	1.752443
3.292480	1.752332
3.292969	1.752347
3.293457	1.752370
3.293945	1.752145
3.294434	1.752269
3.294922	1.752317
3.295410	1.752139
3.295898	1.752258
3.296387	1.752204
3.296875	1.752003
3.297363	1.752431
3.297852	1.752291
3.298340	1.752374
3.298828	1.752252
3.299316	1.752373
3.299805	1.752306
3.300293	1.752359
3.300781	1.752371
3.301270	1.752156
3.301758	1.752214
3.302246	1.752256
3.302734	1.752194
3.303223	1.752090
3.303711	1.752164
3.304199	1.752057
3.304687	1.751973
3.305176	1.752076
3.305664	1.752101
3.306152	1.752140
3.306641	1.751688
3.307129	1.751876
3.307617	1.752072
3.308105	1.751855
3.308594	1.751783
3.309082	1.751722
3.309570	1.751677
3.310059	1.752007
3.310547	1.752152
3.311035	1.751544
3.311523	1.751668
3.312012	1.751904
3.312500	1.751939
3.312988	1.751758
3.313477	1.751717
3.313965	1.751367
3.314453	1.751687
3.314941	1.751444
3.315430	1.751802
3.315918	1.752009
3.316406	1.751877
3.316895	1.751771
3.317383	1.752014
3.317871	1.752020
3.318359	1.751696
3.318848	1.751702
3.319336	1.752008
3.319824	1.751857
3.320312	1.751932
3.320801	1.751743
3.321289	1.751793
3.321777	1.751610
3.322266	1.751823
3.322754	1.751693
3.323242	1.751611
3.323730	1.751373
3.324219	1.751434
3.324707	1.751333
3.325195	1.751318
3.325684	1.751334
3.326172	1.751387
3.326660	1.751519
3.327148	1.751521
3.327637	1.751614
3.328125	1.751547
3.328613	1.751627
3.329102	1.751633
3.329590	1.751588
3.330078	1.751664
3.330566	1.751624
3.331055	1.751768
3.331543	1.751697
3.332031	1.751405
3.332520	1.751434
3.333008	1.751485
3.333496	1.751649
3.333984	1.751449
3.334473	1.751549
3.334961	1.751531
3.335449	1.751638
3.335937	1.751517
3.336426	1.751483
3.336914	1.751370
3.337402	1.751625
3.337891	1.751790
3.338379	1.751498
3.338867	1.751427
3.339355	1.751505
3.339844	1.751530
3.340332	1.751842
3.340820	1.751748
3.341309	1.751441
3.341797	1.751637
3.342285	1.751746
3.342773	1.751723
3.343262	1.751663
3.343750	1.751524
3.344238	1.751714
3.344727	1.751578
3.345215	1.751415
3.345703	1.752041
3.346191	1.751737
3.346680	1.751927
3.347168	1.751899
3.347656	1.752078
3.348145	1.751689
3.348633	1.751541
3.349121	1.751826
3.349609	1.751724
3.350098	1.751594
3.350586	1.751783
3.351074	1.751689
3.351562	1.751545
3.352051	1.752057
3.352539	1.751957
3.353027	1.751580
3.353516	1.751608
3.354004	1.751595
3.354492	1.751702
3.354980	1.751673
3.355469	1.751794
3.355957	1.751694
3.356445	1.751716
3.356934	1.751806
3.357422	1.751713
3.357910	1.751776
3.358398	1.751694
3.358887	1.751585
3.359375	1.751483
3.359863	1.751707
3.360352	1.751480
3.360840	1.751557
3.361328	1.751491
3.361816	1.751530
3.362305	1.751545
3.362793	1.751646
3.363281	1.751446
3.363770	1.751665
3.364258	1.751607
3.364746	1.751604
3.365234	1.751622
3.365723	1.751524
3.366211	1.751494
3.366699	1.751957
3.367187	1.751901
3.367676	1.751471
3.368164	1.751636
3.368652	1.751738
3.369141	1.751898
3.369629	1.751870
3.370117	1.751911
3.370605	1.751871
3.371094	1.752321
3.371582	1.751977
3.372070	1.752104
3.372559	1.751925
3.373047	1.752138
3.373535	1.752427
3.374023	1.752282
3.374512	1.752051
3.375000	1.752217
3.375488	1.752397
3.375977	1.752386
3.376465	1.752185
3.376953	1.752194
3.377441	1.752079
3.377930	1.752070
3.378418	1.752592
3.378906	1.752402
3.379395	1.752016
3.379883	1.752224
3.380371	1.752414
3.380859	1.752395
3.381348	1.752243
3.381836	1.752328
3.382324	1.752171
3.382812	1.752255
3.383301	1.752208
3.383789	1.752271
3.384277	1.752077
3.384766	1.752325
3.385254	1.752383
3.385742	1.752178
3.386230	1.752313
3.386719	1.752408
3.387207	1.752291
3.387695	1.752514
3.388184	1.752254
3.388672	1.752414
3.389160	1.752278
3.389648	1.752476
3.390137	1.752325
3.390625	1.752287
3.391113	1.752381
3.391602	1.752360
3.392090	1.752532
3.392578	1.752510
3.393066	1.752609
3.393555	1.752416
3.394043	1.752334
3.394531	1.752550
3.395020	1.752535
3.395508	1.752436
3.395996	1.752077
3.396484	1.752412
3.396973	1.752611
3.397461	1.752378
3.397949	1.752317
3.398437	1.752447
3.398926	1.752506
3.399414	1.752455
3.399902	1.752484
3.400391	1.752344
3.400879	1.752325
3.401367	1.752283
3.401855	1.752363
3.402344	1.752496
3.402832	1.752295
3.403320	1.752236
3.403809	1.752183
3.404297	1.752307
3.404785	1.752303
3.405273	1.752161
3.405762	1.752352
3.406250	1.752250
3.406738	1.751855
3.407227	1.751962
3.407715	1.752097
3.408203	1.752117
3.408691	1.752386
3.409180	1.752088
3.409668	1.752241
3.410156	1.752136
3.410645	1.752369
3.411133	1.752323
3.411621	1.752209
3.412109	1.752202
3.412598	1.752354
3.413086	1.752376
3.413574	1.752365
3.414062	1.752511
3.414551	1.752314
3.415039	1.752309
3.415527	1.752334
3.416016	1.752474
3.416504	1.752161
3.416992	1.751971
3.417480	1.752353
3.417969	1.752204
3.418457	1.752205
3.418945	1.752193
3.419434	1.752354
3.419922	1.752176
3.420410	1.752375
3.420898	1.752332
3.421387	1.752284
3.421875	1.752131
3.422363	1.752121
3.422852	1.752170
3.423340	1.752014
3.423828	1.751949
3.424316	1.751909
3.424805	1.751899
3.425293	1.752112
3.425781	1.752061
3.426270	1.751917
3.426758	1.752179
3.427246	1.752038
3.427734	1.752096
3.428223	1.752186
3.428711	1.752164
3.429199	1.752106
3.429687	1.752435
3.430176	1.752357
3.430664	1.752186
3.431152	1.752234
3.431641	1.752307
3.432129	1.752253
3.432617	1.752225
3.433105	1.752350
3.433594	1.752242
3.434082	1.752007
3.434570	1.752210
3.435059	1.752595
3.435547	1.752328
3.436035	1.752325
3.436523	1.752183
3.437012	1.752084
3.437500	1.752303
3.437988	1.752259
3.438477	1.752269
3.438965	1.752358
3.439453	1.752112
3.439941	1.752125
3.440430	1.752302
3.440918	1.752304
3.441406	1.752342
3.441895	1.752266
3.442383	1.752227
3.442871	1.752189
3.443359	1.752264
3.443848	1.752247
3.444336	1.752300
3.444824	1.752236
3.445312	1.752344
3.445801	1.751917
3.446289	1.752101
3.446777	1.752498
3.447266	1.752268
3.447754	1.752135
3.448242	1.752311
3.448730	1.752179
3.449219	1.752278
3.449707	1.752105
3.450195	1.752211
3.450684	1.752151
3.451172	1.752031
3.451660	1.752059
3.452148	1.752264
3.452637	1.752098
3.453125	1.752508
3.453613	1.752271
3.454102	1.752118
3.454590	1.752228
3.455078	1.752338
3.455566	1.752393
3.456055	1.752527
3.456543	1.752462
3.457031	1.752305
3.457520	1.752219
3.458008	1.752235
3.458496	1.752421
3.458984	1.752472
3.459473	1.752049
3.459961	1.752210
3.460449	1.752319
3.460937	1.752315
3.461426	1.752206
3.461914	1.752223
3.462402	1.752139
3.462891	1.752178
3.463379	1.751960
3.463867	1.752140
3.464355	1.752209
3.464844	1.752435
3.465332	1.752392
3.465820	1.752297
3.466309	1.752288
3.466797	1.752220
3.467285	1.752328
3.467773	1.752341
3.468262	1.752295
3.468750	1.752510
3.469238	1.752230
3.469727	1.752234
3.470215	1.752347
3.470703	1.752391
3.471191	1.752207
3.471680	1.752325
3.472168	1.752103
3.472656	1.752306
3.473145	1.752093
3.473633	1.752195
3.474121	1.752198
3.474609	1.752392
3.475098	1.752251
3.475586	1.752408
3.476074	1.752306
3.476562	1.752552
3.477051	1.752502
3.477539	1.752272
3.478027	1.752385
3.478516	1.752162
3.479004	1.752153
3.479492	1.752450
3.479980	1.752239
3.480469	1.752294
3.480957	1.752444
3.481445	1.752253
3.481934	1.752241
3.482422	1.752530
3.482910	1.752322
3.483398	1.752368
3.483887	1.752014
3.484375	1.752325
3.484863	1.752003
3.485352	1.752212
3.485840	1.752254
3.486328	1.752217
3.486816	1.751851
3.487305	1.752179
3.487793	1.752243
3.488281	1.752062
3.488770	1.752054
3.489258	1.752199
3.489746	1.752137
3.490234	1.752041
3.490723	1.752289
3.491211	1.752234
3.491699	1.752313
3.492187	1.752176
3.492676	1.752159
3.493164	1.751984
3.493652	1.752147
3.494141	1.752246
3.494629	1.752144
3.495117	1.751948
3.495605	1.752130
3.496094	1.752077
3.496582	1.752318
3.497070	1.752197
3.497559	1.752042
3.498047	1.752231
3.498535	1.752208
3.499023	1.752127
3.499512	1.752475
3.500000	1.752273
3.500488	1.752672
3.500977	1.752584
3.501465	1.752508
3.501953	1.752371
3.502441	1.752565
3.502930	1.752634
3.503418	1.752586
3.503906	1.752520
3.504395	1.752520
3.504883	1.752438
3.505371	1.752651
3.505859	1.752570
3.506348	1.752640
3.506836	1.752565
3.507324	1.752414
3.507812	1.752546
3.508301	1.752430
3.508789	1.752251
3.509277	1.752494
3.509766	1.752430
3.510254	1.752430
3.510742	1.752244
3.511230	1.752736
3.511719	1.752351
3.512207	1.752665
3.512695	1.752685
3.513184	1.752380
3.513672	1.752503
3.514160	1.752571
3.514648	1.752540
3.515137	1.752468
3.515625	1.752428
3.516113	1.752438
3.516602	1.752306
3.517090	1.752419
3.517578	1.752295
3.518066	1.752331
3.518555	1.752446
3.519043	1.752489
3.519531	1.752297
3.520020	1.752549
3.520508	1.752507
3.520996	1.752590
3.521484	1.752525
3.521973	1.752472
3.522461	1.752253
3.522949	1.752720
3.523437	1.752751
3.523926	1.752524
3.524414	1.752504
3.524902	1.752523
3.525391	1.752366
3.525879	1.752269
3.526367	1.752389
3.526855	1.752430
3.527344	1.752355
3.527832	1.752235
3.528320	1.752171
3.528809	1.752275
3.529297	1.752113
3.529785	1.752332
3.530273	1.752223
3.530762	1.752046
3.531250	1.751875
3.531738	1.751992
3.532227	1.752197
3.532715	1.752098
3.533203	1.751777
3.533691	1.752041
3.534180	1.752040
3.534668	1.751966
3.535156	1.752119
3.535645	1.751854
3.536133	1.752042
3.536621	1.751981
3.537109	1.751956
3.537598	1.752037
3.538086	1.752022
3.538574	1.752148
3.539062	1.752106
3.539551	1.752081
3.540039	1.752338
3.540527	1.752156
3.541016	1.752176
3.541504	1.752397
3.541992	1.752223
3.542480	1.752032
3.542969	1.752091
3.543457	1.752031
3.543945	1.752297
3.544434	1.752527
3.544922	1.751948
3.545410	1.752062
3.545898	1.752093
3.546387	1.752217
3.546875	1.752161
3.547363	1.752104
3.547852	1.752087
3.548340	1.752165
3.548828	1.752044
3.549316	1.752150
3.549805	1.752243
3.550293	1.752026
3.550781	1.752170
3.551270	1.752089
3.551758	1.752053
3.552246	1.752080
3.552734	1.751981
3.553223	1.751951
3.553711	1.752023
3.554199	1.751951
3.554687	1.752104
3.555176	1.752157
3.555664	1.752022
3.556152	1.752096
3.556641	1.752208
3.557129	1.752259
3.557617	1.752189
3.558105	1.751939
3.558594	1.752471
3.559082	1.752503
3.559570	1.752263
3.560059	1.752330
3.560547	1.752547
3.561035	1.752391
3.561523	1.752586
3.562012	1.752292
3.562500	1.752277
3.562988	1.752212
3.563477	1.752297
3.563965	1.751993
3.564453	1.751804
3.564941	1.752115
3.565430	1.752109
3.565918	1.752024
3.566406	1.752103
3.566895	1.752217
3.567383	1.752046
3.567871	1.752159
3.568359	1.752082
3.568848	1.752020
3.569336	1.752073
3.569824	1.751915
3.570312	1.752057
3.570801	1.752101
3.571289	1.752023
3.571777	1.751879
3.572266	1.751947
3.572754	1.751900
3.573242	1.751833
3.573730	1.751754
3.574219	1.751846
3.574707	1.751718
3.575195	1.751658
3.575684	1.751721
3.576172	1.751769
3.576660	1.751586
3.577148	1.751663
3.577637	1.751823
3.578125	1.751891
3.578613	1.751899
3.579102	1.751887
3.579590	1.751519
3.580078	1.751934
3.580566	1.751932
3.581055	1.751945
3.581543	1.751869
3.582031	1.751808
3.582520	1.752056
3.583008	1.751786
3.583496	1.751868
3.583984	1.751606
3.584473	1.751556
3.584961	1.752002
3.585449	1.751852
3.585937	1.751913
3.586426	1.751877
3.586914	1.751867
3.587402	1.751924
3.587891	1.752098
3.588379	1.751953
3.588867	1.752025
3.589355	1.751640
3.589844	1.751852
3.590332	1.752105
3.590820	1.752023
3.591309	1.751597
3.591797	1.751885
3.592285	1.751957
3.592773	1.752031
3.593262	1.752111
3.593750	1.751891
3.594238	1.751952
3.594727	1.752123
3.595215	1.752031
3.595703	1.752067
3.596191	1.751874
3.596680	1.752386
3.597168	1.752235
3.597656	1.752200
3.598145	1.752223
3.598633	1.752316
3.599121	1.752388
3.599609	1.752421
3.600098	1.752192
3.600586	1.752391
3.601074	1.752231
3.601562	1.751992
3.602051	1.752405
3.602539	1.752328
3.603027	1.752197
3.603516	1.752134
3.604004	1.752169
3.604492	1.751942
3.604980	1.752215
3.605469	1.752253
3.605957	1.752178
3.606445	1.752095
3.606934	1.752233
3.607422	1.752123
3.607910	1.751861
3.608398	1.752170
3.608887	1.752261
3.609375	1.751790
3.609863	1.751824
3.610352	1.752126
3.610840	1.752144
3.611328	1.752091
3.611816	1.752049
3.612305	1.751850
3.612793	1.752018
3.613281	1.751895
3.613770	1.751963
3.614258	1.751990
3.614746	1.751807
3.615234	1.752235
3.615723	1.751913
3.616211	1.751952
3.616699	1.751757
3.617187	1.751670
3.617676	1.751915
3.618164	1.751840
3.618652	1.751746
3.619141	1.751890
3.619629	1.751852
3.620117	1.751885
3.620605	1.752120
3.621094	1.751959
3.621582	1.751639
3.622070	1.751972
3.622559	1.751949
3.623047	1.751616
3.623535	1.751388
3.624023	1.751768
3.624512	1.751835
3.625000	1.751683
3.625488	1.751498
3.625977	1.751786
3.626465	1.751745
3.626953	1.751927
3.627441	1.751604
3.627930	1.751632
3.628418	1.751499
3.628906	1.751616
3.629395	1.751686
3.629883	1.751596
3.630371	1.751869
3.630859	1.751708
3.631348	1.751570
3.631836	1.751666
3.632324	1.751644
3.632812	1.751705
3.633301	1.751883
3.633789	1.751763
3.634277	1.751445
3.634766	1.751610
3.635254	1.751511
3.635742	1.751716
3.636230	1.752028
3.636719	1.751644
3.637207	1.751575
3.637695	1.751602
3.638184	1.751881
3.638672	1.751591
3.639160	1.751589
3.639648	1.751575
3.640137	1.751710
3.640625	1.751752
3.641113	1.751868
3.641602	1.751740
3.642090	1.751902
3.642578	1.751793
3.643066	1.751723
3.643555	1.751656
3.644043	1.751724
3.644531	1.751740
3.645020	1.751834
3.645508	1.751715
3.645996	1.751821
3.646484	1.751588
3.646973	1.751620
3.647461	1.751796
3.647949	1.751634
3.648437	1.751674
3.648926	1.751650
3.649414	1.751784
3.649902	1.751705
3.650391	1.751685
3.650879	1.751551
3.651367	1.751768
3.651855	1.751699
3.652344	1.751778
3.652832	1.751566
3.653320	1.751732
3.653809	1.751760
3.654297	1.751879
3.654785	1.751714
3.655273	1.751648
3.655762	1.751545
3.656250	1.751720
3.656738	1.751663
3.657227	1.751528
3.657715	1.751520
3.658203	1.751639
3.658691	1.751708
3.659180	1.751594
3.659668	1.751724
3.660156	1.751563
3.660645	1.751735
3.661133	1.751793
3.661621	1.751733
3.662109	1.751588
3.662598	1.751727
3.663086	1.751905
3.663574	1.751846
3.664062	1.751749
3.664551	1.751805
3.665039	1.751816
3.665527	1.751964
3.666016	1.752037
3.666504	1.752048
3.666992	1.751961
3.667480	1.752150
3.667969	1.752016
3.668457	1.751978
3.668945	1.751883
3.669434	1.752064
3.669922	1.751923
3.670410	1.751978
3.670898	1.751876
3.671387	1.752189
3.671875	1.751773
3.672363	1.752301
3.672852	1.752057
3.673340	1.751956
3.673828	1.751927
3.674316	1.751675
3.674805	1.751958
3.675293	1.752086
3.675781	1.751979
3.676270	1.752107
3.676758	1.751926
3.677246	1.751994
3.677734	1.752137
3.678223	1.752135
3.678711	1.751912
3.679199	1.751979
3.679687	1.751989
3.680176	1.752064
3.680664	1.752015
3.681152	1.752056
3.681641	1.752104
3.682129	1.752039
3.682617	1.751874
3.683105	1.752137
3.683594	1.751961
3.684082	1.751974
3.684570	1.752031
3.685059	1.751891
3.685547	1.751892
3.686035	1.751754
3.686523	1.751888
3.687012	1.751876
3.687500	1.751953
3.687988	1.751746
3.688477	1.751692
3.688965	1.751860
3.689453	1.751800
3.689941	1.751776
3.690430	1.751725
3.690918	1.751733
3.691406	1.751812
3.691895	1.751724
3.692383	1.751317
3.692871	1.751542
3.693359	1.751728
3.693848	1.751570
3.694336	1.751373
3.694824	1.751539
3.695312	1.751449
3.695801	1.751592
3.696289	1.751645
3.696777	1.751401
3.697266	1.751232
3.697754	1.751345
3.698242	1.751287
3.698730	1.751709
3.699219	1.751457
3.699707	1.751363
3.700195	1.751433
3.700684	1.751392
3.701172	1.751271
3.701660	1.751427
3.702148	1.751169
3.702637	1.751263
3.703125	1.751401
3.703613	1.751285
3.704102	1.751382
3.704590	1.751302
3.705078	1.751539
3.705566	1.751347
3.706055	1.751120
3.706543	1.751245
3.707031	1.751349
3.707520	1.751248
3.708008	1.751322
3.708496	1.751239
3.708984	1.751102
3.709473	1.751149
3.709961	1.751181
3.710449	1.751305
3.710937	1.751340
3.711426	1.751270
3.711914	1.751279
3.712402	1.751263
3.712891	1.751263
3.713379	1.750966
3.713867	1.751347
3.714355	1.751498
3.714844	1.751182
3.715332	1.751190
3.715820	1.751280
3.716309	1.751027
3.716797	1.751453
3.717285	1.751514
3.717773	1.751254
3.718262	1.751123
3.718750	1.751254
3.719238	1.751514
3.719727	1.751330
3.720215	1.751420
3.720703	1.751475
3.721191	1.751522
3.721680	1.751430
3.722168	1.751809
3.722656	1.751502
3.723145	1.751697
3.723633	1.751810
3.724121	1.751443
3.724609	1.751492
3.725098	1.751472
3.725586	1.751636
3.726074	1.751666
3.726562	1.751522
3.727051	1.751436
3.727539	1.751254
3.728027	1.751450
3.728516	1.751526
3.729004	1.751556
3.729492	1.751523
3.729980	1.751462
3.730469	1.751451
3.730957	1.751502
3.731445	1.751442
3.731934	1.751514
3.732422	1.751515
3.732910	1.751642
3.733398	1.751268
3.733887	1.751489
3.734375	1.751608
3.734863	1.751521
3.735352	1.751483
3.735840	1.751601
3.736328	1.751514
3.736816	1.751674
3.737305	1.751534
3.737793	1.751688
3.738281	1.751708
3.738770	1.751639
3.739258	1.751602
3.739746	1.751747
3.740234	1.751749
3.740723	1.751787
3.741211	1.751554
3.741699	1.751742
3.742187	1.751464
3.742676	1.751634
3.743164	1.751358
3.743652	1.751377
3.744141	1.751458
3.744629	1.751409
3.745117	1.751449
3.745605	1.751386
3.746094	1.751434
3.746582	1.751506
3.747070	1.751735
3.747559	1.751348
3.748047	1.751293
3.748535	1.751545
3.749023	1.751341
3.749512	1.751595
3.750000	1.751672
3.750488	1.751569
3.750977	1.751589
3.751465	1.751465
3.751953	1.751569
3.752441	1.751456
3.752930	1.751503
3.753418	1.751415
3.753906	1.751600
3.754395	1.751624
3.754883	1.751534
3.755371	1.751475
3.755859	1.751510
3.756348	1.751643
3.756836	1.751564
3.757324	1.751554
3.757812	1.751275
3.758301	1.751502
3.758789	1.751458
3.759277	1.751833
3.759766	1.751796
3.760254	1.751869
3.760742	1.751862
3.761230	1.751758
3.761719	1.751786
3.762207	1.751992
3.762695	1.751876
3.763184	1.751913
3.763672	1.751754
3.764160	1.751937
3.764648	1.751827
3.765137	1.751834
3.765625	1.751921
3.766113	1.751773
3.766602	1.751844
3.767090	1.752183
3.767578	1.751768
3.768066	1.751680
3.768555	1.751884
3.769043	1.751872
3.769531	1.751973
3.770020	1.751799
3.770508	1.751976
3.770996	1.751974
3.771484	1.751903
3.771973	1.752097
3.772461	1.751869
3.772949	1.752015
3.773437	1.752040
3.773926	1.751990
3.774414	1.751732
3.774902	1.752231
3.775391	1.752111
3.775879	1.751937
3.776367	1.752012
3.776855	1.752062
3.777344	1.752178
3.777832	1.751808
3.778320	1.751984
3.778809	1.752104
3.779297	1.751959
3.779785	1.751818
3.780273	1.751831
3.780762	1.751911
3.781250	1.751944
3.781738	1.752268
3.782227	1.751898
3.782715	1.751959
3.783203	1.751729
3.783691	1.751986
3.784180	1.751838
3.784668	1.751845
3.785156	1.751760
3.785645	1.751882
3.786133	1.752117
3.786621	1.752073
3.787109	1.752243
3.787598	1.752012
3.788086	1.752071
3.788574	1.751866
3.789062	1.751888
3.789551	1.751902
3.790039	1.752064
3.790527	1.751994
3.791016	1.752174
3.791504	1.751929
3.791992	1.751932
3.792480	1.751895
3.792969	1.751909
3.793457	1.751861
3.793945	1.751940
3.794434	1.751858
3.794922	1.752242
3.795410	1.752312
3.795898	1.752159
3.796387	1.752346
3.796875	1.752020
3.797363	1.752053
3.797852	1.752269
3.798340	1.752222
3.798828	1.752147
3.799316	1.752275
3.799805	1.752316
3.800293	1.752053
3.800781	1.752057
3.801270	1.752307
3.801758	1.752149
3.802246	1.752079
3.802734	1.752078
3.803223	1.751883
3.803711	1.751959
3.804199	1.752121
3.804687	1.752161
3.805176	1.752070
3.805664	1.752134
3.806152	1.751837
3.806641	1.752030
3.807129	1.752167
3.807617	1.752030
3.808105	1.751914
3.808594	1.751923
3.809082	1.752114
3.809570	1.751890
3.810059	1.751965
3.810547	1.751838
3.811035	1.751957
3.811523	1.751890
3.812012	1.751971
3.812500	1.752068
3.812988	1.751964
3.813477	1.751905
3.813965	1.751887
3.814453	1.751953
3.814941	1.751704
3.815430	1.751758
3.815918	1.752011
3.816406	1.751963
3.816895	1.751849
3.817383	1.751710
3.817871	1.751826
3.818359	1.751929
3.818848	1.752133
3.819336	1.752109
3.819824	1.752108
3.820312	1.751965
3.820801	1.752076
3.821289	1.752055
3.821777	1.751971
3.822266	1.751910
3.822754	1.752039
3.823242	1.751833
3.823730	1.751832
3.824219	1.751858
3.824707	1.751934
3.825195	1.751544
3.825684	1.751780
3.826172	1.751761
3.826660	1.751603
3.827148	1.751460
3.827637	1.751790
3.828125	1.751677
3.828613	1.751796
3.829102	1.751750
3.829590	1.751751
3.830078	1.751923
3.830566	1.752060
3.831055	1.751948
3.831543	1.751837
3.832031	1.752098
3.832520	1.752071
3.833008	1.751935
3.833496	1.751905
3.833984	1.752053
3.834473	1.752090
3.834961	1.751890
3.835449	1.751672
3.835937	1.751956
3.836426	1.751882
3.836914	1.752145
3.837402	1.752152
3.837891	1.752275
3.838379	1.752176
3.838867	1.752109
3.839355	1.752151
3.839844	1.752247
3.840332	1.752299
3.840820	1.752360
3.841309	1.752242
3.841797	1.752347
3.842285	1.752459
3.842773	1.752423
3.843262	1.752355
3.843750	1.752279
3.844238	1.752297
3.844727	1.752463
3.845215	1.752123
3.845703	1.751905
3.846191	1.752164
3.846680	1.752179
3.847168	1.751960
3.847656	1.752178
3.848145	1.752267
3.848633	1.752203
3.849121	1.752372
3.849609	1.752338
3.850098	1.752237
3.850586	1.752291
3.851074	1.752547
3.851562	1.752109
3.852051	1.752523
3.852539	1.752579
3.853027	1.752376
3.853516	1.752073
3.854004	1.752413
3.854492	1.752228
3.854980	1.752481
3.855469	1.752615
3.855957	1.752120
3.856445	1.752231
3.856934	1.752190
3.857422	1.752347
3.857910	1.752241
3.858398	1.752266
3.858887	1.752284
3.859375	1.752246
3.859863	1.752035
3.860352	1.752267
3.860840	1.752269
3.861328	1.752163
3.861816	1.752201
3.862305	1.752244
3.862793	1.752192
3.863281	1.752450
3.863770	1.752177
3.864258	1.752193
3.864746	1.752352
3.865234	1.752386
3.865723	1.752237
3.866211	1.752353
3.866699	1.752423
3.867187	1.752388
3.867676	1.752225
3.868164	1.752333
3.868652	1.752378
3.869141	1.752563
3.869629	1.752525
3.870117	1.752343
3.870605	1.752373
3.871094	1.752514
3.871582	1.752255
3.872070	1.752569
3.872559	1.752618
3.873047	1.752492
3.873535	1.752795
3.874023	1.752519
3.874512	1.752604
3.875000	1.752328
3.875488	1.752370
3.875977	1.752688
3.876465	1.752462
3.876953	1.752644
3.877441	1.752641
3.877930	1.752772
3.878418	1.752667
3.878906	1.752727
3.879395	1.752402
3.879883	1.752545
3.880371	1.752504
3.880859	1.752528
3.881348	1.752586
3.881836	1.752694
3.882324	1.752792
3.882812	1.752666
3.883301	1.752482
3.883789	1.752701
3.884277	1.752557
3.884766	1.752552
3.885254	1.752713
3.885742	1.752550
3.886230	1.752480
3.886719	1.752643
3.887207	1.752825
3.887695	1.752676
3.888184	1.752655
3.888672	1.752665
3.889160	1.752685
3.889648	1.752740
3.890137	1.752937
3.890625	1.752632
3.891113	1.752620
3.891602	1.752651
3.892090	1.752799
3.892578	1.752951
3.893066	1.752912
3.893555	1.752913
3.894043	1.752736
3.894531	1.752737
3.895020	1.752737
3.895508	1.752568
3.895996	1.752764
3.896484	1.752420
3.896973	1.752701
3.897461	1.752616
3.897949	1.752316
3.898437	1.752514
3.898926	1.752647
3.899414	1.752584
3.899902	1.752668
3.900391	1.752601
3.900879	1.752732
3.901367	1.752683
3.901855	1.752700
3.902344	1.752469
3.902832	1.752442
3.903320	1.752577
3.903809	1.752609
3.904297	1.752167
3.904785	1.752431
3.905273	1.752619
3.905762	1.752492
3.906250	1.752673
3.906738	1.752311
3.907227	1.752582
3.907715	1.752290
3.908203	1.752558
3.908691	1.752535
3.909180	1.752528
3.909668	1.752618
3.910156	1.752580
3.910645	1.752501
3.911133	1.752576
3.911621	1.752590
3.912109	1.752408
3.912598	1.752519
3.913086	1.752466
3.913574	1.752596
3.914062	1.752136
3.914551	1.752347
3.915039	1.752594
3.915527	1.752487
3.916016	1.752209
3.916504	1.752274
3.916992	1.752060
3.917480	1.752439
3.917969	1.752322
3.918457	1.752186
3.918945	1.752249
3.919434	1.752403
3.919922	1.752126
3.920410	1.752535
3.920898	1.752363
3.921387	1.752615
3.921875	1.752612
3.922363	1.752496
3.922852	1.752507
3.923340	1.752456
3.923828	1.752635
3.924316	1.752617
3.924805	1.752424
3.925293	1.752580
3.925781	1.752349
3.926270	1.752245
3.926758	1.752597
3.927246	1.752635
3.927734	1.752442
3.928223	1.752591
3.928711	1.752486
3.929199	1.752480
3.929687	1.752658
3.930176	1.752513
3.930664	1.752416
3.931152	1.752479
3.931641	1.752356
3.932129	1.752595
3.932617	1.752523
3.933105	1.752553
3.933594	1.752615
3.934082	1.752411
3.934570	1.752430
3.935059	1.752247
3.935547	1.752276
3.936035	1.752604
3.936523	1.752488
3.937012	1.752499
3.937500	1.752376
3.937988	1.752411
3.938477	1.752372
3.938965	1.752641
3.939453	1.752475
3.939941	1.752419
3.940430	1.752529
3.940918	1.752638
3.941406	1.752606
3.941895	1.752536
3.942383	1.752528
3.942871	1.752648
3.943359	1.752513
3.943848	1.752569
3.944336	1.752635
3.944824	1.752448
3.945312	1.752824
3.945801	1.752482
3.946289	1.752529
3.946777	1.752834
3.947266	1.752840
3.947754	1.752798
3.948242	1.752903
3.948730	1.752854
3.949219	1.752901
3.949707	1.752810
3.950195	1.753076
3.950684	1.752676
3.951172	1.752809
3.951660	1.752977
3.952148	1.752898
3.952637	1.752743
3.953125	1.753036
3.953613	1.752819
3.954102	1.752845
3.954590	1.752896
3.955078	1.752851
3.955566	1.752820
3.956055	1.752942
3.956543	1.752743
3.957031	1.752653
3.957520	1.752712
3.958008	1.752824
3.958496	1.752601
3.958984	1.752771
3.959473	1.752583
3.959961	1.752505
3.960449	1.752652
3.960937	1.752683
3.961426	1.752479
3.961914	1.752573
3.962402	1.752956
3.962891	1.752799
3.963379	1.752560
3.963867	1.752709
3.964355	1.752607
3.964844	1.752762
3.965332	1.752879
3.965820	1.752848
3.966309	1.752790
3.966797	1.752586
3.967285	1.752667
3.967773	1.752755
3.968262	1.752746
3.968750	1.752557
3.969238	1.752522
3.969727	1.752593
3.970215	1.752490
3.970703	1.752419
3.971191	1.752679
3.971680	1.752688
3.972168	1.752503
3.972656	1.752289
3.973145	1.752478
3.973633	1.752578
3.974121	1.752809
3.974609	1.752913
3.975098	1.752757
3.975586	1.752499
3.976074	1.752516
3.976562	1.752740
3.977051	1.752568
3.977539	1.752532
3.978027	1.752689
3.978516	1.752599
3.979004	1.752638
3.979492	1.752617
3.979980	1.752625
3.980469	1.752557
3.980957	1.752734
3.981445	1.752524
3.981934	1.752587
3.982422	1.752634
3.982910	1.752684
3.983398	1.752532
3.983887	1.752721
3.984375	1.752372
3.984863	1.752642
3.985352	1.752702
3.985840	1.752651
3.986328	1.752815
3.986816	1.752616
3.987305	1.752546
3.987793	1.752494
3.988281	1.752618
3.988770	1.752529
3.989258	1.752383
3.989746	1.752394
3.990234	1.752503
3.990723	1.752494
3.991211	1.752614
3.991699	1.752686
3.992187	1.752573
3.992676	1.752403
3.993164	1.752694
3.993652	1.752724
3.994141	1.752705
3.994629	1.752669
3.995117	1.752706
3.995605	1.752747
3.996094	1.752588
3.996582	1.752577
3.997070	1.752911
3.997559	1.752645
3.998047	1.752870
3.998535	1.752767
3.999023	1.752493
3.999512	1.752727
4.000000	1.752934
4.000488	1.752782
4.000977	1.752801
4.001465	1.752840
4.001953	1.752755
4.002441	1.752541
4.002930	1.752659
4.003418	1.752989
4.003906	1.752592
4.004395	1.752291
4.004883	1.752594
4.005371	1.752627
4.005859	1.752651
4.006348	1.752569
4.006836	1.752357
4.007324	1.752497
4.007812	1.752655
4.008301	1.752646
4.008789	1.752295
4.009277	1.752298
4.009766	1.752715
4.010254	1.752510
4.010742	1.752473
4.011230	1.752418
4.011719	1.752467
4.012207	1.752703
4.012695	1.752769
4.013184	1.752431
4.013672	1.752609
4.014160	1.752204
4.014648	1.752438
4.015137	1.752489
4.015625	1.752406
4.016113	1.752293
4.016602	1.752180
4.017090	1.752582
4.017578	1.752540
4.018066	1.752469
4.018555	1.752425
4.019043	1.752359
4.019531	1.752440
4.020020	1.752406
4.020508	1.752582
4.020996	1.752785
4.021484	1.752508
4.021973	1.752550
4.022461	1.752480
4.022949	1.752441
4.023437	1.752569
4.023926	1.752379
4.024414	1.752644
4.024902	1.752409
4.025391	1.752229
4.025879	1.752258
4.026367	1.752295
4.026855	1.752026
4.027344	1.751913
4.027832	1.752117
4.028320	1.752132
4.028809	1.752241
4.029297	1.752257
4.029785	1.752297
4.030273	1.752235
4.030762	1.752406
4.031250	1.752396
4.031738	1.752165
4.032227	1.752480
4.032715	1.752342
4.033203	1.752199
4.033691	1.752551
4.034180	1.751962
4.034668	1.752012
4.035156	1.752068
4.035645	1.752138
4.036133	1.752167
4.036621	1.751988
4.037109	1.752146
4.037598	1.752172
4.038086	1.751875
4.038574	1.752246
4.039062	1.752193
4.039551	1.752107
4.040039	1.752238
4.040527	1.752291
4.041016	1.752481
4.041504	1.752063
4.041992	1.752107
4.042480	1.752511
4.042969	1.752460
4.043457	1.752386
4.043945	1.752242
4.044434	1.752203
4.044922	1.752527
4.045410	1.752505
4.045898	1.752231
4.046387	1.752479
4.046875	1.752134
4.047363	1.752231
4.047852	1.752538
4.048340	1.752303
4.048828	1.752268
4.049316	1.752287
4.049805	1.752669
4.050293	1.752592
4.050781	1.752518
4.051270	1.752655
4.051758	1.752408
4.052246	1.752541
4.052734	1.752578
4.053223	1.752690
4.053711	1.752685
4.054199	1.752557
4.054687	1.752504
4.055176	1.752581
4.055664	1.752456
4.056152	1.752447
4.056641	1.752363
4.057129	1.752696
4.057617	1.752596
4.058105	1.752552
4.058594	1.752407
4.059082	1.752186
4.059570	1.752483
4.060059	1.752610
4.060547	1.752282
4.061035	1.752223
4.061523	1.752486
4.062012	1.752588
4.062500	1.752352
4.062988	1.752293
4.063477	1.752378
4.063965	1.752383
4.064453	1.752119
4.064941	1.752429
4.065430	1.752389
4.065918	1.752366
4.066406	1.752383
4.066895	1.752420
4.067383	1.752529
4.067871	1.752359
4.068359	1.752242
4.068848	1.752493
4.069336	1.752413
4.069824	1.752231
4.070312	1.752281
4.070801	1.752353
4.071289	1.752460
4.071777	1.752452
4.072266	1.752228
4.072754	1.752219
4.073242	1.752290
4.073730	1.751996
4.074219	1.752416
4.074707	1.752513
4.075195	1.752132
4.075684	1.752257
4.076172	1.752460
4.076660	1.752374
4.077148	1.752431
4.077637	1.752358
4.078125	1.752237
4.078613	1.752493
4.079102	1.752646
4.079590	1.752066
4.080078	1.751943
4.080566	1.752150
4.081055	1.752048
4.081543	1.752184
4.082031	1.752185
4.082520	1.752078
4.083008	1.752127
4.083496	1.752326
4.083984	1.752175
4.084473	1.751530
4.084961	1.752133
4.085449	1.752227
4.085937	1.752008
4.086426	1.752246
4.086914	1.752173
4.087402	1.752276
4.087891	1.752184
4.088379	1.752390
4.088867	1.752323
4.089355	1.752144
4.089844	1.752117
4.090332	1.752342
4.090820	1.752407
4.091309	1.752363
4.091797	1.752457
4.092285	1.752024
4.092773	1.752106
4.093262	1.752190
4.093750	1.752057
4.094238	1.751905
4.094727	1.751801
4.095215	1.752091
4.095703	1.751998
4.096191	1.751839
4.096680	1.751916
4.097168	1.752107
4.097656	1.752149
4.098145	1.752234
4.098633	1.751976
4.099121	1.751938
4.099609	1.751967
4.100098	1.751827
4.100586	1.752250
4.101074	1.752323
4.101562	1.751695
4.102051	1.751871
4.102539	1.752162
4.103027	1.752077
4.103516	1.751970
4.104004	1.751884
4.104492	1.751591
4.104980	1.751772
4.105469	1.751737
4.105957	1.752020
4.106445	1.751970
4.106934	1.751995
4.107422	1.752200
4.107910	1.752105
4.108398	1.752269
4.108887	1.751785
4.109375	1.751793
4.109863	1.752170
4.110352	1.752037
4.110840	1.752029
4.111328	1.752108
4.111816	1.752104
4.112305	1.752090
4.112793	1.752002
4.113281	1.751940
4.113770	1.751963
4.114258	1.751852
4.114746	1.752059
4.115234	1.751900
4.115723	1.751964
4.116211	1.752085
4.116699	1.752045
4.117187	1.752104
4.117676	1.752035
4.118164	1.752019
4.118652	1.752133
4.119141	1.752158
4.119629	1.752029
4.120117	1.751853
4.120605	1.752022
4.121094	1.752093
4.121582	1.752451
4.122070	1.752386
4.122559	1.752278
4.123047	1.752275
4.123535	1.751933
4.124023	1.752227
4.124512	1.752174
4.125000	1.752063
4.125488	1.752331
4.125977	1.752235
4.126465	1.752224
4.126953	1.752134
4.127441	1.752174
4.127930	1.751941
4.128418	1.752075
4.128906	1.752054
4.129395	1.752175
4.129883	1.752118
4.130371	1.752168
4.130859	1.752358
4.131348	1.752065
4.131836	1.752247
4.132324	1.751914
4.132812	1.751901
4.133301	1.752228
4.133789	1.752287
4.134277	1.751749
4.134766	1.751850
4.135254	1.752023
4.135742	1.752021
4.136230	1.751757
4.136719	1.751696
4.137207	1.751708
4.137695	1.751885
4.138184	1.751863
4.138672	1.751897
4.139160	1.751678
4.139648	1.751536
4.140137	1.751597
4.140625	1.751466
4.141113	1.751700
4.141602	1.751550
4.142090	1.751444
4.142578	1.751634
4.143066	1.751505
4.143555	1.751367
4.144043	1.751615
4.144531	1.751655
4.145020	1.751714
4.145508	1.751738
4.145996	1.751821
4.146484	1.751815
4.146973	1.751547
4.147461	1.751993
4.147949	1.751515
4.148437	1.751456
4.148926	1.751702
4.149414	1.751765
4.149902	1.751499
4.150391	1.751513
4.150879	1.751713
4.151367	1.751695
4.151855	1.751739
4.152344	1.751697
4.152832	1.751510
4.153320	1.751718
4.153809	1.751740
4.154297	1.751766
4.154785	1.751848
4.155273	1.751623
4.155762	1.751628
4.156250	1.751928
4.156738	1.751927
4.157227	1.752060
4.157715	1.751766
4.158203	1.751735
4.158691	1.751847
4.159180	1.751895
4.159668	1.751846
4.160156	1.751953
4.160645	1.751903
4.161133	1.751827
4.161621	1.751755
4.162109	1.752015
4.162598	1.751585
4.163086	1.751918
4.163574	1.752020
4.164062	1.751760
4.164551	1.751610
4.165039	1.751868
4.165527	1.751761
4.166016	1.752021
4.166504	1.752020
4.166992	1.751874
4.167480	1.751937
4.167969	1.751985
4.168457	1.751943
4.168945	1.752239
4.169434	1.752158
4.169922	1.751999
4.170410	1.752001
4.170898	1.752314
4.171387	1.752087
4.171875	1.752222
4.172363	1.751916
4.172852	1.751904
4.173340	1.752093
4.173828	1.752039
4.174316	1.752053
4.174805	1.751927
4.175293	1.751837
4.175781	1.752078
4.176270	1.752126
4.176758	1.751958
4.177246	1.751752
4.177734	1.752046
4.178223	1.752164
4.178711	1.752065
4.179199	1.751987
4.179687	1.752125
4.180176	1.752313
4.180664	1.752402
4.181152	1.752389
4.181641	1.752278
4.182129	1.752275
4.182617	1.752048
4.183105	1.752287
4.183594	1.752331
4.184082	1.751982
4.184570	1.751811
4.185059	1.752201
4.185547	1.752353
4.186035	1.752091
4.186523	1.752165
4.187012	1.751920
4.187500	1.752069
4.187988	1.751912
4.188477	1.752159
4.188965	1.751912
4.189453	1.752040
4.189941	1.752019
4.190430	1.751937
4.190918	1.752099
4.191406	1.752019
4.191895	1.751863
4.192383	1.752022
4.192871	1.752090
4.193359	1.752023
4.193848	1.751866
4.194336	1.752030
4.194824	1.751976
4.195312	1.752136
4.195801	1.752101
4.196289	1.752055
4.196777	1.752002
4.197266	1.751965
4.197754	1.752095
4.198242	1.752167
4.198730	1.751961
4.199219	1.752095
4.199707	1.751960
4.200195	1.752055
4.200684	1.752453
4.201172	1.752312
4.201660	1.751742
4.202148	1.752023
4.202637	1.752067
4.203125	1.752168
4.203613	1.752107
4.204102	1.751830
4.204590	1.751768
4.205078	1.752018
4.205566	1.751760
4.206055	1.751922
4.206543	1.752060
4.207031	1.752003
4.207520	1.751931
4.208008	1.751704
4.208496	1.751926
4.208984	1.751734
4.209473	1.751900
4.209961	1.751827
4.210449	1.751838
4.210937	1.751778
4.211426	1.752069
4.211914	1.751993
4.212402	1.751821
4.212891	1.751962
4.213379	1.752016
4.213867	1.751962
4.214355	1.751489
4.214844	1.751694
4.215332	1.751968
4.215820	1.751805
4.216309	1.751803
4.216797	1.751804
4.217285	1.752004
4.217773	1.752016
4.218262	1.752071
4.218750	1.751889
4.219238	1.752076
4.219727	1.751967
4.220215	1.751936
4.220703	1.752114
4.221191	1.752067
4.221680	1.751704
4.222168	1.751968
4.222656	1.752107
4.223145	1.751914
4.223633	1.752010
4.224121	1.751883
4.224609	1.751730
4.225098	1.751972
4.225586	1.751888
4.226074	1.752029
4.226562	1.751910
4.227051	1.752085
4.227539	1.752081
4.228027	1.752006
4.228516	1.752022
4.229004	1.751740
4.229492	1.751860
4.229980	1.751950
4.230469	1.752028
4.230957	1.751754
4.231445	1.751855
4.231934	1.751850
4.232422	1.751868
4.232910	1.752014
4.233398	1.751770
4.233887	1.751807
4.234375	1.751678
4.234863	1.751874
4.235352	1.752044
4.235840	1.751843
4.236328	1.751801
4.236816	1.751834
4.237305	1.751819
4.237793	1.752011
4.238281	1.752076
4.238770	1.751754
4.239258	1.751763
4.239746	1.751773
4.240234	1.751744
4.240723	1.751931
4.241211	1.751899
4.241699	1.751730
4.242187	1.751813
4.242676	1.751692
4.243164	1.751694
4.243652	1.751627
4.244141	1.751470
4.244629	1.751559
4.245117	1.751538
4.245605	1.751312
4.246094	1.751741
4.246582	1.751768
4.247070	1.751666
4.247559	1.751446
4.248047	1.751561
4.248535	1.751530
4.249023	1.751460
4.249512	1.751525
4.250000	1.751505
4.250488	1.751600
4.250977	1.751356
4.251465	1.751632
4.251953	1.751515
4.252441	1.751596
4.252930	1.751665
4.253418	1.751655
4.253906	1.751378
4.254395	1.751416
4.254883	1.751510
4.255371	1.751678
4.255859	1.751423
4.256348	1.751569
4.256836	1.751580
4.257324	1.751421
4.257812	1.751538
4.258301	1.751697
4.258789	1.751585
4.259277	1.751527
4.259766	1.751621
4.260254	1.751560
4.260742	1.751913
4.261230	1.751942
4.261719	1.751516
4.262207	1.751598
4.262695	1.751632
4.263184	1.751680
4.263672	1.751715
4.264160	1.751560
4.264648	1.751487
4.265137	1.751743
4.265625	1.751418
4.266113	1.751945
4.266602	1.751817
4.267090	1.751685
4.267578	1.751660
4.268066	1.751849
4.268555	1.751633
4.269043	1.751527
4.269531	1.751638
4.270020	1.751764
4.270508	1.751697
4.270996	1.751627
4.271484	1.751563
4.271973	1.751660
4.272461	1.751948
4.272949	1.752076
4.273437	1.751953
4.273926	1.752017
4.274414	1.751842
4.274902	1.752019
4.275391	1.752061
4.275879	1.752015
4.276367	1.752013
4.276855	1.752111
4.277344	1.751980
4.277832	1.751959
4.278320	1.752195
4.278809	1.751952
4.279297	1.751811
4.279785	1.752064
4.280273	1.751929
4.280762	1.752162
4.281250	1.752034
4.281738	1.752184
4.282227	1.752211
4.282715	1.752042
4.283203	1.752016
4.283691	1.752121
4.284180	1.752150
4.284668	1.752248
4.285156	1.752022
4.285645	1.752098
4.286133	1.751944
4.286621	1.751983
4.287109	1.752009
4.287598	1.752139
4.288086	1.751846
4.288574	1.751989
4.289062	1.751924
4.289551	1.751985
4.290039	1.752048
4.290527	1.752068
4.291016	1.751993
4.291504	1.751973
4.291992	1.752137
4.292480	1.752282
4.292969	1.751998
4.293457	1.752253
4.293945	1.752327
4.294434	1.751744
4.294922	1.751813
4.295410	1.752065
4.295898	1.751952
4.296387	1.752018
4.296875	1.752076
4.297363	1.752112
4.297852	1.752039
4.298340	1.751967
4.298828	1.752068
4.299316	1.751879
4.299805	1.751890
4.300293	1.752010
4.300781	1.751899
4.301270	1.752197
4.301758	1.751760
4.302246	1.751825
4.302734	1.751851
4.303223	1.752005
4.303711	1.751837
4.304199	1.751917
4.304687	1.751965
4.305176	1.751993
4.305664	1.752062
4.306152	1.752056
4.306641	1.752053
4.307129	1.751888
4.307617	1.752102
4.308105	1.751916
4.308594	1.751907
4.309082	1.752005
4.309570	1.752087
4.310059	1.752010
4.310547	1.752102
4.311035	1.752046
4.311523	1.752127
4.312012	1.752057
4.312500	1.752278
4.312988	1.752009
4.313477	1.751988
4.313965	1.752187
4.314453	1.752150
4.314941	1.752124
4.315430	1.752122
4.315918	1.752102
4.316406	1.752114
4.316895	1.752161
4.317383	1.752333
4.317871	1.752234
4.318359	1.752062
4.318848	1.752092
4.319336	1.752144
4.319824	1.752251
4.320312	1.752077
4.320801	1.752284
4.321289	1.752213
4.321777	1.752243
4.322266	1.752251
4.322754	1.751905
4.323242	1.752258
4.323730	1.752380
4.324219	1.751898
4.324707	1.751855
4.325195	1.752295
4.325684	1.752204
4.326172	1.752293
4.326660	1.752303
4.327148	1.752228
4.327637	1.752208
4.328125	1.752423
4.328613	1.752312
4.329102	1.751969
4.329590	1.752212
4.330078	1.752282
4.330566	1.752260
4.331055	1.752296
4.331543	1.752134
4.332031	1.752288
4.332520	1.752294
4.333008	1.752336
4.333496	1.752177
4.333984	1.752245
4.334473	1.751934
4.334961	1.752136
4.335449	1.752524
4.335937	1.752313
4.336426	1.752032
4.336914	1.752263
4.337402	1.752463
4.337891	1.752354
4.338379	1.752306
4.338867	1.752272
4.339355	1.752168
4.339844	1.752395
4.340332	1.752555
4.340820	1.752181
4.341309	1.752168
4.341797	1.752525
4.342285	1.752435
4.342773	1.752239
4.343262	1.752331
4.343750	1.752482
4.344238	1.752440
4.344727	1.752405
4.345215	1.752399
4.345703	1.752270
4.346191	1.752316
4.346680	1.752471
4.347168	1.752729
4.347656	1.752732
4.348145	1.752703
4.348633	1.752576
4.349121	1.752696
4.349609	1.752651
4.350098	1.752657
4.350586	1.752534
4.351074	1.752496
4.351562	1.752907
4.352051	1.752608
4.352539	1.752751
4.353027	1.752760
4.353516	1.752604
4.354004	1.752513
4.354492	1.752508
4.354980	1.752640
4.355469	1.752495
4.355957	1.752492
4.356445	1.752826
4.356934	1.752421
4.357422	1.752394
4.357910	1.752789
4.358398	1.752707
4.358887	1.752729
4.359375	1.752770
4.359863	1.752664
4.360352	1.752751
4.360840	1.753007
4.361328	1.752975
4.361816	1.752613
4.362305	1.752666
4.362793	1.752936
4.363281	1.752794
4.363770	1.752812
4.364258	1.752538
4.364746	1.752594
4.365234	1.752873
4.365723	1.752865
4.366211	1.752626
4.366699	1.752654
4.367187	1.752597
4.367676	1.752607
4.368164	1.752864
4.368652	1.752863
4.369141	1.752613
4.369629	1.752890
4.370117	1.753026
4.370605	1.753024
4.371094	1.752955
4.371582	1.753058
4.372070	1.753011
4.372559	1.752921
4.373047	1.752879
4.373535	1.753157
4.374023	1.752856
4.374512	1.753175
4.375000	1.753086
4.375488	1.752649
4.375977	1.752917
4.376465	1.752826
4.376953	1.752834
4.377441	1.752704
4.377930	1.752765
4.378418	1.752621
4.378906	1.752809
4.379395	1.752715
4.379883	1.752747
4.380371	1.752705
4.380859	1.753252
4.381348	1.753112
4.381836	1.752972
4.382324	1.753050
4.382812	1.752969
4.383301	1.753168
4.383789	1.753204
4.384277	1.752977
4.384766	1.752825
4.385254	1.753095
4.385742	1.753174
4.386230	1.753146
4.386719	1.753092
4.387207	1.753026
4.387695	1.753048
4.388184	1.753078
4.388672	1.753162
4.389160	1.752798
4.389648	1.753009
4.390137	1.753147
4.390625	1.753250
4.391113	1.752937
4.391602	1.753289
4.392090	1.753396
4.392578	1.753291
4.393066	1.753340
4.393555	1.753561
4.394043	1.753383
4.394531	1.753151
4.395020	1.753260
4.395508	1.753441
4.395996	1.753140
4.396484	1.753245
4.396973	1.753103
4.397461	1.753116
4.397949	1.753065
4.398437	1.753217
4.398926	1.753000
4.399414	1.752928
4.399902	1.753089
4.400391	1.753167
4.400879	1.753262
4.401367	1.753385
4.401855	1.753177
4.402344	1.753322
4.402832	1.753347
4.403320	1.753391
4.403809	1.753453
4.404297	1.753266
4.404785	1.753352
4.405273	1.753341
4.405762	1.753154
4.406250	1.753178
4.406738	1.753141
4.407227	1.752978
4.407715	1.753020
4.408203	1.752968
4.408691	1.752869
4.409180	1.752774
4.409668	1.752851
4.410156	1.752443
4.410645	1.752607
4.411133	1.752605
4.411621	1.752773
4.412109	1.752637
4.412598	1.752708
4.413086	1.752713
4.413574	1.752873
4.414062	1.752712
4.414551	1.752760
4.415039	1.752780
4.415527	1.752504
4.416016	1.752718
4.416504	1.752504
4.416992	1.752372
4.417480	1.752446
4.417969	1.752716
4.418457	1.752588
4.418945	1.752636
4.419434	1.752688
4.419922	1.752759
4.420410	1.752621
4.420898	1.752753
4.421387	1.752781
4.421875	1.752616
4.422363	1.752735
4.422852	1.752936
4.423340	1.752672
4.423828	1.752522
4.424316	1.752752
4.424805	1.752660
4.425293	1.752640
4.425781	1.752749
4.426270	1.752618
4.426758	1.752572
4.427246	1.752774
4.427734	1.752751
4.428223	1.752445
4.428711	1.752505
4.429199	1.752666
4.429687	1.752558
4.430176	1.752449
4.430664	1.752630
4.431152	1.752533
4.431641	1.752548
4.432129	1.752942
4.432617	1.752641
4.433105	1.752527
4.433594	1.752551
4.434082	1.752524
4.434570	1.752345
4.435059	1.752483
4.435547	1.752545
4.436035	1.752584
4.436523	1.752507
4.437012	1.752697
4.437500	1.752571
4.437988	1.752595
4.438477	1.752810
4.438965	1.752678
4.439453	1.752687
4.439941	1.752823
4.440430	1.752695
4.440918	1.752934
4.441406	1.752952
4.441895	1.752853
4.442383	1.752616
4.442871	1.752607
4.443359	1.752914
4.443848	1.752898
4.444336	1.752704
4.444824	1.752713
4.445312	1.752518
4.445801	1.752455
4.446289	1.752837
4.446777	1.752672
4.447266	1.752585
4.447754	1.752601
4.448242	1.752655
4.448730	1.752557
4.449219	1.752591
4.449707	1.752571
4.450195	1.752599
4.450684	1.752809
4.451172	1.752703
4.451660	1.752332
4.452148	1.752490
4.452637	1.752472
4.453125	1.752548
4.453613	1.752475
4.454102	1.752455
4.454590	1.752035
4.455078	1.752499
4.455566	1.752235
4.456055	1.752442
4.456543	1.752644
4.457031	1.752522
4.457520	1.752328
4.458008	1.752718
4.458496	1.752560
4.458984	1.752713
4.459473	1.752724
4.459961	1.752537
4.460449	1.752615
4.460937	1.752626
4.461426	1.752692
4.461914	1.752441
4.462402	1.752628
4.462891	1.752710
4.463379	1.752676
4.463867	1.752466
4.464355	1.752563
4.464844	1.752349
4.465332	1.752406
4.465820	1.752539
4.466309	1.752488
4.466797	1.752458
4.467285	1.752537
4.467773	1.752543
4.468262	1.752649
4.468750	1.752525
4.469238	1.752777
4.469727	1.752543
4.470215	1.752477
4.470703	1.752644
4.471191	1.752738
4.471680	1.752579
4.472168	1.752648
4.472656	1.752681
4.473145	1.752604
4.473633	1.752835
4.474121	1.752799
4.474609	1.752892
4.475098	1.752865
4.475586	1.752770
4.476074	1.752842
4.476562	1.752727
4.477051	1.752978
4.477539	1.753120
4.478027	1.752738
4.478516	1.752715
4.479004	1.752915
4.479492	1.753002
4.479980	1.752704
4.480469	1.752828
4.480957	1.752806
4.481445	1.752859
4.481934	1.752792
4.482422	1.752839
4.482910	1.752812
4.483398	1.752949
4.483887	1.753032
4.484375	1.752976
4.484863	1.753019
4.485352	1.752881
4.485840	1.752550
4.486328	1.753175
4.486816	1.752913
4.487305	1.753066
4.487793	1.753006
4.488281	1.752868
4.488770	1.752829
4.489258	1.752984
4.489746	1.752656
4.490234	1.752833
4.490723	1.752853
4.491211	1.752896
4.491699	1.752688
4.492187	1.752623
4.492676	1.752673
4.493164	1.752829
4.493652	1.752664
4.494141	1.752635
4.494629	1.752912
4.495117	1.752731
4.495605	1.752925
4.496094	1.752803
4.496582	1.752732
4.497070	1.752664
4.497559	1.752770
4.498047	1.752717
4.498535	1.752690
4.499023	1.752718
4.499512	1.752616
4.500000	1.752709
4.500488	1.752770
4.500977	1.752740
4.501465	1.752824
4.501953	1.752787
4.502441	1.752637
4.502930	1.752736
4.503418	1.752739
4.503906	1.752391
4.504395	1.752658
4.504883	1.752563
4.505371	1.752521
4.505859	1.752312
4.506348	1.752737
4.506836	1.752524
4.507324	1.752652
4.507812	1.752505
4.508301	1.752666
4.508789	1.752473
4.509277	1.752651
4.509766	1.752586
4.510254	1.752632
4.510742	1.752638
4.511230	1.752854
4.511719	1.752664
4.512207	1.752588
4.512695	1.752848
4.513184	1.752831
4.513672	1.752628
4.514160	1.752806
4.514648	1.752689
4.515137	1.752770
4.515625	1.752369
4.516113	1.752765
4.516602	1.752746
4.517090	1.752648
4.517578	1.752484
4.518066	1.752559
4.518555	1.752602
4.519043	1.752791
4.519531	1.752572
4.520020	1.752507
4.520508	1.752656
4.520996	1.752664
4.521484	1.752525
4.521973	1.753064
4.522461	1.752579
4.522949	1.752116
4.523437	1.752558
4.523926	1.752375
4.524414	1.752383
4.524902	1.752434
4.525391	1.752335
4.525879	1.752342
4.526367	1.752339
4.526855	1.752250
4.527344	1.752198
4.527832	1.752166
4.528320	1.752676
4.528809	1.752257
4.529297	1.752109
4.529785	1.752405
4.530273	1.752556
4.530762	1.752388
4.531250	1.752538
4.531738	1.752309
4.532227	1.752363
4.532715	1.752169
4.533203	1.752239
4.533691	1.752159
4.534180	1.752100
4.534668	1.752358
4.535156	1.752270
4.535645	1.752031
4.536133	1.752121
4.536621	1.752188
4.537109	1.752095
4.537598	1.752189
4.538086	1.752081
4.538574	1.752259
4.539062	1.752098
4.539551	1.752295
4.540039	1.752116
4.540527	1.752219
4.541016	1.752245
4.541504	1.752338
4.541992	1.752154
4.542480	1.752374
4.542969	1.752184
4.543457	1.752295
4.543945	1.752294
4.544434	1.752025
4.544922	1.752267
4.545410	1.751899
4.545898	1.752132
4.546387	1.752156
4.546875	1.752359
4.547363	1.752202
4.547852	1.752413
4.548340	1.752340
4.548828	1.752383
4.549316	1.752359
4.549805	1.752484
4.550293	1.752577
4.550781	1.752470
4.551270	1.752358
4.551758	1.752654
4.552246	1.752427
4.552734	1.752586
4.553223	1.752579
4.553711	1.752325
4.554199	1.752376
4.554687	1.752662
4.555176	1.752651
4.555664	1.752563
4.556152	1.752655
4.556641	1.752692
4.557129	1.752654
4.557617	1.752699
4.558105	1.752909
4.558594	1.752823
4.559082	1.753080
4.559570	1.753003
4.560059	1.752790
4.560547	1.752746
4.561035	1.753081
4.561523	1.752788
4.562012	1.752830
4.562500	1.752743
4.562988	1.752591
4.563477	1.752568
4.563965	1.752550
4.564453	1.752741
4.564941	1.752948
4.565430	1.752817
4.565918	1.752842
4.566406	1.752875
4.566895	1.752772
4.567383	1.753069
4.567871	1.752993
4.568359	1.753054
4.568848	1.753151
4.569336	1.753128
4.569824	1.752989
4.570312	1.753150
4.570801	1.752947
4.571289	1.752915
4.571777	1.752771
4.572266	1.752867
4.572754	1.752632
4.573242	1.752755
4.573730	1.752516
4.574219	1.752414
4.574707	1.752633
4.575195	1.752563
4.575684	1.752216
4.576172	1.752480
4.576660	1.752544
4.577148	1.752641
4.577637	1.752857
4.578125	1.752738
4.578613	1.752638
4.579102	1.752633
4.579590	1.752838
4.580078	1.752655
4.580566	1.752654
4.581055	1.752802
4.581543	1.752676
4.582031	1.752503
4.582520	1.752857
4.583008	1.752485
4.583496	1.752607
4.583984	1.752741
4.584473	1.752430
4.584961	1.752414
4.585449	1.752934
4.585937	1.752693
4.586426	1.752806
4.586914	1.752733
4.587402	1.752755
4.587891	1.752635
4.588379	1.752697
4.588867	1.752641
4.589355	1.752484
4.589844	1.752547
4.590332	1.752594
4.590820	1.752568
4.591309	1.752352
4.591797	1.752658
4.592285	1.752596
4.592773	1.752485
4.593262	1.752531
4.593750	1.752712
4.594238	1.752547
4.594727	1.752472
4.595215	1.752621
4.595703	1.752569
4.596191	1.752638
4.596680	1.752642
4.597168	1.752551
4.597656	1.752768
4.598145	1.752557
4.598633	1.752606
4.599121	1.752466
4.599609	1.752570
4.600098	1.752261
4.600586	1.752430
4.601074	1.752429
4.601562	1.752418
4.602051	1.752353
4.602539	1.752457
4.603027	1.752391
4.603516	1.752607
4.604004	1.752622
4.604492	1.752568
4.604980	1.752614
4.605469	1.752649
4.605957	1.752767
4.606445	1.752719
4.606934	1.752551
4.607422	1.752723
4.607910	1.752756
4.608398	1.752654
4.608887	1.752654
4.609375	1.752706
4.609863	1.752647
4.610352	1.752914
4.610840	1.752796
4.611328	1.752694
4.611816	1.752519
4.612305	1.752811
4.612793	1.752803
4.613281	1.752774
4.613770	1.752761
4.614258	1.752525
4.614746	1.752417
4.615234	1.752607
4.615723	1.752421
4.616211	1.752469
4.616699	1.752602
4.617187	1.752517
4.617676	1.752415
4.618164	1.752313
4.618652	1.752151
4.619141	1.752342
4.619629	1.752297
4.620117	1.752300
4.620605	1.752302
4.621094	1.752235
4.621582	1.752389
4.622070	1.752686
4.622559	1.752269
4.623047	1.752439
4.623535	1.752496
4.624023	1.752575
4.624512	1.752502
4.625000	1.752425
4.625488	1.752394
4.625977	1.752549
4.626465	1.752247
4.626953	1.752377
4.627441	1.752871
4.627930	1.752458
4.628418	1.752453
4.628906	1.752475
4.629395	1.752520
4.629883	1.752367
4.630371	1.752580
4.630859	1.752658
4.631348	1.752549
4.631836	1.752523
4.632324	1.752588
4.632812	1.752403
4.633301	1.752591
4.633789	1.752576
4.634277	1.752499
4.634766	1.752309
4.635254	1.752519
4.635742	1.752580
4.636230	1.752269
4.636719	1.752397
4.637207	1.752727
4.637695	1.752514
4.638184	1.752497
4.638672	1.752628
4.639160	1.752577
4.639648	1.752580
4.640137	1.753020
4.640625	1.752951
4.641113	1.752664
4.641602	1.752965
4.642090	1.752873
4.642578	1.752831
4.643066	1.752899
4.643555	1.752852
4.644043	1.752714
4.644531	1.752771
4.645020	1.752683
4.645508	1.753000
4.645996	1.752879
4.646484	1.752788
4.646973	1.752648
4.647461	1.752918
4.647949	1.752760
4.648437	1.752802
4.648926	1.752936
4.649414	1.753125
4.649902	1.752878
4.650391	1.752875
4.650879	1.752972
4.651367	1.753132
4.651855	1.753087
4.652344	1.753130
4.652832	1.752988
4.653320	1.752948
4.653809	1.752903
4.654297	1.753115
4.654785	1.752698
4.655273	1.753065
4.655762	1.753049
4.656250	1.752920
4.656738	1.752774
4.657227	1.752972
4.657715	1.752908
4.658203	1.753001
4.658691	1.753019
4.659180	1.752990
4.659668	1.753006
4.660156	1.753015
4.660645	1.753045
4.661133	1.752858
4.661621	1.752800
4.662109	1.752784
4.662598	1.752923
4.663086	1.753000
4.663574	1.753040
4.664062	1.752937
4.664551	1.752926
4.665039	1.753097
4.665527	1.752710
4.666016	1.752746
4.666504	1.752985
4.666992	1.752798
4.667480	1.752915
4.667969	1.752941
4.668457	1.752818
4.668945	1.752678
4.669434	1.752661
4.669922	1.752647
4.670410	1.752701
4.670898	1.752640
4.671387	1.752612
4.671875	1.752373
4.672363	1.752651
4.672852	1.752588
4.673340	1.752502
4.673828	1.752363
4.674316	1.752452
4.674805	1.752234
4.675293	1.752413
4.675781	1.752565
4.676270	1.752365
4.676758	1.752519
4.677246	1.752544
4.677734	1.752457
4.678223	1.752605
4.678711	1.752551
4.679199	1.752637
4.679687	1.752530
4.680176	1.752561
4.680664	1.752673
4.681152	1.752787
4.681641	1.752749
4.682129	1.752873
4.682617	1.752544
4.683105	1.752544
4.683594	1.752613
4.684082	1.752604
4.684570	1.752627
4.685059	1.752482
4.685547	1.752483
4.686035	1.752476
4.686523	1.752674
4.687012	1.752629
4.687500	1.751934
4.687988	1.752327
4.688477	1.752621
4.688965	1.752291
4.689453	1.752285
4.689941	1.752255
4.690430	1.752388
4.690918	1.752401
4.691406	1.752493
4.691895	1.752361
4.692383	1.752388
4.692871	1.752147
4.693359	1.752435
4.693848	1.752273
4.694336	1.752286
4.694824	1.752076
4.695312	1.752383
4.695801	1.752166
4.696289	1.752586
4.696777	1.752463
4.697266	1.752306
4.697754	1.752327
4.698242	1.752413
4.698730	1.752333
4.699219	1.752222
4.699707	1.752183
4.700195	1.752363
4.700684	1.752278
4.701172	1.752164
4.701660	1.752126
4.702148	1.752146
4.702637	1.752270
4.703125	1.752201
4.703613	1.752278
4.704102	1.752074
4.704590	1.751936
4.705078	1.751953
4.705566	1.752100
4.706055	1.751938
4.706543	1.751866
4.707031	1.752001
4.707520	1.751969
4.708008	1.752056
4.708496	1.752016
4.708984	1.751880
4.709473	1.752014
4.709961	1.752057
4.710449	1.751965
4.710937	1.751999
4.711426	1.752051
4.711914	1.752354
4.712402	1.752122
4.712891	1.752110
4.713379	1.752009
4.713867	1.752040
4.714355	1.752081
4.714844	1.752617
4.715332	1.752057
4.715820	1.751992
4.716309	1.752024
4.716797	1.752128
4.717285	1.752183
4.717773	1.751962
4.718262	1.752181
4.718750	1.751963
4.719238	1.751951
4.719727	1.751990
4.720215	1.751905
4.720703	1.752138
4.721191	1.752600
4.721680	1.751997
4.722168	1.751991
4.722656	1.752358
4.723145	1.752277
4.723633	1.752234
4.724121	1.752287
4.724609	1.751913
4.725098	1.752184
4.725586	1.752278
4.726074	1.752098
4.726562	1.752056
4.727051	1.752051
4.727539	1.752353
4.728027	1.752067
4.728516	1.752154
4.729004	1.752022
4.729492	1.752184
4.729980	1.752011
4.730469	1.752191
4.730957	1.752035
4.731445	1.752250
4.731934	1.751838
4.732422	1.752176
4.732910	1.752300
4.733398	1.752233
4.733887	1.752079
4.734375	1.752303
4.734863	1.752078
4.735352	1.752261
4.735840	1.752262
4.736328	1.752137
4.736816	1.752122
4.737305	1.752202
4.737793	1.752280
4.738281	1.751912
4.738770	1.752161
4.739258	1.752092
4.739746	1.751908
4.740234	1.751703
4.740723	1.752015
4.741211	1.751939
4.741699	1.752186
4.742187	1.751874
4.742676	1.751916
4.743164	1.751859
4.743652	1.751894
4.744141	1.751702
4.744629	1.751986
4.745117	1.751751
4.745605	1.751967
4.746094	1.751875
4.746582	1.751623
4.747070	1.751667
4.747559	1.751866
4.748047	1.751819
4.748535	1.751748
4.749023	1.751860
4.749512	1.751725
4.750000	1.751935
4.750488	1.752037
4.750977	1.751836
4.751465	1.751779
4.751953	1.752211
4.752441	1.752004
4.752930	1.751646
4.753418	1.751969
4.753906	1.752131
4.754395	1.751941
4.754883	1.752425
4.755371	1.752058
4.755859	1.752043
4.756348	1.752083
4.756836	1.752264
4.757324	1.752092
4.757812	1.752089
4.758301	1.752034
4.758789	1.752266
4.759277	1.752219
4.759766	1.752286
4.760254	1.752150
4.760742	1.752148
4.761230	1.752380
4.761719	1.752204
4.762207	1.752191
4.762695	1.752054
4.763184	1.752025
4.763672	1.752267
4.764160	1.752253
4.764648	1.752190
4.765137	1.752230
4.765625	1.752040
4.766113	1.752385
4.766602	1.752446
4.767090	1.752421
4.767578	1.752547
4.768066	1.752439
4.768555	1.752381
4.769043	1.752523
4.769531	1.752700
4.770020	1.752408
4.770508	1.752571
4.770996	1.752425
4.771484	1.752630
4.771973	1.752209
4.772461	1.752524
4.772949	1.752394
4.773437	1.752424
4.773926	1.752397
4.774414	1.752436
4.774902	1.752118
4.775391	1.752726
4.775879	1.752576
4.776367	1.752735
4.776855	1.752751
4.777344	1.752762
4.777832	1.752686
4.778320	1.752790
4.778809	1.752776
4.779297	1.752749
4.779785	1.752698
4.780273	1.752743
4.780762	1.752524
4.781250	1.752473
4.781738	1.752721
4.782227	1.752641
4.782715	1.752199
4.783203	1.752236
4.783691	1.752456
4.784180	1.752413
4.784668	1.752454
4.785156	1.752519
4.785645	1.752229
4.786133	1.752463
4.786621	1.752391
4.787109	1.752671
4.787598	1.752511
4.788086	1.752485
4.788574	1.752541
4.789062	1.752667
4.789551	1.752427
4.790039	1.752432
4.790527	1.752633
4.791016	1.752353
4.791504	1.752542
4.791992	1.752298
4.792480	1.752363
4.792969	1.752088
4.793457	1.752384
4.793945	1.752261
4.794434	1.752139
4.794922	1.751949
4.795410	1.752359
4.795898	1.752147
4.796387	1.752267
4.796875	1.752262
4.797363	1.752335
4.797852	1.752147
4.798340	1.752126
4.798828	1.752137
4.799316	1.751918
4.799805	1.751944
4.800293	1.751881
4.800781	1.751785
4.801270	1.752023
4.801758	1.751920
4.802246	1.751830
4.802734	1.752045
4.803223	1.752182
4.803711	1.751781
4.804199	1.751883
4.804687	1.752017
4.805176	1.751954
4.805664	1.752010
4.806152	1.752012
4.806641	1.752250
4.807129	1.751958
4.807617	1.751953
4.808105	1.751979
4.808594	1.751752
4.809082	1.751857
4.809570	1.752117
4.810059	1.751581
4.810547	1.751563
4.811035	1.752078
4.811523	1.751890
4.812012	1.751748
4.812500	1.751837
4.812988	1.751747
4.813477	1.751854
4.813965	1.751792
4.814453	1.751984
4.814941	1.751920
4.815430	1.751935
4.815918	1.751916
4.816406	1.751886
4.816895	1.751912
4.817383	1.751879
4.817871	1.751642
4.818359	1.752006
4.818848	1.751718
4.819336	1.751734
4.819824	1.751571
4.820312	1.751683
4.820801	1.751659
4.821289	1.751723
4.821777	1.751627
4.822266	1.751830
4.822754	1.751455
4.823242	1.751627
4.823730	1.751774
4.824219	1.751946
4.824707	1.751783
4.825195	1.751854
4.825684	1.751753
4.826172	1.751835
4.826660	1.751831
4.827148	1.751937
4.827637	1.752086
4.828125	1.752030
4.828613	1.751750
4.829102	1.751915
4.829590	1.751855
4.830078	1.751946
4.830566	1.752148
4.831055	1.751815
4.831543	1.751782
4.832031	1.751744
4.832520	1.751976
4.833008	1.751859
4.833496	1.751787
4.833984	1.751689
4.834473	1.751888
4.834961	1.751965
4.835449	1.752027
4.835937	1.752130
4.836426	1.751895
4.836914	1.752061
4.837402	1.752038
4.837891	1.751998
4.838379	1.751596
4.838867	1.751481
4.839355	1.751841
4.839844	1.751686
4.840332	1.751381
4.840820	1.751541
4.841309	1.751680
4.841797	1.751678
4.842285	1.752020
4.842773	1.751431
4.843262	1.751693
4.843750	1.751499
4.844238	1.751635
4.844727	1.751571
4.845215	1.751717
4.845703	1.751608
4.846191	1.751704
4.846680	1.751650
4.847168	1.751762
4.847656	1.751642
4.848145	1.751722
4.848633	1.751733
4.849121	1.751644
4.849609	1.751561
4.850098	1.751644
4.850586	1.751592
4.851074	1.751842
4.851562	1.751785
4.852051	1.751527
4.852539	1.751588
4.853027	1.751611
4.853516	1.751678
4.854004	1.751525
4.854492	1.751581
4.854980	1.751444
4.855469	1.751642
4.855957	1.751298
4.856445	1.751796
4.856934	1.751604
4.857422	1.751741
4.857910	1.751530
4.858398	1.751545
4.858887	1.751533
4.859375	1.751546
4.859863	1.751583
4.860352	1.751654
4.860840	1.751603
4.861328	1.751550
4.861816	1.751508
4.862305	1.751647
4.862793	1.751759
4.863281	1.751671
4.863770	1.751759
4.864258	1.751726
4.864746	1.751682
4.865234	1.751908
4.865723	1.751969
4.866211	1.751754
4.866699	1.752015
4.867187	1.751897
4.867676	1.751927
4.868164	1.751814
4.868652	1.751792
4.869141	1.751869
4.869629	1.751644
4.870117	1.751997
4.870605	1.752057
4.871094	1.751844
4.871582	1.751894
4.872070	1.751719
4.872559	1.751858
4.873047	1.752279
4.873535	1.752055
4.874023	1.751774
4.874512	1.752062
4.875000	1.752319
4.875488	1.752262
4.875977	1.752294
4.876465	1.752126
4.876953	1.752182
4.877441	1.752181
4.877930	1.752310
4.878418	1.752065
4.878906	1.752111
4.879395	1.752549
4.879883	1.752374
4.880371	1.752327
4.880859	1.752201
4.881348	1.752436
4.881836	1.752278
4.882324	1.752544

