LabVIEW Measurement	
Writer_Version	2
Reader_Version	2
Separator	Tab
Decimal_Separator	.
Multi_Headings	Yes
X_Columns	One
Time_Pref	Absolute
Operator	W-Tunnel
Date	1904/01/01
Time	01:00:00
***End_of_Header***	
	
Channels	1	
Samples	10000	
Date	2024/05/17	
Time	18:32:10.2824012562498661775	
Y_Unit_Label	Volts	
X_Dimension	Time	
X0	0.0000000000000000E+0	
Delta_X	9.765625E-5	
***End_of_Header***		
X_Value	Voltage	Comment
0.000000	1.468508
9.765625E-5	1.493306
0.000195	1.491897
0.000293	1.491573
0.000391	1.476362
0.000488	1.460573
0.000586	1.458218
0.000684	1.441992
0.000781	1.435270
0.000879	1.455093
0.000977	1.458436
0.001074	1.446491
0.001172	1.452963
0.001270	1.458066
0.001367	1.442957
0.001465	1.441753
0.001562	1.453161
0.001660	1.457226
0.001758	1.440195
0.001855	1.420612
0.001953	1.419835
0.002051	1.424395
0.002148	1.425703
0.002246	1.418976
0.002344	1.407687
0.002441	1.415356
0.002539	1.451424
0.002637	1.502505
0.002734	1.509191
0.002832	1.534364
0.002930	1.582353
0.003027	1.601882
0.003125	1.600600
0.003223	1.604556
0.003320	1.623486
0.003418	1.638139
0.003516	1.632053
0.003613	1.628041
0.003711	1.633837
0.003809	1.645151
0.003906	1.665411
0.004004	1.648525
0.004102	1.642396
0.004199	1.652140
0.004297	1.648760
0.004395	1.652390
0.004492	1.676127
0.004590	1.679427
0.004687	1.663905
0.004785	1.652938
0.004883	1.641742
0.004980	1.625027
0.005078	1.636245
0.005176	1.608629
0.005273	1.600631
0.005371	1.635881
0.005469	1.614607
0.005566	1.611934
0.005664	1.618329
0.005762	1.601133
0.005859	1.573986
0.005957	1.563087
0.006055	1.553922
0.006152	1.563165
0.006250	1.558520
0.006348	1.569124
0.006445	1.532041
0.006543	1.533963
0.006641	1.566487
0.006738	1.556159
0.006836	1.543737
0.006934	1.527597
0.007031	1.530726
0.007129	1.520635
0.007227	1.534398
0.007324	1.534242
0.007422	1.514865
0.007520	1.531023
0.007617	1.537464
0.007715	1.537506
0.007812	1.529235
0.007910	1.545373
0.008008	1.541604
0.008105	1.521386
0.008203	1.507628
0.008301	1.483615
0.008398	1.440012
0.008496	1.470110
0.008594	1.547165
0.008691	1.572521
0.008789	1.587994
0.008887	1.613112
0.008984	1.614555
0.009082	1.613138
0.009180	1.606808
0.009277	1.595710
0.009375	1.597259
0.009473	1.586720
0.009570	1.573746
0.009668	1.562045
0.009766	1.549523
0.009863	1.562512
0.009961	1.569298
0.010059	1.528888
0.010156	1.507070
0.010254	1.493985
0.010352	1.475072
0.010449	1.466226
0.010547	1.489912
0.010645	1.527974
0.010742	1.531591
0.010840	1.499903
0.010937	1.482501
0.011035	1.481409
0.011133	1.492145
0.011230	1.507854
0.011328	1.517960
0.011426	1.551750
0.011523	1.582887
0.011621	1.573620
0.011719	1.568570
0.011816	1.555530
0.011914	1.545798
0.012012	1.523065
0.012109	1.530837
0.012207	1.554426
0.012305	1.579653
0.012402	1.611538
0.012500	1.599310
0.012598	1.572449
0.012695	1.576277
0.012793	1.576851
0.012891	1.573007
0.012988	1.585942
0.013086	1.601293
0.013184	1.601920
0.013281	1.601732
0.013379	1.625899
0.013477	1.626256
0.013574	1.602296
0.013672	1.573337
0.013770	1.558878
0.013867	1.530940
0.013965	1.517635
0.014062	1.513018
0.014160	1.508743
0.014258	1.502409
0.014355	1.488822
0.014453	1.483202
0.014551	1.499181
0.014648	1.495444
0.014746	1.484066
0.014844	1.478480
0.014941	1.479308
0.015039	1.489578
0.015137	1.509986
0.015234	1.524553
0.015332	1.532313
0.015430	1.490514
0.015527	1.491322
0.015625	1.515220
0.015723	1.486244
0.015820	1.466511
0.015918	1.481219
0.016016	1.504538
0.016113	1.503981
0.016211	1.470199
0.016309	1.411621
0.016406	1.352271
0.016504	1.333262
0.016602	1.360346
0.016699	1.368871
0.016797	1.364104
0.016895	1.349432
0.016992	1.360955
0.017090	1.425220
0.017187	1.461848
0.017285	1.471915
0.017383	1.496646
0.017480	1.509918
0.017578	1.512851
0.017676	1.517126
0.017773	1.519706
0.017871	1.518067
0.017969	1.510944
0.018066	1.554728
0.018164	1.568911
0.018262	1.574402
0.018359	1.574348
0.018457	1.596512
0.018555	1.627527
0.018652	1.642107
0.018750	1.647634
0.018848	1.637411
0.018945	1.630708
0.019043	1.617659
0.019141	1.596216
0.019238	1.605510
0.019336	1.613739
0.019434	1.584313
0.019531	1.545832
0.019629	1.525895
0.019727	1.514566
0.019824	1.514243
0.019922	1.583847
0.020020	1.601776
0.020117	1.602474
0.020215	1.589282
0.020312	1.571685
0.020410	1.552106
0.020508	1.541549
0.020605	1.545127
0.020703	1.555852
0.020801	1.559871
0.020898	1.566070
0.020996	1.568287
0.021094	1.573381
0.021191	1.582549
0.021289	1.584218
0.021387	1.577023
0.021484	1.568157
0.021582	1.568237
0.021680	1.572518
0.021777	1.576052
0.021875	1.556575
0.021973	1.535934
0.022070	1.526156
0.022168	1.499620
0.022266	1.491582
0.022363	1.484285
0.022461	1.444193
0.022559	1.423989
0.022656	1.431212
0.022754	1.454788
0.022852	1.459709
0.022949	1.486724
0.023047	1.485906
0.023145	1.467156
0.023242	1.469586
0.023340	1.472171
0.023437	1.480782
0.023535	1.500164
0.023633	1.480201
0.023730	1.461886
0.023828	1.471110
0.023926	1.478316
0.024023	1.466802
0.024121	1.475303
0.024219	1.488390
0.024316	1.487064
0.024414	1.484060
0.024512	1.501377
0.024609	1.551613
0.024707	1.555343
0.024805	1.574273
0.024902	1.564860
0.025000	1.567225
0.025098	1.568181
0.025195	1.557757
0.025293	1.530878
0.025391	1.488920
0.025488	1.495197
0.025586	1.492867
0.025684	1.492953
0.025781	1.497620
0.025879	1.525158
0.025977	1.552769
0.026074	1.560149
0.026172	1.533713
0.026270	1.526711
0.026367	1.529617
0.026465	1.541010
0.026562	1.548014
0.026660	1.557014
0.026758	1.555156
0.026855	1.559692
0.026953	1.557649
0.027051	1.531610
0.027148	1.513039
0.027246	1.510755
0.027344	1.509627
0.027441	1.523924
0.027539	1.519009
0.027637	1.515958
0.027734	1.525029
0.027832	1.528682
0.027930	1.536250
0.028027	1.529882
0.028125	1.506803
0.028223	1.499582
0.028320	1.506461
0.028418	1.501848
0.028516	1.496709
0.028613	1.495961
0.028711	1.486024
0.028809	1.477976
0.028906	1.471181
0.029004	1.457639
0.029102	1.451925
0.029199	1.459815
0.029297	1.457464
0.029395	1.438470
0.029492	1.431179
0.029590	1.439323
0.029687	1.434182
0.029785	1.460959
0.029883	1.487541
0.029980	1.490210
0.030078	1.487936
0.030176	1.485646
0.030273	1.480813
0.030371	1.467257
0.030469	1.440182
0.030566	1.449070
0.030664	1.482828
0.030762	1.586761
0.030859	1.645046
0.030957	1.625447
0.031055	1.595755
0.031152	1.568053
0.031250	1.577302
0.031348	1.569268
0.031445	1.590666
0.031543	1.582883
0.031641	1.587322
0.031738	1.585571
0.031836	1.556193
0.031934	1.532927
0.032031	1.577351
0.032129	1.573089
0.032227	1.590276
0.032324	1.632317
0.032422	1.623649
0.032520	1.587471
0.032617	1.551799
0.032715	1.535816
0.032812	1.548721
0.032910	1.558812
0.033008	1.562546
0.033105	1.566537
0.033203	1.578700
0.033301	1.585571
0.033398	1.580645
0.033496	1.576924
0.033594	1.556837
0.033691	1.562005
0.033789	1.575036
0.033887	1.580974
0.033984	1.536019
0.034082	1.509551
0.034180	1.511974
0.034277	1.515746
0.034375	1.539507
0.034473	1.527044
0.034570	1.483623
0.034668	1.475552
0.034766	1.470600
0.034863	1.487585
0.034961	1.465434
0.035059	1.439442
0.035156	1.454489
0.035254	1.444940
0.035352	1.429519
0.035449	1.433102
0.035547	1.437170
0.035645	1.470346
0.035742	1.508234
0.035840	1.490713
0.035937	1.453025
0.036035	1.410802
0.036133	1.379086
0.036230	1.371463
0.036328	1.380986
0.036426	1.384213
0.036523	1.388898
0.036621	1.398313
0.036719	1.413479
0.036816	1.419591
0.036914	1.451042
0.037012	1.463840
0.037109	1.461517
0.037207	1.474393
0.037305	1.504308
0.037402	1.512828
0.037500	1.507088
0.037598	1.504028
0.037695	1.481722
0.037793	1.480376
0.037891	1.489963
0.037988	1.484949
0.038086	1.472702
0.038184	1.463586
0.038281	1.447867
0.038379	1.422541
0.038477	1.384375
0.038574	1.382813
0.038672	1.423107
0.038770	1.441892
0.038867	1.447740
0.038965	1.453510
0.039062	1.465628
0.039160	1.467832
0.039258	1.461572
0.039355	1.475276
0.039453	1.487883
0.039551	1.495920
0.039648	1.515389
0.039746	1.518729
0.039844	1.520343
0.039941	1.525536
0.040039	1.549142
0.040137	1.555852
0.040234	1.554707
0.040332	1.588761
0.040430	1.588749
0.040527	1.600207
0.040625	1.623013
0.040723	1.627459
0.040820	1.602207
0.040918	1.603273
0.041016	1.609218
0.041113	1.602132
0.041211	1.593355
0.041309	1.592891
0.041406	1.582843
0.041504	1.598734
0.041602	1.577057
0.041699	1.543155
0.041797	1.551071
0.041895	1.560042
0.041992	1.574982
0.042090	1.599889
0.042187	1.614189
0.042285	1.595532
0.042383	1.582389
0.042480	1.597516
0.042578	1.592015
0.042676	1.563827
0.042773	1.545887
0.042871	1.558877
0.042969	1.552667
0.043066	1.559221
0.043164	1.580003
0.043262	1.572006
0.043359	1.573517
0.043457	1.594758
0.043555	1.581830
0.043652	1.576693
0.043750	1.590432
0.043848	1.551281
0.043945	1.520985
0.044043	1.517813
0.044141	1.512178
0.044238	1.471910
0.044336	1.468221
0.044434	1.494783
0.044531	1.463237
0.044629	1.430247
0.044727	1.423956
0.044824	1.421930
0.044922	1.441456
0.045020	1.461234
0.045117	1.492677
0.045215	1.495760
0.045312	1.485597
0.045410	1.462736
0.045508	1.448061
0.045605	1.489608
0.045703	1.497839
0.045801	1.531100
0.045898	1.541075
0.045996	1.553264
0.046094	1.570629
0.046191	1.550476
0.046289	1.556957
0.046387	1.588253
0.046484	1.640347
0.046582	1.617014
0.046680	1.616103
0.046777	1.619328
0.046875	1.608158
0.046973	1.606021
0.047070	1.601641
0.047168	1.593081
0.047266	1.599724
0.047363	1.624323
0.047461	1.630661
0.047559	1.646748
0.047656	1.681557
0.047754	1.666535
0.047852	1.659807
0.047949	1.646220
0.048047	1.612135
0.048145	1.596815
0.048242	1.580363
0.048340	1.559974
0.048437	1.555329
0.048535	1.529043
0.048633	1.514073
0.048730	1.527832
0.048828	1.545798
0.048926	1.551526
0.049023	1.543516
0.049121	1.543741
0.049219	1.535320
0.049316	1.538148
0.049414	1.526945
0.049512	1.526867
0.049609	1.527583
0.049707	1.503529
0.049805	1.495191
0.049902	1.541613
0.050000	1.556463
0.050098	1.572919
0.050195	1.588731
0.050293	1.566955
0.050391	1.562752
0.050488	1.562379
0.050586	1.565301
0.050684	1.576899
0.050781	1.593205
0.050879	1.607712
0.050977	1.606749
0.051074	1.604615
0.051172	1.593780
0.051270	1.598403
0.051367	1.622639
0.051465	1.617901
0.051562	1.608366
0.051660	1.592066
0.051758	1.604989
0.051855	1.607521
0.051953	1.593489
0.052051	1.605035
0.052148	1.608463
0.052246	1.594559
0.052344	1.590567
0.052441	1.572668
0.052539	1.542965
0.052637	1.533619
0.052734	1.548337
0.052832	1.564881
0.052930	1.568590
0.053027	1.531008
0.053125	1.482941
0.053223	1.489923
0.053320	1.501934
0.053418	1.496080
0.053516	1.495134
0.053613	1.503082
0.053711	1.510702
0.053809	1.500857
0.053906	1.461280
0.054004	1.467343
0.054102	1.497368
0.054199	1.499740
0.054297	1.487088
0.054395	1.490547
0.054492	1.486826
0.054590	1.507788
0.054687	1.515155
0.054785	1.561975
0.054883	1.630666
0.054980	1.646490
0.055078	1.651249
0.055176	1.642194
0.055273	1.646698
0.055371	1.650200
0.055469	1.639372
0.055566	1.636021
0.055664	1.635481
0.055762	1.634531
0.055859	1.630579
0.055957	1.624323
0.056055	1.637011
0.056152	1.638811
0.056250	1.640846
0.056348	1.640826
0.056445	1.655417
0.056543	1.653685
0.056641	1.645171
0.056738	1.650197
0.056836	1.656837
0.056934	1.660397
0.057031	1.652559
0.057129	1.624387
0.057227	1.607861
0.057324	1.613404
0.057422	1.614707
0.057520	1.620847
0.057617	1.624097
0.057715	1.622061
0.057812	1.623610
0.057910	1.628233
0.058008	1.624559
0.058105	1.635946
0.058203	1.643142
0.058301	1.634911
0.058398	1.634572
0.058496	1.626489
0.058594	1.615739
0.058691	1.614400
0.058789	1.622377
0.058887	1.591097
0.058984	1.606170
0.059082	1.599093
0.059180	1.564219
0.059277	1.547577
0.059375	1.536215
0.059473	1.536910
0.059570	1.548931
0.059668	1.556586
0.059766	1.569651
0.059863	1.564968
0.059961	1.549170
0.060059	1.527553
0.060156	1.540378
0.060254	1.537356
0.060352	1.524138
0.060449	1.531014
0.060547	1.504778
0.060645	1.497727
0.060742	1.520215
0.060840	1.530857
0.060937	1.541369
0.061035	1.551738
0.061133	1.542395
0.061230	1.517288
0.061328	1.481873
0.061426	1.449491
0.061523	1.449438
0.061621	1.472483
0.061719	1.478942
0.061816	1.474811
0.061914	1.468735
0.062012	1.466348
0.062109	1.457360
0.062207	1.444069
0.062305	1.455503
0.062402	1.483226
0.062500	1.482451
0.062598	1.486476
0.062695	1.497691
0.062793	1.517071
0.062891	1.541392
0.062988	1.570100
0.063086	1.602136
0.063184	1.594922
0.063281	1.581208
0.063379	1.575977
0.063477	1.553630
0.063574	1.519296
0.063672	1.504602
0.063770	1.488949
0.063867	1.472037
0.063965	1.431855
0.064062	1.431976
0.064160	1.437009
0.064258	1.430276
0.064355	1.430415
0.064453	1.443720
0.064551	1.473056
0.064648	1.519871
0.064746	1.589358
0.064844	1.609648
0.064941	1.571615
0.065039	1.554014
0.065137	1.548787
0.065234	1.531296
0.065332	1.522652
0.065430	1.543361
0.065527	1.537987
0.065625	1.512229
0.065723	1.519514
0.065820	1.552793
0.065918	1.556851
0.066016	1.539860
0.066113	1.549969
0.066211	1.540297
0.066309	1.544771
0.066406	1.520192
0.066504	1.535638
0.066602	1.551236
0.066699	1.515949
0.066797	1.470205
0.066895	1.447909
0.066992	1.440048
0.067090	1.442506
0.067187	1.441673
0.067285	1.426196
0.067383	1.406485
0.067480	1.386309
0.067578	1.365070
0.067676	1.345371
0.067773	1.339412
0.067871	1.342294
0.067969	1.335682
0.068066	1.323850
0.068164	1.318484
0.068262	1.330760
0.068359	1.354989
0.068457	1.385440
0.068555	1.412655
0.068652	1.419821
0.068750	1.418163
0.068848	1.428732
0.068945	1.434848
0.069043	1.408291
0.069141	1.384097
0.069238	1.398194
0.069336	1.415923
0.069434	1.419575
0.069531	1.412805
0.069629	1.407470
0.069727	1.407977
0.069824	1.410640
0.069922	1.409295
0.070020	1.406660
0.070117	1.410699
0.070215	1.424411
0.070312	1.433000
0.070410	1.437388
0.070508	1.430499
0.070605	1.433223
0.070703	1.442138
0.070801	1.445937
0.070898	1.447495
0.070996	1.469997
0.071094	1.490146
0.071191	1.477425
0.071289	1.464286
0.071387	1.442271
0.071484	1.426421
0.071582	1.428312
0.071680	1.415477
0.071777	1.393950
0.071875	1.382857
0.071973	1.374669
0.072070	1.379455
0.072168	1.387744
0.072266	1.384654
0.072363	1.392755
0.072461	1.389640
0.072559	1.370924
0.072656	1.377847
0.072754	1.380751
0.072852	1.418741
0.072949	1.462254
0.073047	1.478902
0.073145	1.484975
0.073242	1.470910
0.073340	1.499355
0.073437	1.526538
0.073535	1.507669
0.073633	1.483431
0.073730	1.476961
0.073828	1.499278
0.073926	1.533265
0.074023	1.545056
0.074121	1.548025
0.074219	1.545592
0.074316	1.533893
0.074414	1.546153
0.074512	1.528477
0.074609	1.533250
0.074707	1.538890
0.074805	1.535350
0.074902	1.551080
0.075000	1.561182
0.075098	1.550647
0.075195	1.553267
0.075293	1.572790
0.075391	1.567933
0.075488	1.561436
0.075586	1.541709
0.075684	1.523224
0.075781	1.503488
0.075879	1.514083
0.075977	1.524085
0.076074	1.539811
0.076172	1.544754
0.076270	1.529062
0.076367	1.527405
0.076465	1.524486
0.076562	1.510439
0.076660	1.515537
0.076758	1.501063
0.076855	1.503619
0.076953	1.493206
0.077051	1.459879
0.077148	1.470553
0.077246	1.455060
0.077344	1.420073
0.077441	1.403349
0.077539	1.413022
0.077637	1.391412
0.077734	1.360898
0.077832	1.360412
0.077930	1.381863
0.078027	1.402194
0.078125	1.392304
0.078223	1.400412
0.078320	1.395429
0.078418	1.390603
0.078516	1.438271
0.078613	1.478958
0.078711	1.508383
0.078809	1.487801
0.078906	1.447601
0.079004	1.524351
0.079102	1.564468
0.079199	1.559360
0.079297	1.556348
0.079395	1.545030
0.079492	1.580580
0.079590	1.580282
0.079687	1.593112
0.079785	1.603930
0.079883	1.575264
0.079980	1.549017
0.080078	1.556176
0.080176	1.593663
0.080273	1.625700
0.080371	1.624429
0.080469	1.619283
0.080566	1.624891
0.080664	1.607595
0.080762	1.596362
0.080859	1.580992
0.080957	1.575854
0.081055	1.573744
0.081152	1.574008
0.081250	1.573774
0.081348	1.575789
0.081445	1.577761
0.081543	1.581072
0.081641	1.584157
0.081738	1.588310
0.081836	1.591807
0.081934	1.594022
0.082031	1.597382
0.082129	1.601577
0.082227	1.607199
0.082324	1.611339
0.082422	1.616270
0.082520	1.613635
0.082617	1.604766
0.082715	1.607249
0.082812	1.607462
0.082910	1.604403
0.083008	1.613466
0.083105	1.632015
0.083203	1.641037
0.083301	1.632867
0.083398	1.636510
0.083496	1.638614
0.083594	1.642833
0.083691	1.648462
0.083789	1.656873
0.083887	1.667993
0.083984	1.659862
0.084082	1.635454
0.084180	1.615448
0.084277	1.621897
0.084375	1.608475
0.084473	1.619258
0.084570	1.638519
0.084668	1.631145
0.084766	1.600340
0.084863	1.596356
0.084961	1.587633
0.085059	1.578805
0.085156	1.563517
0.085254	1.549329
0.085352	1.538564
0.085449	1.542624
0.085547	1.564735
0.085645	1.561084
0.085742	1.584797
0.085840	1.588062
0.085937	1.600932
0.086035	1.634405
0.086133	1.663898
0.086230	1.631810
0.086328	1.574995
0.086426	1.568857
0.086523	1.623915
0.086621	1.627693
0.086719	1.631112
0.086816	1.657677
0.086914	1.659698
0.087012	1.646134
0.087109	1.643277
0.087207	1.627329
0.087305	1.627209
0.087402	1.633355
0.087500	1.628742
0.087598	1.596724
0.087695	1.572328
0.087793	1.595119
0.087891	1.581237
0.087988	1.579676
0.088086	1.597866
0.088184	1.559211
0.088281	1.577661
0.088379	1.589850
0.088477	1.564411
0.088574	1.555146
0.088672	1.557768
0.088770	1.578635
0.088867	1.618779
0.088965	1.606144
0.089062	1.566911
0.089160	1.588844
0.089258	1.605521
0.089355	1.596600
0.089453	1.637782
0.089551	1.651948
0.089648	1.590477
0.089746	1.565189
0.089844	1.550201
0.089941	1.530212
0.090039	1.527451
0.090137	1.523058
0.090234	1.545707
0.090332	1.583568
0.090430	1.601810
0.090527	1.605888
0.090625	1.605229
0.090723	1.601928
0.090820	1.584058
0.090918	1.617760
0.091016	1.640209
0.091113	1.631672
0.091211	1.612960
0.091309	1.620498
0.091406	1.622952
0.091504	1.614735
0.091602	1.588684
0.091699	1.567598
0.091797	1.558005
0.091895	1.551795
0.091992	1.575341
0.092090	1.577139
0.092187	1.581546
0.092285	1.572831
0.092383	1.574499
0.092480	1.593751
0.092578	1.591945
0.092676	1.583209
0.092773	1.551165
0.092871	1.544519
0.092969	1.525445
0.093066	1.507048
0.093164	1.523957
0.093262	1.542139
0.093359	1.570012
0.093457	1.591345
0.093555	1.592081
0.093652	1.582858
0.093750	1.581604
0.093848	1.582159
0.093945	1.584448
0.094043	1.587480
0.094141	1.594857
0.094238	1.608593
0.094336	1.602761
0.094434	1.586229
0.094531	1.572863
0.094629	1.541269
0.094727	1.551113
0.094824	1.584534
0.094922	1.553448
0.095020	1.547688
0.095117	1.569596
0.095215	1.582009
0.095312	1.578363
0.095410	1.598900
0.095508	1.613162
0.095605	1.605646
0.095703	1.571268
0.095801	1.526009
0.095898	1.514988
0.095996	1.504254
0.096094	1.497259
0.096191	1.534451
0.096289	1.590709
0.096387	1.605334
0.096484	1.613735
0.096582	1.624719
0.096680	1.650187
0.096777	1.659308
0.096875	1.653791
0.096973	1.650918
0.097070	1.651192
0.097168	1.646914
0.097266	1.624699
0.097363	1.623212
0.097461	1.630302
0.097559	1.635650
0.097656	1.634328
0.097754	1.626752
0.097852	1.625901
0.097949	1.622306
0.098047	1.612064
0.098145	1.598122
0.098242	1.579104
0.098340	1.555001
0.098437	1.540094
0.098535	1.537495
0.098633	1.512549
0.098730	1.499391
0.098828	1.501611
0.098926	1.499323
0.099023	1.454923
0.099121	1.432969
0.099219	1.415565
0.099316	1.402812
0.099414	1.384973
0.099512	1.364412
0.099609	1.357320
0.099707	1.360068
0.099805	1.352738
0.099902	1.345772
0.100000	1.336221
0.100098	1.325945
0.100195	1.321360
0.100293	1.331103
0.100391	1.356326
0.100488	1.376144
0.100586	1.367714
0.100684	1.345061
0.100781	1.308460
0.100879	1.278169
0.100977	1.287141
0.101074	1.324710
0.101172	1.353176
0.101270	1.351536
0.101367	1.342185
0.101465	1.343940
0.101562	1.363366
0.101660	1.381057
0.101758	1.413891
0.101855	1.447545
0.101953	1.460231
0.102051	1.469241
0.102148	1.464438
0.102246	1.469649
0.102344	1.447077
0.102441	1.440599
0.102539	1.457655
0.102637	1.445989
0.102734	1.431601
0.102832	1.422805
0.102930	1.417451
0.103027	1.402101
0.103125	1.384745
0.103223	1.377528
0.103320	1.377623
0.103418	1.374826
0.103516	1.381681
0.103613	1.393706
0.103711	1.399656
0.103809	1.422454
0.103906	1.449407
0.104004	1.477042
0.104102	1.476128
0.104199	1.453573
0.104297	1.437633
0.104395	1.408241
0.104492	1.371357
0.104590	1.341769
0.104687	1.366920
0.104785	1.406452
0.104883	1.429766
0.104980	1.420984
0.105078	1.429213
0.105176	1.471537
0.105273	1.475830
0.105371	1.462380
0.105469	1.447178
0.105566	1.446746
0.105664	1.491313
0.105762	1.510600
0.105859	1.505640
0.105957	1.516509
0.106055	1.509078
0.106152	1.524580
0.106250	1.529759
0.106348	1.550375
0.106445	1.551667
0.106543	1.553316
0.106641	1.578102
0.106738	1.571942
0.106836	1.578234
0.106934	1.604656
0.107031	1.605563
0.107129	1.593834
0.107227	1.583044
0.107324	1.570353
0.107422	1.553622
0.107520	1.539532
0.107617	1.529209
0.107715	1.523896
0.107812	1.520840
0.107910	1.533220
0.108008	1.557422
0.108105	1.563772
0.108203	1.521457
0.108301	1.490824
0.108398	1.489639
0.108496	1.477501
0.108594	1.485015
0.108691	1.512600
0.108789	1.550426
0.108887	1.584587
0.108984	1.577785
0.109082	1.587738
0.109180	1.568525
0.109277	1.575782
0.109375	1.590259
0.109473	1.608116
0.109570	1.638786
0.109668	1.643243
0.109766	1.617550
0.109863	1.595323
0.109961	1.627164
0.110059	1.637935
0.110156	1.631439
0.110254	1.635624
0.110352	1.635783
0.110449	1.648641
0.110547	1.653665
0.110645	1.671943
0.110742	1.667428
0.110840	1.670968
0.110937	1.681378
0.111035	1.675607
0.111133	1.674817
0.111230	1.667534
0.111328	1.663105
0.111426	1.655236
0.111523	1.652031
0.111621	1.649851
0.111719	1.650918
0.111816	1.652413
0.111914	1.657030
0.112012	1.657008
0.112109	1.659153
0.112207	1.657904
0.112305	1.669022
0.112402	1.677463
0.112500	1.673023
0.112598	1.680659
0.112695	1.681330
0.112793	1.667450
0.112891	1.646796
0.112988	1.645314
0.113086	1.645665
0.113184	1.684940
0.113281	1.665459
0.113379	1.663731
0.113477	1.667079
0.113574	1.624539
0.113672	1.568987
0.113770	1.591037
0.113867	1.610394
0.113965	1.597790
0.114062	1.629498
0.114160	1.649498
0.114258	1.636300
0.114355	1.597872
0.114453	1.552706
0.114551	1.551890
0.114648	1.547239
0.114746	1.558277
0.114844	1.591689
0.114941	1.584019
0.115039	1.559190
0.115137	1.547051
0.115234	1.548036
0.115332	1.559284
0.115430	1.576785
0.115527	1.570320
0.115625	1.546240
0.115723	1.544801
0.115820	1.574090
0.115918	1.569079
0.116016	1.558551
0.116113	1.551177
0.116211	1.553216
0.116309	1.541419
0.116406	1.531201
0.116504	1.591248
0.116602	1.619032
0.116699	1.592454
0.116797	1.578934
0.116895	1.533226
0.116992	1.555996
0.117090	1.568028
0.117187	1.573209
0.117285	1.579058
0.117383	1.543013
0.117480	1.552313
0.117578	1.559054
0.117676	1.558634
0.117773	1.566173
0.117871	1.585864
0.117969	1.599731
0.118066	1.560544
0.118164	1.538756
0.118262	1.573371
0.118359	1.575579
0.118457	1.536373
0.118555	1.544823
0.118652	1.584827
0.118750	1.597795
0.118848	1.574547
0.118945	1.550866
0.119043	1.520430
0.119141	1.500460
0.119238	1.486621
0.119336	1.516522
0.119434	1.528220
0.119531	1.516503
0.119629	1.509877
0.119727	1.496523
0.119824	1.494322
0.119922	1.494832
0.120020	1.486364
0.120117	1.456086
0.120215	1.439111
0.120312	1.424390
0.120410	1.413001
0.120508	1.412917
0.120605	1.415728
0.120703	1.397531
0.120801	1.357296
0.120898	1.338647
0.120996	1.363755
0.121094	1.373360
0.121191	1.356388
0.121289	1.331198
0.121387	1.349828
0.121484	1.398236
0.121582	1.476386
0.121680	1.525294
0.121777	1.516431
0.121875	1.513169
0.121973	1.493573
0.122070	1.496598
0.122168	1.506180
0.122266	1.517830
0.122363	1.505320
0.122461	1.458537
0.122559	1.420339
0.122656	1.380255
0.122754	1.343768
0.122852	1.315818
0.122949	1.301711
0.123047	1.298855
0.123145	1.305872
0.123242	1.309732
0.123340	1.314167
0.123437	1.330395
0.123535	1.354260
0.123633	1.345084
0.123730	1.318423
0.123828	1.308766
0.123926	1.336930
0.124023	1.395219
0.124121	1.431832
0.124219	1.454496
0.124316	1.460882
0.124414	1.452805
0.124512	1.446304
0.124609	1.471915
0.124707	1.521322
0.124805	1.534172
0.124902	1.527115
0.125000	1.533814
0.125098	1.498711
0.125195	1.469491
0.125293	1.448855
0.125391	1.445812
0.125488	1.458943
0.125586	1.471905
0.125684	1.512020
0.125781	1.501585
0.125879	1.482251
0.125977	1.480697
0.126074	1.505020
0.126172	1.525826
0.126270	1.537276
0.126367	1.542708
0.126465	1.559628
0.126562	1.569023
0.126660	1.579036
0.126758	1.587016
0.126855	1.586774
0.126953	1.587109
0.127051	1.578875
0.127148	1.575660
0.127246	1.554436
0.127344	1.554166
0.127441	1.576147
0.127539	1.574439
0.127637	1.555874
0.127734	1.553646
0.127832	1.611754
0.127930	1.632999
0.128027	1.634350
0.128125	1.631613
0.128223	1.632565
0.128320	1.632446
0.128418	1.632946
0.128516	1.635065
0.128613	1.639336
0.128711	1.636195
0.128809	1.639505
0.128906	1.641379
0.129004	1.637205
0.129102	1.633492
0.129199	1.636763
0.129297	1.650324
0.129395	1.643699
0.129492	1.634914
0.129590	1.615987
0.129687	1.591958
0.129785	1.568635
0.129883	1.547378
0.129980	1.541425
0.130078	1.522615
0.130176	1.512095
0.130273	1.517856
0.130371	1.512273
0.130469	1.498220
0.130566	1.485977
0.130664	1.512770
0.130762	1.540499
0.130859	1.549865
0.130957	1.573860
0.131055	1.577531
0.131152	1.575646
0.131250	1.576232
0.131348	1.544175
0.131445	1.562690
0.131543	1.589565
0.131641	1.585849
0.131738	1.592031
0.131836	1.576664
0.131934	1.535054
0.132031	1.524954
0.132129	1.569188
0.132227	1.607187
0.132324	1.602041
0.132422	1.615530
0.132520	1.613935
0.132617	1.584898
0.132715	1.632002
0.132812	1.649289
0.132910	1.649952
0.133008	1.635500
0.133105	1.605226
0.133203	1.585189
0.133301	1.588735
0.133398	1.582153
0.133496	1.567485
0.133594	1.556843
0.133691	1.534128
0.133789	1.525457
0.133887	1.514164
0.133984	1.504808
0.134082	1.489258
0.134180	1.485282
0.134277	1.489953
0.134375	1.463301
0.134473	1.450318
0.134570	1.454567
0.134668	1.448927
0.134766	1.436302
0.134863	1.429461
0.134961	1.445567
0.135059	1.464463
0.135156	1.484938
0.135254	1.501376
0.135352	1.533373
0.135449	1.578039
0.135547	1.610514
0.135645	1.608526
0.135742	1.572132
0.135840	1.571442
0.135937	1.607011
0.136035	1.633296
0.136133	1.614658
0.136230	1.597826
0.136328	1.555670
0.136426	1.538891
0.136523	1.576708
0.136621	1.587996
0.136719	1.547691
0.136816	1.529887
0.136914	1.502899
0.137012	1.446884
0.137109	1.460829
0.137207	1.476356
0.137305	1.472795
0.137402	1.474481
0.137500	1.472898
0.137598	1.481442
0.137695	1.476690
0.137793	1.485219
0.137891	1.552444
0.137988	1.594392
0.138086	1.602982
0.138184	1.577709
0.138281	1.565520
0.138379	1.537007
0.138477	1.512341
0.138574	1.498389
0.138672	1.501105
0.138770	1.520886
0.138867	1.514458
0.138965	1.504831
0.139062	1.514254
0.139160	1.539945
0.139258	1.531288
0.139355	1.518919
0.139453	1.559127
0.139551	1.548809
0.139648	1.510204
0.139746	1.504870
0.139844	1.509011
0.139941	1.528449
0.140039	1.514033
0.140137	1.488441
0.140234	1.490496
0.140332	1.515276
0.140430	1.547174
0.140527	1.585127
0.140625	1.579071
0.140723	1.561107
0.140820	1.548892
0.140918	1.561674
0.141016	1.576557
0.141113	1.575684
0.141211	1.566692
0.141309	1.575380
0.141406	1.591461
0.141504	1.583933
0.141602	1.603462
0.141699	1.621542
0.141797	1.607139
0.141895	1.588131
0.141992	1.574036
0.142090	1.581844
0.142187	1.575996
0.142285	1.569977
0.142383	1.546391
0.142480	1.576800
0.142578	1.608524
0.142676	1.611571
0.142773	1.611724
0.142871	1.616135
0.142969	1.619744
0.143066	1.616510
0.143164	1.602000
0.143262	1.585233
0.143359	1.576836
0.143457	1.609929
0.143555	1.643670
0.143652	1.673020
0.143750	1.658870
0.143848	1.655377
0.143945	1.651687
0.144043	1.657999
0.144141	1.704596
0.144238	1.712023
0.144336	1.699406
0.144434	1.686373
0.144531	1.654059
0.144629	1.652130
0.144727	1.641439
0.144824	1.615688
0.144922	1.625572
0.145020	1.618236
0.145117	1.596248
0.145215	1.592815
0.145312	1.614314
0.145410	1.601415
0.145508	1.589358
0.145605	1.571515
0.145703	1.562205
0.145801	1.536504
0.145898	1.536141
0.145996	1.542952
0.146094	1.533944
0.146191	1.607459
0.146289	1.628521
0.146387	1.609104
0.146484	1.577049
0.146582	1.556953
0.146680	1.541895
0.146777	1.523600
0.146875	1.493907
0.146973	1.530696
0.147070	1.540614
0.147168	1.515183
0.147266	1.527307
0.147363	1.529207
0.147461	1.516855
0.147559	1.509475
0.147656	1.488447
0.147754	1.525149
0.147852	1.581343
0.147949	1.590669
0.148047	1.556749
0.148145	1.561281
0.148242	1.595361
0.148340	1.594166
0.148437	1.614947
0.148535	1.620639
0.148633	1.576495
0.148730	1.586591
0.148828	1.618164
0.148926	1.615841
0.149023	1.590470
0.149121	1.592976
0.149219	1.607177
0.149316	1.589856
0.149414	1.585783
0.149512	1.582151
0.149609	1.588014
0.149707	1.615677
0.149805	1.616305
0.149902	1.614348
0.150000	1.603449
0.150098	1.612220
0.150195	1.618199
0.150293	1.617634
0.150391	1.619736
0.150488	1.616864
0.150586	1.616164
0.150684	1.616723
0.150781	1.620064
0.150879	1.623497
0.150977	1.623495
0.151074	1.613809
0.151172	1.586850
0.151270	1.554537
0.151367	1.549088
0.151465	1.559916
0.151562	1.554607
0.151660	1.538651
0.151758	1.559035
0.151855	1.512788
0.151953	1.496445
0.152051	1.493349
0.152148	1.449723
0.152246	1.476519
0.152344	1.504707
0.152441	1.527678
0.152539	1.547657
0.152637	1.547046
0.152734	1.554213
0.152832	1.571394
0.152930	1.601323
0.153027	1.607243
0.153125	1.601095
0.153223	1.591575
0.153320	1.577606
0.153418	1.580665
0.153516	1.591076
0.153613	1.578957
0.153711	1.553762
0.153809	1.549449
0.153906	1.570994
0.154004	1.574014
0.154102	1.540457
0.154199	1.507665
0.154297	1.503661
0.154395	1.524730
0.154492	1.515897
0.154590	1.481987
0.154687	1.453733
0.154785	1.434182
0.154883	1.443698
0.154980	1.454273
0.155078	1.457627
0.155176	1.482811
0.155273	1.509372
0.155371	1.509843
0.155469	1.509571
0.155566	1.500359
0.155664	1.475351
0.155762	1.449240
0.155859	1.436937
0.155957	1.440043
0.156055	1.447201
0.156152	1.461050
0.156250	1.479366
0.156348	1.505886
0.156445	1.508692
0.156543	1.509943
0.156641	1.508510
0.156738	1.496180
0.156836	1.496152
0.156934	1.507331
0.157031	1.513394
0.157129	1.528356
0.157227	1.547423
0.157324	1.545260
0.157422	1.550174
0.157520	1.555269
0.157617	1.556448
0.157715	1.558694
0.157812	1.550786
0.157910	1.547002
0.158008	1.532809
0.158105	1.522555
0.158203	1.518667
0.158301	1.496571
0.158398	1.489154
0.158496	1.498292
0.158594	1.519065
0.158691	1.529109
0.158789	1.539567
0.158887	1.551407
0.158984	1.529676
0.159082	1.516830
0.159180	1.509109
0.159277	1.493505
0.159375	1.486784
0.159473	1.497187
0.159570	1.526963
0.159668	1.542706
0.159766	1.550375
0.159863	1.583186
0.159961	1.606012
0.160059	1.616097
0.160156	1.631905
0.160254	1.651039
0.160352	1.642496
0.160449	1.624339
0.160547	1.611936
0.160645	1.601743
0.160742	1.593885
0.160840	1.589622
0.160937	1.596558
0.161035	1.580759
0.161133	1.571817
0.161230	1.572224
0.161328	1.593374
0.161426	1.609771
0.161523	1.609630
0.161621	1.599656
0.161719	1.597013
0.161816	1.600514
0.161914	1.582656
0.162012	1.578511
0.162109	1.569891
0.162207	1.580875
0.162305	1.600666
0.162402	1.593585
0.162500	1.590393
0.162598	1.563802
0.162695	1.535130
0.162793	1.551308
0.162891	1.549600
0.162988	1.567883
0.163086	1.603896
0.163184	1.594746
0.163281	1.594888
0.163379	1.573065
0.163477	1.566311
0.163574	1.573711
0.163672	1.582973
0.163770	1.586328
0.163867	1.593164
0.163965	1.608835
0.164062	1.607711
0.164160	1.580312
0.164258	1.553521
0.164355	1.552386
0.164453	1.601935
0.164551	1.635782
0.164648	1.635674
0.164746	1.632377
0.164844	1.630758
0.164941	1.619558
0.165039	1.585850
0.165137	1.576190
0.165234	1.601111
0.165332	1.602994
0.165430	1.603328
0.165527	1.615878
0.165625	1.622267
0.165723	1.640285
0.165820	1.660089
0.165918	1.632231
0.166016	1.631990
0.166113	1.650321
0.166211	1.637815
0.166309	1.622531
0.166406	1.640876
0.166504	1.630738
0.166602	1.630506
0.166699	1.632154
0.166797	1.626698
0.166895	1.592807
0.166992	1.583123
0.167090	1.588563
0.167187	1.601171
0.167285	1.604846
0.167383	1.580531
0.167480	1.613392
0.167578	1.632608
0.167676	1.637274
0.167773	1.625302
0.167871	1.606037
0.167969	1.588688
0.168066	1.598810
0.168164	1.608175
0.168262	1.622427
0.168359	1.624632
0.168457	1.610524
0.168555	1.607585
0.168652	1.605271
0.168750	1.595158
0.168848	1.614470
0.168945	1.617755
0.169043	1.598285
0.169141	1.581572
0.169238	1.571583
0.169336	1.553509
0.169434	1.515094
0.169531	1.490837
0.169629	1.491983
0.169727	1.499654
0.169824	1.528141
0.169922	1.559564
0.170020	1.563643
0.170117	1.592370
0.170215	1.608688
0.170312	1.592622
0.170410	1.572769
0.170508	1.595675
0.170605	1.589044
0.170703	1.581695
0.170801	1.608414
0.170898	1.587971
0.170996	1.599267
0.171094	1.618853
0.171191	1.616225
0.171289	1.631893
0.171387	1.631165
0.171484	1.623506
0.171582	1.613675
0.171680	1.602606
0.171777	1.608476
0.171875	1.623117
0.171973	1.578965
0.172070	1.568401
0.172168	1.572991
0.172266	1.573437
0.172363	1.565344
0.172461	1.568929
0.172559	1.578154
0.172656	1.567781
0.172754	1.549064
0.172852	1.538495
0.172949	1.572151
0.173047	1.559830
0.173145	1.561200
0.173242	1.596005
0.173340	1.615240
0.173437	1.616092
0.173535	1.623813
0.173633	1.611133
0.173730	1.600442
0.173828	1.581336
0.173926	1.575170
0.174023	1.557398
0.174121	1.541844
0.174219	1.539841
0.174316	1.541544
0.174414	1.545659
0.174512	1.548309
0.174609	1.546221
0.174707	1.546879
0.174805	1.538233
0.174902	1.499973
0.175000	1.506713
0.175098	1.541796
0.175195	1.559177
0.175293	1.553734
0.175391	1.544866
0.175488	1.552290
0.175586	1.524994
0.175684	1.495171
0.175781	1.475259
0.175879	1.444827
0.175977	1.451499
0.176074	1.461258
0.176172	1.486950
0.176270	1.521071
0.176367	1.529920
0.176465	1.535326
0.176562	1.546276
0.176660	1.539215
0.176758	1.532866
0.176855	1.546299
0.176953	1.532985
0.177051	1.483496
0.177148	1.463290
0.177246	1.465411
0.177344	1.481193
0.177441	1.499544
0.177539	1.498611
0.177637	1.491344
0.177734	1.523138
0.177832	1.520328
0.177930	1.538849
0.178027	1.521831
0.178125	1.513762
0.178223	1.553004
0.178320	1.572293
0.178418	1.542689
0.178516	1.477117
0.178613	1.447891
0.178711	1.469948
0.178809	1.471666
0.178906	1.472460
0.179004	1.470709
0.179102	1.464129
0.179199	1.468737
0.179297	1.470595
0.179395	1.487046
0.179492	1.509968
0.179590	1.530201
0.179687	1.540076
0.179785	1.555827
0.179883	1.552218
0.179980	1.528360
0.180078	1.518598
0.180176	1.509080
0.180273	1.471203
0.180371	1.460427
0.180469	1.451545
0.180566	1.443259
0.180664	1.436199
0.180762	1.436483
0.180859	1.452474
0.180957	1.471961
0.181055	1.474900
0.181152	1.456319
0.181250	1.454745
0.181348	1.471807
0.181445	1.477231
0.181543	1.481410
0.181641	1.476920
0.181738	1.492045
0.181836	1.476367
0.181934	1.464270
0.182031	1.511738
0.182129	1.532277
0.182227	1.533516
0.182324	1.562124
0.182422	1.572417
0.182520	1.565358
0.182617	1.580225
0.182715	1.561770
0.182812	1.554353
0.182910	1.553831
0.183008	1.605707
0.183105	1.590758
0.183203	1.588020
0.183301	1.664719
0.183398	1.653655
0.183496	1.615864
0.183594	1.580792
0.183691	1.571594
0.183789	1.552717
0.183887	1.512655
0.183984	1.490366
0.184082	1.489224
0.184180	1.497838
0.184277	1.524975
0.184375	1.549097
0.184473	1.563923
0.184570	1.553521
0.184668	1.516900
0.184766	1.488941
0.184863	1.472868
0.184961	1.468685
0.185059	1.482449
0.185156	1.508905
0.185254	1.507851
0.185352	1.504150
0.185449	1.514840
0.185547	1.557339
0.185645	1.549606
0.185742	1.564891
0.185840	1.564461
0.185937	1.568250
0.186035	1.602357
0.186133	1.584561
0.186230	1.595205
0.186328	1.574112
0.186426	1.575306
0.186523	1.576302
0.186621	1.571757
0.186719	1.583525
0.186816	1.631002
0.186914	1.637220
0.187012	1.650657
0.187109	1.641616
0.187207	1.640405
0.187305	1.634156
0.187402	1.640618
0.187500	1.631049
0.187598	1.647178
0.187695	1.660895
0.187793	1.655451
0.187891	1.676180
0.187988	1.678532
0.188086	1.687073
0.188184	1.691264
0.188281	1.667143
0.188379	1.657191
0.188477	1.682452
0.188574	1.678028
0.188672	1.657619
0.188770	1.662479
0.188867	1.672032
0.188965	1.666487
0.189062	1.645427
0.189160	1.632547
0.189258	1.589174
0.189355	1.585889
0.189453	1.592423
0.189551	1.591610
0.189648	1.593746
0.189746	1.588000
0.189844	1.589512
0.189941	1.536291
0.190039	1.513164
0.190137	1.543927
0.190234	1.528197
0.190332	1.477399
0.190430	1.484253
0.190527	1.494632
0.190625	1.523081
0.190723	1.538409
0.190820	1.545394
0.190918	1.578334
0.191016	1.554391
0.191113	1.563133
0.191211	1.600563
0.191309	1.601178
0.191406	1.575618
0.191504	1.574199
0.191602	1.624679
0.191699	1.662052
0.191797	1.668930
0.191895	1.667940
0.191992	1.664899
0.192090	1.671337
0.192187	1.671358
0.192285	1.657438
0.192383	1.643676
0.192480	1.636945
0.192578	1.633530
0.192676	1.637597
0.192773	1.639141
0.192871	1.639689
0.192969	1.638885
0.193066	1.629684
0.193164	1.620179
0.193262	1.644617
0.193359	1.636069
0.193457	1.631809
0.193555	1.617586
0.193652	1.610103
0.193750	1.573666
0.193848	1.573525
0.193945	1.639669
0.194043	1.675891
0.194141	1.637307
0.194238	1.603078
0.194336	1.588819
0.194434	1.571794
0.194531	1.577240
0.194629	1.587168
0.194727	1.621769
0.194824	1.628661
0.194922	1.641826
0.195020	1.636742
0.195117	1.643500
0.195215	1.634583
0.195312	1.622679
0.195410	1.648861
0.195508	1.645250
0.195605	1.632281
0.195703	1.627884
0.195801	1.628443
0.195898	1.631639
0.195996	1.646210
0.196094	1.663383
0.196191	1.654702
0.196289	1.655693
0.196387	1.640498
0.196484	1.628095
0.196582	1.629754
0.196680	1.613306
0.196777	1.615069
0.196875	1.604831
0.196973	1.592154
0.197070	1.600480
0.197168	1.638031
0.197266	1.639353
0.197363	1.626065
0.197461	1.606106
0.197559	1.598056
0.197656	1.586166
0.197754	1.576327
0.197852	1.584117
0.197949	1.581284
0.198047	1.578809
0.198145	1.590345
0.198242	1.582085
0.198340	1.566965
0.198437	1.535946
0.198535	1.523024
0.198633	1.512522
0.198730	1.487900
0.198828	1.480682
0.198926	1.500642
0.199023	1.496312
0.199121	1.506323
0.199219	1.487675
0.199316	1.456568
0.199414	1.446531
0.199512	1.455525
0.199609	1.460263
0.199707	1.446192
0.199805	1.460801
0.199902	1.524596
0.200000	1.576880
0.200098	1.596703
0.200195	1.617096
0.200293	1.639525
0.200391	1.637256
0.200488	1.628946
0.200586	1.623136
0.200684	1.629501
0.200781	1.630448
0.200879	1.641718
0.200977	1.635054
0.201074	1.639718
0.201172	1.650380
0.201270	1.641366
0.201367	1.646214
0.201465	1.631964
0.201562	1.619194
0.201660	1.631805
0.201758	1.633063
0.201855	1.603387
0.201953	1.591448
0.202051	1.603803
0.202148	1.593531
0.202246	1.560171
0.202344	1.550635
0.202441	1.548612
0.202539	1.569827
0.202637	1.596522
0.202734	1.603213
0.202832	1.615091
0.202930	1.608771
0.203027	1.598896
0.203125	1.596311
0.203223	1.608999
0.203320	1.609630
0.203418	1.637421
0.203516	1.634178
0.203613	1.615565
0.203711	1.582896
0.203809	1.567947
0.203906	1.594728
0.204004	1.579845
0.204102	1.534475
0.204199	1.541392
0.204297	1.575919
0.204395	1.582696
0.204492	1.586913
0.204590	1.569877
0.204687	1.544655
0.204785	1.549081
0.204883	1.531851
0.204980	1.534215
0.205078	1.538166
0.205176	1.517237
0.205273	1.540645
0.205371	1.524385
0.205469	1.522076
0.205566	1.526955
0.205664	1.527610
0.205762	1.541860
0.205859	1.562912
0.205957	1.573789
0.206055	1.584941
0.206152	1.613838
0.206250	1.647893
0.206348	1.657985
0.206445	1.654099
0.206543	1.667902
0.206641	1.687546
0.206738	1.671395
0.206836	1.665860
0.206934	1.669225
0.207031	1.680094
0.207129	1.680076
0.207227	1.661351
0.207324	1.678366
0.207422	1.683229
0.207520	1.681065
0.207617	1.659046
0.207715	1.662140
0.207812	1.660047
0.207910	1.635501
0.208008	1.620623
0.208105	1.614244
0.208203	1.641641
0.208301	1.671253
0.208398	1.658202
0.208496	1.647059
0.208594	1.655146
0.208691	1.672823
0.208789	1.641012
0.208887	1.610203
0.208984	1.615573
0.209082	1.639340
0.209180	1.655273
0.209277	1.656997
0.209375	1.659099
0.209473	1.662444
0.209570	1.662450
0.209668	1.660686
0.209766	1.663636
0.209863	1.665269
0.209961	1.659832
0.210059	1.657265
0.210156	1.654835
0.210254	1.669391
0.210352	1.674374
0.210449	1.662248
0.210547	1.634683
0.210645	1.637935
0.210742	1.663618
0.210840	1.647865
0.210937	1.659652
0.211035	1.648556
0.211133	1.646184
0.211230	1.652513
0.211328	1.656626
0.211426	1.657527
0.211523	1.653033
0.211621	1.640077
0.211719	1.627129
0.211816	1.649159
0.211914	1.654169
0.212012	1.624220
0.212109	1.616183
0.212207	1.608464
0.212305	1.597903
0.212402	1.600438
0.212500	1.587900
0.212598	1.570230
0.212695	1.579354
0.212793	1.565803
0.212891	1.555660
0.212988	1.574154
0.213086	1.618848
0.213184	1.609999
0.213281	1.592913
0.213379	1.598461
0.213477	1.611422
0.213574	1.597641
0.213672	1.598830
0.213770	1.622641
0.213867	1.638396
0.213965	1.641198
0.214062	1.619944
0.214160	1.596596
0.214258	1.551077
0.214355	1.548433
0.214453	1.561761
0.214551	1.557994
0.214648	1.542054
0.214746	1.562030
0.214844	1.577163
0.214941	1.597950
0.215039	1.599863
0.215137	1.583942
0.215234	1.579417
0.215332	1.571422
0.215430	1.573553
0.215527	1.571123
0.215625	1.536788
0.215723	1.496706
0.215820	1.512882
0.215918	1.470611
0.216016	1.427921
0.216113	1.421561
0.216211	1.480488
0.216309	1.489575
0.216406	1.484587
0.216504	1.497808
0.216602	1.504196
0.216699	1.506918
0.216797	1.518077
0.216895	1.498974
0.216992	1.466254
0.217090	1.415950
0.217187	1.391880
0.217285	1.392519
0.217383	1.395791
0.217480	1.421206
0.217578	1.424969
0.217676	1.424814
0.217773	1.439835
0.217871	1.404016
0.217969	1.383337
0.218066	1.419923
0.218164	1.452979
0.218262	1.463362
0.218359	1.468040
0.218457	1.463188
0.218555	1.443273
0.218652	1.430905
0.218750	1.419610
0.218848	1.410298
0.218945	1.400290
0.219043	1.390454
0.219141	1.381130
0.219238	1.395028
0.219336	1.406212
0.219434	1.400558
0.219531	1.391338
0.219629	1.375402
0.219727	1.369082
0.219824	1.372667
0.219922	1.382591
0.220020	1.427356
0.220117	1.466011
0.220215	1.453038
0.220312	1.447520
0.220410	1.441292
0.220508	1.451202
0.220605	1.469674
0.220703	1.460269
0.220801	1.463451
0.220898	1.477854
0.220996	1.475586
0.221094	1.464188
0.221191	1.455677
0.221289	1.446006
0.221387	1.433587
0.221484	1.429026
0.221582	1.427886
0.221680	1.418660
0.221777	1.422936
0.221875	1.420530
0.221973	1.404890
0.222070	1.388241
0.222168	1.386577
0.222266	1.384792
0.222363	1.384655
0.222461	1.385863
0.222559	1.410356
0.222656	1.420876
0.222754	1.403183
0.222852	1.380645
0.222949	1.350251
0.223047	1.327092
0.223145	1.320116
0.223242	1.325145
0.223340	1.340163
0.223437	1.354239
0.223535	1.353969
0.223633	1.357848
0.223730	1.411336
0.223828	1.479279
0.223926	1.499891
0.224023	1.477673
0.224121	1.445718
0.224219	1.413941
0.224316	1.385481
0.224414	1.357642
0.224512	1.340906
0.224609	1.358655
0.224707	1.383162
0.224805	1.401211
0.224902	1.472809
0.225000	1.513597
0.225098	1.520752
0.225195	1.527189
0.225293	1.535491
0.225391	1.562494
0.225488	1.593439
0.225586	1.597114
0.225684	1.584824
0.225781	1.569054
0.225879	1.586203
0.225977	1.586847
0.226074	1.592167
0.226172	1.569755
0.226270	1.532594
0.226367	1.507343
0.226465	1.536844
0.226562	1.579903
0.226660	1.592621
0.226758	1.596423
0.226855	1.586541
0.226953	1.575405
0.227051	1.557012
0.227148	1.539360
0.227246	1.515495
0.227344	1.506574
0.227441	1.500706
0.227539	1.494720
0.227637	1.508858
0.227734	1.536916
0.227832	1.542908
0.227930	1.528718
0.228027	1.511357
0.228125	1.525902
0.228223	1.537745
0.228320	1.545672
0.228418	1.533393
0.228516	1.512397
0.228613	1.507893
0.228711	1.471792
0.228809	1.442348
0.228906	1.458384
0.229004	1.505028
0.229102	1.522188
0.229199	1.512358
0.229297	1.508244
0.229395	1.518611
0.229492	1.500814
0.229590	1.504333
0.229687	1.498295
0.229785	1.482161
0.229883	1.451144
0.229980	1.419469
0.230078	1.403366
0.230176	1.416379
0.230273	1.443821
0.230371	1.448822
0.230469	1.446436
0.230566	1.456024
0.230664	1.471486
0.230762	1.488996
0.230859	1.508339
0.230957	1.485252
0.231055	1.481085
0.231152	1.489114
0.231250	1.508994
0.231348	1.517949
0.231445	1.510570
0.231543	1.503865
0.231641	1.508362
0.231738	1.520658
0.231836	1.506706
0.231934	1.492014
0.232031	1.498926
0.232129	1.526900
0.232227	1.545457
0.232324	1.544819
0.232422	1.512945
0.232520	1.470892
0.232617	1.476725
0.232715	1.495037
0.232812	1.532615
0.232910	1.558139
0.233008	1.577019
0.233105	1.567292
0.233203	1.517670
0.233301	1.490441
0.233398	1.493555
0.233496	1.500276
0.233594	1.503666
0.233691	1.497559
0.233789	1.487727
0.233887	1.458277
0.233984	1.436147
0.234082	1.418324
0.234180	1.411276
0.234277	1.418237
0.234375	1.412964
0.234473	1.395473
0.234570	1.383076
0.234668	1.376526
0.234766	1.398196
0.234863	1.432532
0.234961	1.469986
0.235059	1.478689
0.235156	1.493459
0.235254	1.510034
0.235352	1.517972
0.235449	1.526705
0.235547	1.517817
0.235645	1.516159
0.235742	1.508761
0.235840	1.469200
0.235937	1.465067
0.236035	1.505964
0.236133	1.528806
0.236230	1.546184
0.236328	1.544206
0.236426	1.529575
0.236523	1.499209
0.236621	1.488791
0.236719	1.479325
0.236816	1.447444
0.236914	1.441563
0.237012	1.423561
0.237109	1.407706
0.237207	1.384966
0.237305	1.360310
0.237402	1.335695
0.237500	1.328634
0.237598	1.319948
0.237695	1.308830
0.237793	1.339368
0.237891	1.385260
0.237988	1.417141
0.238086	1.435959
0.238184	1.444533
0.238281	1.462551
0.238379	1.492765
0.238477	1.484948
0.238574	1.454270
0.238672	1.441387
0.238770	1.432131
0.238867	1.445347
0.238965	1.477673
0.239062	1.526754
0.239160	1.575914
0.239258	1.593798
0.239355	1.576256
0.239453	1.568688
0.239551	1.540105
0.239648	1.537232
0.239746	1.528656
0.239844	1.514239
0.239941	1.519280
0.240039	1.540173
0.240137	1.523963
0.240234	1.499920
0.240332	1.482283
0.240430	1.478820
0.240527	1.450563
0.240625	1.453851
0.240723	1.485727
0.240820	1.496591
0.240918	1.537663
0.241016	1.523681
0.241113	1.504051
0.241211	1.525370
0.241309	1.539690
0.241406	1.511973
0.241504	1.497293
0.241602	1.530788
0.241699	1.544280
0.241797	1.519005
0.241895	1.490409
0.241992	1.520944
0.242090	1.523968
0.242187	1.486801
0.242285	1.443052
0.242383	1.416434
0.242480	1.414989
0.242578	1.377734
0.242676	1.359597
0.242773	1.317077
0.242871	1.293274
0.242969	1.282826
0.243066	1.276629
0.243164	1.282162
0.243262	1.289602
0.243359	1.281578
0.243457	1.286253
0.243555	1.309004
0.243652	1.316037
0.243750	1.306525
0.243848	1.324163
0.243945	1.349375
0.244043	1.364105
0.244141	1.360783
0.244238	1.343213
0.244336	1.320778
0.244434	1.298161
0.244531	1.280811
0.244629	1.270329
0.244727	1.267039
0.244824	1.267596
0.244922	1.263628
0.245020	1.261211
0.245117	1.274786
0.245215	1.286787
0.245312	1.246785
0.245410	1.270267
0.245508	1.335485
0.245605	1.362694
0.245703	1.420479
0.245801	1.473917
0.245898	1.534795
0.245996	1.564350
0.246094	1.557848
0.246191	1.561779
0.246289	1.520120
0.246387	1.497411
0.246484	1.474175
0.246582	1.443905
0.246680	1.428300
0.246777	1.428321
0.246875	1.440404
0.246973	1.441072
0.247070	1.424195
0.247168	1.402166
0.247266	1.406133
0.247363	1.410676
0.247461	1.391838
0.247559	1.400812
0.247656	1.461407
0.247754	1.499082
0.247852	1.501694
0.247949	1.500322
0.248047	1.516691
0.248145	1.554759
0.248242	1.559540
0.248340	1.580920
0.248437	1.575910
0.248535	1.563780
0.248633	1.534094
0.248730	1.524315
0.248828	1.535886
0.248926	1.542212
0.249023	1.558997
0.249121	1.562957
0.249219	1.548460
0.249316	1.544853
0.249414	1.498426
0.249512	1.494109
0.249609	1.527583
0.249707	1.509017
0.249805	1.544561
0.249902	1.584346
0.250000	1.626163
0.250098	1.652882
0.250195	1.671450
0.250293	1.675631
0.250391	1.650943
0.250488	1.660884
0.250586	1.627103
0.250684	1.604552
0.250781	1.631170
0.250879	1.626515
0.250977	1.603510
0.251074	1.581335
0.251172	1.583128
0.251270	1.613390
0.251367	1.628921
0.251465	1.633759
0.251562	1.623311
0.251660	1.606997
0.251758	1.589188
0.251855	1.572431
0.251953	1.566411
0.252051	1.574440
0.252148	1.564044
0.252246	1.567034
0.252344	1.566791
0.252441	1.557888
0.252539	1.600631
0.252637	1.596823
0.252734	1.600727
0.252832	1.609729
0.252930	1.591807
0.253027	1.578090
0.253125	1.568158
0.253223	1.574387
0.253320	1.596086
0.253418	1.582254
0.253516	1.592437
0.253613	1.632777
0.253711	1.630934
0.253809	1.645034
0.253906	1.623278
0.254004	1.613651
0.254102	1.623732
0.254199	1.620004
0.254297	1.624417
0.254395	1.616337
0.254492	1.626240
0.254590	1.646889
0.254687	1.637217
0.254785	1.642505
0.254883	1.636578
0.254980	1.629679
0.255078	1.626964
0.255176	1.623046
0.255273	1.623412
0.255371	1.613573
0.255469	1.596881
0.255566	1.559825
0.255664	1.539981
0.255762	1.590063
0.255859	1.611448
0.255957	1.598336
0.256055	1.597415
0.256152	1.598989
0.256250	1.593079
0.256348	1.569437
0.256445	1.537696
0.256543	1.544765
0.256641	1.544637
0.256738	1.528411
0.256836	1.515003
0.256934	1.515988
0.257031	1.517746
0.257129	1.516312
0.257227	1.482241
0.257324	1.475227
0.257422	1.469861
0.257520	1.455097
0.257617	1.475051
0.257715	1.447939
0.257812	1.408238
0.257910	1.379167
0.258008	1.364788
0.258105	1.388984
0.258203	1.493245
0.258301	1.502299
0.258398	1.477154
0.258496	1.475285
0.258594	1.477382
0.258691	1.458326
0.258789	1.413695
0.258887	1.372955
0.258984	1.353043
0.259082	1.353829
0.259180	1.339118
0.259277	1.314402
0.259375	1.297180
0.259473	1.291659
0.259570	1.309047
0.259668	1.348831
0.259766	1.395938
0.259863	1.430365
0.259961	1.454079
0.260059	1.449407
0.260156	1.422062
0.260254	1.400453
0.260352	1.377630
0.260449	1.352009
0.260547	1.351256
0.260645	1.399398
0.260742	1.473667
0.260840	1.515236
0.260937	1.523469
0.261035	1.504106
0.261133	1.494377
0.261230	1.473816
0.261328	1.441524
0.261426	1.396003
0.261523	1.370739
0.261621	1.380525
0.261719	1.431718
0.261816	1.443316
0.261914	1.433741
0.262012	1.434733
0.262109	1.424176
0.262207	1.395611
0.262305	1.364240
0.262402	1.341052
0.262500	1.340612
0.262598	1.358490
0.262695	1.372102
0.262793	1.379076
0.262891	1.387852
0.262988	1.387992
0.263086	1.390021
0.263184	1.390209
0.263281	1.384364
0.263379	1.381616
0.263477	1.376352
0.263574	1.391963
0.263672	1.417853
0.263770	1.406651
0.263867	1.344137
0.263965	1.288522
0.264062	1.289422
0.264160	1.320874
0.264258	1.361541
0.264355	1.373761
0.264453	1.341545
0.264551	1.307898
0.264648	1.294862
0.264746	1.325426
0.264844	1.398421
0.264941	1.417398
0.265039	1.412166
0.265137	1.415575
0.265234	1.426092
0.265332	1.446242
0.265430	1.469673
0.265527	1.488193
0.265625	1.495881
0.265723	1.499026
0.265820	1.508158
0.265918	1.517861
0.266016	1.521673
0.266113	1.512240
0.266211	1.493205
0.266309	1.476456
0.266406	1.443979
0.266504	1.453646
0.266602	1.499020
0.266699	1.521923
0.266797	1.524755
0.266895	1.503183
0.266992	1.447605
0.267090	1.395021
0.267187	1.447651
0.267285	1.479822
0.267383	1.484347
0.267480	1.483711
0.267578	1.453917
0.267676	1.481629
0.267773	1.487271
0.267871	1.490790
0.267969	1.495637
0.268066	1.479825
0.268164	1.467530
0.268262	1.490841
0.268359	1.507182
0.268457	1.524858
0.268555	1.509225
0.268652	1.460003
0.268750	1.380573
0.268848	1.320314
0.268945	1.318177
0.269043	1.363427
0.269141	1.368734
0.269238	1.370264
0.269336	1.371413
0.269434	1.382670
0.269531	1.401336
0.269629	1.450162
0.269727	1.500094
0.269824	1.520766
0.269922	1.544106
0.270020	1.568836
0.270117	1.577353
0.270215	1.602864
0.270312	1.628100
0.270410	1.625655
0.270508	1.617643
0.270605	1.632785
0.270703	1.656005
0.270801	1.653129
0.270898	1.611777
0.270996	1.586417
0.271094	1.615763
0.271191	1.667787
0.271289	1.676583
0.271387	1.677418
0.271484	1.645182
0.271582	1.608534
0.271680	1.618383
0.271777	1.620997
0.271875	1.613352
0.271973	1.629428
0.272070	1.625612
0.272168	1.605237
0.272266	1.596168
0.272363	1.608350
0.272461	1.587331
0.272559	1.583175
0.272656	1.575803
0.272754	1.595249
0.272852	1.589438
0.272949	1.560245
0.273047	1.535308
0.273145	1.519243
0.273242	1.504690
0.273340	1.545232
0.273437	1.564332
0.273535	1.561136
0.273633	1.555049
0.273730	1.540042
0.273828	1.516877
0.273926	1.469069
0.274023	1.447330
0.274121	1.447327
0.274219	1.444652
0.274316	1.435119
0.274414	1.480082
0.274512	1.547007
0.274609	1.513713
0.274707	1.467532
0.274805	1.443260
0.274902	1.482513
0.275000	1.574262
0.275098	1.568000
0.275195	1.550706
0.275293	1.540785
0.275391	1.537039
0.275488	1.576506
0.275586	1.574784
0.275684	1.543502
0.275781	1.505946
0.275879	1.525573
0.275977	1.545156
0.276074	1.548195
0.276172	1.528092
0.276270	1.506116
0.276367	1.518407
0.276465	1.573245
0.276562	1.527981
0.276660	1.504076
0.276758	1.515516
0.276855	1.513283
0.276953	1.524913
0.277051	1.492922
0.277148	1.452722
0.277246	1.458437
0.277344	1.499090
0.277441	1.468004
0.277539	1.447328
0.277637	1.464570
0.277734	1.492697
0.277832	1.450704
0.277930	1.415367
0.278027	1.484494
0.278125	1.534074
0.278223	1.543537
0.278320	1.512956
0.278418	1.496600
0.278516	1.504368
0.278613	1.531694
0.278711	1.543373
0.278809	1.542040
0.278906	1.495178
0.279004	1.484850
0.279102	1.479123
0.279199	1.481548
0.279297	1.477967
0.279395	1.461281
0.279492	1.462887
0.279590	1.469152
0.279687	1.462972
0.279785	1.476668
0.279883	1.487648
0.279980	1.475408
0.280078	1.426861
0.280176	1.417958
0.280273	1.469857
0.280371	1.520968
0.280469	1.484376
0.280566	1.579914
0.280664	1.621777
0.280762	1.591647
0.280859	1.578793
0.280957	1.559607
0.281055	1.556843
0.281152	1.522385
0.281250	1.513056
0.281348	1.519510
0.281445	1.520472
0.281543	1.525375
0.281641	1.525372
0.281738	1.536028
0.281836	1.519026
0.281934	1.493122
0.282031	1.487747
0.282129	1.493820
0.282227	1.522145
0.282324	1.541645
0.282422	1.525834
0.282520	1.541556
0.282617	1.547466
0.282715	1.552810
0.282812	1.573780
0.282910	1.602889
0.283008	1.626259
0.283105	1.620568
0.283203	1.616054
0.283301	1.615425
0.283398	1.626010
0.283496	1.625129
0.283594	1.595240
0.283691	1.583884
0.283789	1.568383
0.283887	1.560105
0.283984	1.565927
0.284082	1.567166
0.284180	1.571956
0.284277	1.568552
0.284375	1.573713
0.284473	1.564537
0.284570	1.529360
0.284668	1.503426
0.284766	1.495284
0.284863	1.499065
0.284961	1.502123
0.285059	1.494605
0.285156	1.480696
0.285254	1.485461
0.285352	1.486153
0.285449	1.481289
0.285547	1.485138
0.285645	1.483502
0.285742	1.477427
0.285840	1.449505
0.285937	1.437930
0.286035	1.487434
0.286133	1.483272
0.286230	1.488832
0.286328	1.506934
0.286426	1.495758
0.286523	1.478954
0.286621	1.459609
0.286719	1.466422
0.286816	1.486492
0.286914	1.499692
0.287012	1.505837
0.287109	1.496060
0.287207	1.495475
0.287305	1.463558
0.287402	1.496118
0.287500	1.526439
0.287598	1.520494
0.287695	1.511337
0.287793	1.482841
0.287891	1.463405
0.287988	1.492021
0.288086	1.517582
0.288184	1.510345
0.288281	1.480916
0.288379	1.451221
0.288477	1.440865
0.288574	1.475498
0.288672	1.500195
0.288770	1.498588
0.288867	1.527859
0.288965	1.558136
0.289062	1.553604
0.289160	1.532625
0.289258	1.540490
0.289355	1.551556
0.289453	1.558696
0.289551	1.559684
0.289648	1.553503
0.289746	1.540318
0.289844	1.522209
0.289941	1.508334
0.290039	1.505453
0.290137	1.531021
0.290234	1.559888
0.290332	1.566980
0.290430	1.559117
0.290527	1.553556
0.290625	1.551463
0.290723	1.554726
0.290820	1.555769
0.290918	1.551105
0.291016	1.558953
0.291113	1.558743
0.291211	1.553926
0.291309	1.564229
0.291406	1.578161
0.291504	1.573440
0.291602	1.554424
0.291699	1.524061
0.291797	1.534513
0.291895	1.554326
0.291992	1.538549
0.292090	1.518485
0.292187	1.505413
0.292285	1.505413
0.292383	1.510451
0.292480	1.507712
0.292578	1.513703
0.292676	1.499461
0.292773	1.485949
0.292871	1.504613
0.292969	1.543137
0.293066	1.554866
0.293164	1.529517
0.293262	1.510630
0.293359	1.484603
0.293457	1.462419
0.293555	1.454644
0.293652	1.461424
0.293750	1.443694
0.293848	1.453923
0.293945	1.475333
0.294043	1.453209
0.294141	1.476272
0.294238	1.525904
0.294336	1.550150
0.294434	1.534479
0.294531	1.588358
0.294629	1.642551
0.294727	1.592182
0.294824	1.550683
0.294922	1.533332
0.295020	1.554703
0.295117	1.570745
0.295215	1.572444
0.295312	1.561493
0.295410	1.576422
0.295508	1.596317
0.295605	1.605690
0.295703	1.614384
0.295801	1.606643
0.295898	1.602244
0.295996	1.604640
0.296094	1.598125
0.296191	1.592265
0.296289	1.588505
0.296387	1.598903
0.296484	1.592256
0.296582	1.585121
0.296680	1.570198
0.296777	1.580966
0.296875	1.578327
0.296973	1.521399
0.297070	1.453193
0.297168	1.441708
0.297266	1.524916
0.297363	1.558777
0.297461	1.609953
0.297559	1.625189
0.297656	1.639332
0.297754	1.636452
0.297852	1.585682
0.297949	1.575523
0.298047	1.560810
0.298145	1.592118
0.298242	1.624397
0.298340	1.604159
0.298437	1.586180
0.298535	1.582672
0.298633	1.583414
0.298730	1.561138
0.298828	1.555867
0.298926	1.569217
0.299023	1.569918
0.299121	1.578124
0.299219	1.575559
0.299316	1.600095
0.299414	1.596417
0.299512	1.585146
0.299609	1.581299
0.299707	1.582097
0.299805	1.590516
0.299902	1.573891
0.300000	1.577763
0.300098	1.571764
0.300195	1.572423
0.300293	1.583357
0.300391	1.577148
0.300488	1.583377
0.300586	1.586954
0.300684	1.564072
0.300781	1.553961
0.300879	1.542087
0.300977	1.558211
0.301074	1.566530
0.301172	1.571173
0.301270	1.568738
0.301367	1.562575
0.301465	1.568673
0.301562	1.574708
0.301660	1.563203
0.301758	1.550984
0.301855	1.523843
0.301953	1.501924
0.302051	1.484729
0.302148	1.461564
0.302246	1.436379
0.302344	1.417529
0.302441	1.446026
0.302539	1.487358
0.302637	1.488132
0.302734	1.477743
0.302832	1.453240
0.302930	1.426421
0.303027	1.416391
0.303125	1.419339
0.303223	1.430835
0.303320	1.441034
0.303418	1.426169
0.303516	1.427289
0.303613	1.456186
0.303711	1.474817
0.303809	1.476275
0.303906	1.500444
0.304004	1.515281
0.304102	1.505374
0.304199	1.495271
0.304297	1.485874
0.304395	1.474356
0.304492	1.454478
0.304590	1.419289
0.304687	1.390782
0.304785	1.408526
0.304883	1.432771
0.304980	1.451755
0.305078	1.464264
0.305176	1.452982
0.305273	1.443772
0.305371	1.432401
0.305469	1.415589
0.305566	1.440177
0.305664	1.486687
0.305762	1.508785
0.305859	1.504072
0.305957	1.472959
0.306055	1.428951
0.306152	1.399419
0.306250	1.389463
0.306348	1.423840
0.306445	1.479557
0.306543	1.498129
0.306641	1.502954
0.306738	1.559787
0.306836	1.591350
0.306934	1.556575
0.307031	1.540885
0.307129	1.543748
0.307227	1.560423
0.307324	1.569252
0.307422	1.597840
0.307520	1.601352
0.307617	1.594947
0.307715	1.594833
0.307812	1.595118
0.307910	1.600602
0.308008	1.611966
0.308105	1.626457
0.308203	1.628361
0.308301	1.629444
0.308398	1.623581
0.308496	1.607203
0.308594	1.596509
0.308691	1.616113
0.308789	1.611643
0.308887	1.613221
0.308984	1.615267
0.309082	1.619252
0.309180	1.622335
0.309277	1.625732
0.309375	1.625906
0.309473	1.627248
0.309570	1.630573
0.309668	1.637466
0.309766	1.643874
0.309863	1.637425
0.309961	1.627962
0.310059	1.624106
0.310156	1.626229
0.310254	1.620800
0.310352	1.627030
0.310449	1.622447
0.310547	1.615752
0.310645	1.629454
0.310742	1.640366
0.310840	1.630354
0.310937	1.621076
0.311035	1.627610
0.311133	1.634808
0.311230	1.656100
0.311328	1.652428
0.311426	1.636434
0.311523	1.631968
0.311621	1.635674
0.311719	1.622149
0.311816	1.618905
0.311914	1.604571
0.312012	1.605720
0.312109	1.616706
0.312207	1.604346
0.312305	1.622718
0.312402	1.599455
0.312500	1.581310
0.312598	1.574598
0.312695	1.581333
0.312793	1.596484
0.312891	1.550750
0.312988	1.538751
0.313086	1.528920
0.313184	1.538659
0.313281	1.547021
0.313379	1.541227
0.313477	1.551429
0.313574	1.546747
0.313672	1.551656
0.313770	1.550741
0.313867	1.527322
0.313965	1.543010
0.314062	1.534376
0.314160	1.513236
0.314258	1.511535
0.314355	1.506060
0.314453	1.504285
0.314551	1.494301
0.314648	1.542229
0.314746	1.578454
0.314844	1.615716
0.314941	1.616700
0.315039	1.595889
0.315137	1.564549
0.315234	1.561220
0.315332	1.558722
0.315430	1.567979
0.315527	1.565787
0.315625	1.549007
0.315723	1.582017
0.315820	1.592071
0.315918	1.585682
0.316016	1.585806
0.316113	1.578035
0.316211	1.581230
0.316309	1.619299
0.316406	1.616513
0.316504	1.596463
0.316602	1.593555
0.316699	1.582520
0.316797	1.565733
0.316895	1.588311
0.316992	1.595503
0.317090	1.583220
0.317187	1.557763
0.317285	1.548903
0.317383	1.552782
0.317480	1.546243
0.317578	1.536012
0.317676	1.498304
0.317773	1.449489
0.317871	1.417339
0.317969	1.415195
0.318066	1.405585
0.318164	1.372789
0.318262	1.389598
0.318359	1.442899
0.318457	1.469910
0.318555	1.481357
0.318652	1.490677
0.318750	1.472883
0.318848	1.448157
0.318945	1.416358
0.319043	1.374500
0.319141	1.328531
0.319238	1.400683
0.319336	1.444065
0.319434	1.459706
0.319531	1.512560
0.319629	1.520893
0.319727	1.531312
0.319824	1.524697
0.319922	1.535114
0.320020	1.564611
0.320117	1.547458
0.320215	1.496283
0.320312	1.480240
0.320410	1.455130
0.320508	1.450520
0.320605	1.473740
0.320703	1.495360
0.320801	1.493007
0.320898	1.478556
0.320996	1.468242
0.321094	1.465589
0.321191	1.460136
0.321289	1.461971
0.321387	1.468494
0.321484	1.487743
0.321582	1.486958
0.321680	1.494524
0.321777	1.496186
0.321875	1.477319
0.321973	1.499671
0.322070	1.508349
0.322168	1.497184
0.322266	1.494207
0.322363	1.501478
0.322461	1.542181
0.322559	1.567322
0.322656	1.575529
0.322754	1.558453
0.322852	1.558250
0.322949	1.548491
0.323047	1.532092
0.323145	1.557558
0.323242	1.568152
0.323340	1.551168
0.323437	1.523977
0.323535	1.498472
0.323633	1.499185
0.323730	1.517718
0.323828	1.538894
0.323926	1.511714
0.324023	1.494863
0.324121	1.478993
0.324219	1.503468
0.324316	1.512128
0.324414	1.529887
0.324512	1.548592
0.324609	1.547513
0.324707	1.525231
0.324805	1.491732
0.324902	1.484018
0.325000	1.492478
0.325098	1.497894
0.325195	1.472704
0.325293	1.440808
0.325391	1.424089
0.325488	1.426625
0.325586	1.415558
0.325684	1.396742
0.325781	1.384586
0.325879	1.382254
0.325977	1.383645
0.326074	1.358366
0.326172	1.310947
0.326270	1.269876
0.326367	1.270694
0.326465	1.328899
0.326562	1.372491
0.326660	1.380864
0.326758	1.370001
0.326855	1.352792
0.326953	1.335854
0.327051	1.320896
0.327148	1.308658
0.327246	1.299444
0.327344	1.295414
0.327441	1.298855
0.327539	1.312896
0.327637	1.335116
0.327734	1.350408
0.327832	1.353391
0.327930	1.352749
0.328027	1.327448
0.328125	1.299060
0.328223	1.308070
0.328320	1.332955
0.328418	1.349331
0.328516	1.352605
0.328613	1.344902
0.328711	1.336598
0.328809	1.325310
0.328906	1.361303
0.329004	1.409811
0.329102	1.443162
0.329199	1.455763
0.329297	1.475366
0.329395	1.506080
0.329492	1.539027
0.329590	1.546891
0.329687	1.545307
0.329785	1.533927
0.329883	1.530190
0.329980	1.510161
0.330078	1.468400
0.330176	1.437379
0.330273	1.419845
0.330371	1.421490
0.330469	1.425490
0.330566	1.437931
0.330664	1.382545
0.330762	1.471426
0.330859	1.530201
0.330957	1.495561
0.331055	1.485236
0.331152	1.464706
0.331250	1.441741
0.331348	1.422330
0.331445	1.420860
0.331543	1.457181
0.331641	1.458554
0.331738	1.439673
0.331836	1.415592
0.331934	1.409702
0.332031	1.412755
0.332129	1.414370
0.332227	1.429007
0.332324	1.430112
0.332422	1.428791
0.332520	1.425585
0.332617	1.413567
0.332715	1.399240
0.332812	1.401921
0.332910	1.417321
0.333008	1.419627
0.333105	1.412081
0.333203	1.418904
0.333301	1.433379
0.333398	1.449001
0.333496	1.451811
0.333594	1.453674
0.333691	1.451656
0.333789	1.441859
0.333887	1.422837
0.333984	1.398773
0.334082	1.372096
0.334180	1.349969
0.334277	1.341013
0.334375	1.348158
0.334473	1.356937
0.334570	1.356733
0.334668	1.355008
0.334766	1.348872
0.334863	1.327778
0.334961	1.278883
0.335059	1.251079
0.335156	1.242890
0.335254	1.260457
0.335352	1.318799
0.335449	1.390196
0.335547	1.423594
0.335645	1.425650
0.335742	1.417419
0.335840	1.432232
0.335937	1.467926
0.336035	1.501332
0.336133	1.513075
0.336230	1.516087
0.336328	1.526042
0.336426	1.528327
0.336523	1.525550
0.336621	1.500417
0.336719	1.478880
0.336816	1.471469
0.336914	1.445300
0.337012	1.456225
0.337109	1.461266
0.337207	1.448650
0.337305	1.427358
0.337402	1.407715
0.337500	1.394626
0.337598	1.396069
0.337695	1.404132
0.337793	1.415398
0.337891	1.447996
0.337988	1.456225
0.338086	1.420855
0.338184	1.417227
0.338281	1.469351
0.338379	1.523553
0.338477	1.542226
0.338574	1.543237
0.338672	1.542479
0.338770	1.544688
0.338867	1.550439
0.338965	1.547023
0.339062	1.545238
0.339160	1.550515
0.339258	1.557452
0.339355	1.545493
0.339453	1.529430
0.339551	1.525755
0.339648	1.528562
0.339746	1.507919
0.339844	1.504504
0.339941	1.515174
0.340039	1.514484
0.340137	1.534555
0.340234	1.549249
0.340332	1.540770
0.340430	1.536114
0.340527	1.583601
0.340625	1.602158
0.340723	1.612291
0.340820	1.623868
0.340918	1.637196
0.341016	1.645242
0.341113	1.649586
0.341211	1.653087
0.341309	1.657895
0.341406	1.659518
0.341504	1.663632
0.341602	1.649057
0.341699	1.652290
0.341797	1.652410
0.341895	1.647853
0.341992	1.632446
0.342090	1.621392
0.342187	1.616299
0.342285	1.612334
0.342383	1.644129
0.342480	1.669401
0.342578	1.656730
0.342676	1.657439
0.342773	1.664741
0.342871	1.661676
0.342969	1.672839
0.343066	1.677162
0.343164	1.681617
0.343262	1.675030
0.343359	1.652942
0.343457	1.664216
0.343555	1.668421
0.343652	1.660033
0.343750	1.646167
0.343848	1.622451
0.343945	1.587282
0.344043	1.584020
0.344141	1.598478
0.344238	1.585836
0.344336	1.580236
0.344434	1.587948
0.344531	1.609426
0.344629	1.602159
0.344727	1.574605
0.344824	1.594686
0.344922	1.607083
0.345020	1.599196
0.345117	1.611381
0.345215	1.609339
0.345312	1.596059
0.345410	1.579516
0.345508	1.582761
0.345605	1.571761
0.345703	1.566170
0.345801	1.547286
0.345898	1.537288
0.345996	1.540061
0.346094	1.537198
0.346191	1.535346
0.346289	1.526191
0.346387	1.489767
0.346484	1.492885
0.346582	1.529271
0.346680	1.520092
0.346777	1.501338
0.346875	1.497914
0.346973	1.530007
0.347070	1.522101
0.347168	1.504933
0.347266	1.513352
0.347363	1.509662
0.347461	1.505752
0.347559	1.506018
0.347656	1.507317
0.347754	1.522311
0.347852	1.505598
0.347949	1.482164
0.348047	1.438989
0.348145	1.439796
0.348242	1.513222
0.348340	1.520405
0.348437	1.516350
0.348535	1.531346
0.348633	1.538148
0.348730	1.515587
0.348828	1.521511
0.348926	1.507210
0.349023	1.477147
0.349121	1.463471
0.349219	1.478143
0.349316	1.483554
0.349414	1.475657
0.349512	1.462059
0.349609	1.445761
0.349707	1.407276
0.349805	1.410704
0.349902	1.418370
0.350000	1.406605
0.350098	1.419449
0.350195	1.419568
0.350293	1.427600
0.350391	1.464182
0.350488	1.451121
0.350586	1.433419
0.350684	1.405951
0.350781	1.394721
0.350879	1.411100
0.350977	1.478491
0.351074	1.528725
0.351172	1.543562
0.351270	1.544873
0.351367	1.547203
0.351465	1.557275
0.351562	1.555271
0.351660	1.562986
0.351758	1.571199
0.351855	1.567530
0.351953	1.568326
0.352051	1.570799
0.352148	1.583240
0.352246	1.578922
0.352344	1.558228
0.352441	1.564486
0.352539	1.538708
0.352637	1.545982
0.352734	1.557567
0.352832	1.561486
0.352930	1.594161
0.353027	1.567330
0.353125	1.571999
0.353223	1.578412
0.353320	1.611420
0.353418	1.607704
0.353516	1.580879
0.353613	1.559749
0.353711	1.614478
0.353809	1.645649
0.353906	1.612202
0.354004	1.600381
0.354102	1.596075
0.354199	1.590992
0.354297	1.593849
0.354395	1.646894
0.354492	1.639903
0.354590	1.632619
0.354687	1.625580
0.354785	1.633862
0.354883	1.618736
0.354980	1.610242
0.355078	1.616271
0.355176	1.598593
0.355273	1.555082
0.355371	1.536200
0.355469	1.549606
0.355566	1.570230
0.355664	1.612872
0.355762	1.612825
0.355859	1.587289
0.355957	1.569818
0.356055	1.556655
0.356152	1.539406
0.356250	1.582992
0.356348	1.592567
0.356445	1.571698
0.356543	1.560014
0.356641	1.544018
0.356738	1.525157
0.356836	1.572217
0.356934	1.574986
0.357031	1.552444
0.357129	1.535112
0.357227	1.548004
0.357324	1.558636
0.357422	1.546266
0.357520	1.559273
0.357617	1.553881
0.357715	1.574079
0.357812	1.597324
0.357910	1.603656
0.358008	1.590781
0.358105	1.598536
0.358203	1.612811
0.358301	1.607703
0.358398	1.622682
0.358496	1.623877
0.358594	1.622010
0.358691	1.611737
0.358789	1.581014
0.358887	1.555712
0.358984	1.516891
0.359082	1.495559
0.359180	1.511441
0.359277	1.523911
0.359375	1.513863
0.359473	1.521078
0.359570	1.511148
0.359668	1.543378
0.359766	1.562477
0.359863	1.546587
0.359961	1.576199
0.360059	1.629292
0.360156	1.622251
0.360254	1.594720
0.360352	1.591772
0.360449	1.593883
0.360547	1.599569
0.360645	1.601255
0.360742	1.578782
0.360840	1.572682
0.360937	1.571260
0.361035	1.606673
0.361133	1.589758
0.361230	1.583680
0.361328	1.603302
0.361426	1.594462
0.361523	1.601140
0.361621	1.583919
0.361719	1.550134
0.361816	1.498094
0.361914	1.440037
0.362012	1.458576
0.362109	1.483658
0.362207	1.468630
0.362305	1.471444
0.362402	1.471096
0.362500	1.469203
0.362598	1.464060
0.362695	1.462921
0.362793	1.457414
0.362891	1.448976
0.362988	1.438964
0.363086	1.441024
0.363184	1.452097
0.363281	1.463608
0.363379	1.466860
0.363477	1.452759
0.363574	1.451518
0.363672	1.467033
0.363770	1.471967
0.363867	1.472591
0.363965	1.469120
0.364062	1.462838
0.364160	1.454694
0.364258	1.459827
0.364355	1.483159
0.364453	1.512691
0.364551	1.528176
0.364648	1.532380
0.364746	1.510578
0.364844	1.497743
0.364941	1.493404
0.365039	1.512388
0.365137	1.542864
0.365234	1.567281
0.365332	1.541802
0.365430	1.519525
0.365527	1.573044
0.365625	1.597110
0.365723	1.588028
0.365820	1.600766
0.365918	1.615631
0.366016	1.610142
0.366113	1.609328
0.366211	1.598266
0.366309	1.617746
0.366406	1.609074
0.366504	1.604661
0.366602	1.607854
0.366699	1.608442
0.366797	1.609238
0.366895	1.607960
0.366992	1.606629
0.367090	1.605797
0.367187	1.609665
0.367285	1.604002
0.367383	1.595125
0.367480	1.586161
0.367578	1.582302
0.367676	1.584183
0.367773	1.586915
0.367871	1.590658
0.367969	1.597954
0.368066	1.605063
0.368164	1.597929
0.368262	1.592989
0.368359	1.592455
0.368457	1.601744
0.368555	1.607561
0.368652	1.597210
0.368750	1.577824
0.368848	1.570939
0.368945	1.575601
0.369043	1.560926
0.369141	1.581877
0.369238	1.584454
0.369336	1.555364
0.369434	1.553316
0.369531	1.551324
0.369629	1.563761
0.369727	1.564274
0.369824	1.569566
0.369922	1.563725
0.370020	1.545116
0.370117	1.548521
0.370215	1.556663
0.370312	1.546741
0.370410	1.527189
0.370508	1.524857
0.370605	1.536848
0.370703	1.555453
0.370801	1.575158
0.370898	1.601705
0.370996	1.648284
0.371094	1.661702
0.371191	1.652607
0.371289	1.649684
0.371387	1.637836
0.371484	1.632632
0.371582	1.627386
0.371680	1.624710
0.371777	1.623222
0.371875	1.623499
0.371973	1.614217
0.372070	1.595726
0.372168	1.573218
0.372266	1.592128
0.372363	1.598421
0.372461	1.597618
0.372559	1.607283
0.372656	1.587146
0.372754	1.573429
0.372852	1.545470
0.372949	1.552449
0.373047	1.538559
0.373145	1.531985
0.373242	1.554937
0.373340	1.550213
0.373437	1.514202
0.373535	1.482775
0.373633	1.488911
0.373730	1.519460
0.373828	1.558900
0.373926	1.574641
0.374023	1.572614
0.374121	1.552363
0.374219	1.542444
0.374316	1.531591
0.374414	1.530385
0.374512	1.548312
0.374609	1.558985
0.374707	1.568644
0.374805	1.579480
0.374902	1.589554
0.375000	1.601096
0.375098	1.610679
0.375195	1.589625
0.375293	1.571601
0.375391	1.569190
0.375488	1.576167
0.375586	1.570315
0.375684	1.579168
0.375781	1.595983
0.375879	1.586888
0.375977	1.580227
0.376074	1.576979
0.376172	1.573331
0.376270	1.584264
0.376367	1.605641
0.376465	1.615602
0.376562	1.619930
0.376660	1.621637
0.376758	1.615649
0.376855	1.621086
0.376953	1.621118
0.377051	1.618251
0.377148	1.604012
0.377246	1.599358
0.377344	1.585376
0.377441	1.580134
0.377539	1.575881
0.377637	1.575612
0.377734	1.573206
0.377832	1.590136
0.377930	1.609131
0.378027	1.611483
0.378125	1.601117
0.378223	1.609902
0.378320	1.611186
0.378418	1.627878
0.378516	1.626444
0.378613	1.598568
0.378711	1.577448
0.378809	1.573636
0.378906	1.578985
0.379004	1.565192
0.379102	1.548512
0.379199	1.566684
0.379297	1.561798
0.379395	1.528127
0.379492	1.514747
0.379590	1.506782
0.379687	1.494762
0.379785	1.568168
0.379883	1.593158
0.379980	1.589585
0.380078	1.605027
0.380176	1.614724
0.380273	1.605146
0.380371	1.601425
0.380469	1.584370
0.380566	1.600894
0.380664	1.637684
0.380762	1.636699
0.380859	1.646759
0.380957	1.655035
0.381055	1.654397
0.381152	1.660584
0.381250	1.661772
0.381348	1.668385
0.381445	1.683162
0.381543	1.682233
0.381641	1.666500
0.381738	1.646593
0.381836	1.626040
0.381934	1.629620
0.382031	1.639769
0.382129	1.646292
0.382227	1.627564
0.382324	1.634784
0.382422	1.629603
0.382520	1.629894
0.382617	1.630020
0.382715	1.633166
0.382812	1.636117
0.382910	1.627914
0.383008	1.628320
0.383105	1.638515
0.383203	1.637240
0.383301	1.638720
0.383398	1.640765
0.383496	1.645009
0.383594	1.644894
0.383691	1.648637
0.383789	1.652600
0.383887	1.660850
0.383984	1.666303
0.384082	1.665891
0.384180	1.646232
0.384277	1.657766
0.384375	1.657528
0.384473	1.658870
0.384570	1.659446
0.384668	1.652305
0.384766	1.673859
0.384863	1.673147
0.384961	1.677247
0.385059	1.665148
0.385156	1.598676
0.385254	1.612795
0.385352	1.633607
0.385449	1.616863
0.385547	1.613834
0.385645	1.613162
0.385742	1.651409
0.385840	1.646014
0.385937	1.635193
0.386035	1.655236
0.386133	1.670201
0.386230	1.680393
0.386328	1.669184
0.386426	1.660811
0.386523	1.646045
0.386621	1.636382
0.386719	1.638325
0.386816	1.627751
0.386914	1.642956
0.387012	1.644780
0.387109	1.633610
0.387207	1.637622
0.387305	1.627569
0.387402	1.611013
0.387500	1.605034
0.387598	1.594775
0.387695	1.594399
0.387793	1.601515
0.387891	1.584837
0.387988	1.556896
0.388086	1.556488
0.388184	1.597821
0.388281	1.581761
0.388379	1.584374
0.388477	1.578204
0.388574	1.562496
0.388672	1.575646
0.388770	1.587107
0.388867	1.612165
0.388965	1.615661
0.389062	1.623750
0.389160	1.597789
0.389258	1.571574
0.389355	1.548123
0.389453	1.553423
0.389551	1.574383
0.389648	1.545889
0.389746	1.573632
0.389844	1.612197
0.389941	1.607480
0.390039	1.622430
0.390137	1.623799
0.390234	1.611497
0.390332	1.602355
0.390430	1.590746
0.390527	1.589090
0.390625	1.572173
0.390723	1.568135
0.390820	1.587015
0.390918	1.557059
0.391016	1.564613
0.391113	1.567204
0.391211	1.570312
0.391309	1.556580
0.391406	1.558650
0.391504	1.593812
0.391602	1.607098
0.391699	1.578580
0.391797	1.603872
0.391895	1.596732
0.391992	1.578542
0.392090	1.585729
0.392187	1.615045
0.392285	1.614843
0.392383	1.588832
0.392480	1.593501
0.392578	1.580886
0.392676	1.574138
0.392773	1.574010
0.392871	1.556857
0.392969	1.525423
0.393066	1.520641
0.393164	1.509947
0.393262	1.476531
0.393359	1.453018
0.393457	1.453832
0.393555	1.464505
0.393652	1.465706
0.393750	1.451605
0.393848	1.454754
0.393945	1.473941
0.394043	1.503971
0.394141	1.514861
0.394238	1.504422
0.394336	1.494049
0.394434	1.496368
0.394531	1.483928
0.394629	1.469640
0.394727	1.469018
0.394824	1.480042
0.394922	1.523237
0.395020	1.536031
0.395117	1.527881
0.395215	1.522462
0.395312	1.520074
0.395410	1.498170
0.395508	1.471979
0.395605	1.481164
0.395703	1.490539
0.395801	1.493431
0.395898	1.493158
0.395996	1.494488
0.396094	1.499995
0.396191	1.500599
0.396289	1.502248
0.396387	1.509700
0.396484	1.526259
0.396582	1.518446
0.396680	1.502207
0.396777	1.520696
0.396875	1.504806
0.396973	1.485516
0.397070	1.485978
0.397168	1.486386
0.397266	1.510598
0.397363	1.518062
0.397461	1.518473
0.397559	1.516349
0.397656	1.543635
0.397754	1.552430
0.397852	1.534978
0.397949	1.519803
0.398047	1.509612
0.398145	1.534154
0.398242	1.533252
0.398340	1.553373
0.398437	1.578885
0.398535	1.561854
0.398633	1.529217
0.398730	1.508197
0.398828	1.489281
0.398926	1.480533
0.399023	1.505573
0.399121	1.550191
0.399219	1.557635
0.399316	1.571940
0.399414	1.580680
0.399512	1.590900
0.399609	1.596929
0.399707	1.605419
0.399805	1.607879
0.399902	1.608740
0.400000	1.601595
0.400098	1.599442
0.400195	1.604184
0.400293	1.612808
0.400391	1.619040
0.400488	1.620719
0.400586	1.622885
0.400684	1.623121
0.400781	1.626167
0.400879	1.629392
0.400977	1.632272
0.401074	1.635222
0.401172	1.638169
0.401270	1.641469
0.401367	1.644072
0.401465	1.647044
0.401562	1.652114
0.401660	1.658782
0.401758	1.661020
0.401855	1.651179
0.401953	1.650504
0.402051	1.652089
0.402148	1.643464
0.402246	1.636512
0.402344	1.667419
0.402441	1.674255
0.402539	1.665757
0.402637	1.660773
0.402734	1.652413
0.402832	1.644726
0.402930	1.624507
0.403027	1.614906
0.403125	1.593716
0.403223	1.607037
0.403320	1.605574
0.403418	1.567878
0.403516	1.565928
0.403613	1.577247
0.403711	1.598117
0.403809	1.604209
0.403906	1.623603
0.404004	1.635674
0.404102	1.641165
0.404199	1.632978
0.404297	1.606446
0.404395	1.592181
0.404492	1.616836
0.404590	1.653303
0.404687	1.668317
0.404785	1.660599
0.404883	1.652128
0.404980	1.636547
0.405078	1.646167
0.405176	1.648442
0.405273	1.624761
0.405371	1.590660
0.405469	1.613979
0.405566	1.610922
0.405664	1.575804
0.405762	1.547863
0.405859	1.532229
0.405957	1.555627
0.406055	1.561341
0.406152	1.554013
0.406250	1.545632
0.406348	1.532536
0.406445	1.507196
0.406543	1.490525
0.406641	1.476238
0.406738	1.453547
0.406836	1.430462
0.406934	1.438484
0.407031	1.491360
0.407129	1.528495
0.407227	1.572869
0.407324	1.583234
0.407422	1.575130
0.407520	1.582049
0.407617	1.565764
0.407715	1.525287
0.407812	1.478313
0.407910	1.458485
0.408008	1.386633
0.408105	1.371167
0.408203	1.398602
0.408301	1.388949
0.408398	1.396450
0.408496	1.375732
0.408594	1.366590
0.408691	1.347830
0.408789	1.327563
0.408887	1.330887
0.408984	1.362265
0.409082	1.399612
0.409180	1.428397
0.409277	1.432815
0.409375	1.431835
0.409473	1.442175
0.409570	1.455776
0.409668	1.462639
0.409766	1.457758
0.409863	1.431369
0.409961	1.397259
0.410059	1.375825
0.410156	1.379068
0.410254	1.381557
0.410352	1.393034
0.410449	1.402074
0.410547	1.417512
0.410645	1.404642
0.410742	1.383406
0.410840	1.380586
0.410937	1.370117
0.411035	1.355708
0.411133	1.342695
0.411230	1.362713
0.411328	1.374956
0.411426	1.364598
0.411523	1.374758
0.411621	1.471094
0.411719	1.574009
0.411816	1.568559
0.411914	1.554560
0.412012	1.571948
0.412109	1.587665
0.412207	1.608636
0.412305	1.625787
0.412402	1.627965
0.412500	1.638214
0.412598	1.631889
0.412695	1.611840
0.412793	1.595118
0.412891	1.627176
0.412988	1.635880
0.413086	1.644997
0.413184	1.666580
0.413281	1.676026
0.413379	1.665831
0.413477	1.628886
0.413574	1.644061
0.413672	1.692919
0.413770	1.694894
0.413867	1.678945
0.413965	1.670961
0.414062	1.658372
0.414160	1.642830
0.414258	1.630060
0.414355	1.632187
0.414453	1.629847
0.414551	1.630691
0.414648	1.642078
0.414746	1.627937
0.414844	1.604851
0.414941	1.560948
0.415039	1.520096
0.415137	1.496503
0.415234	1.547915
0.415332	1.602639
0.415430	1.611859
0.415527	1.586263
0.415625	1.573066
0.415723	1.567641
0.415820	1.568827
0.415918	1.572961
0.416016	1.606963
0.416113	1.575793
0.416211	1.564912
0.416309	1.583707
0.416406	1.551757
0.416504	1.574711
0.416602	1.566129
0.416699	1.579680
0.416797	1.575274
0.416895	1.543683
0.416992	1.518639
0.417090	1.525380
0.417187	1.541161
0.417285	1.527362
0.417383	1.543969
0.417480	1.558166
0.417578	1.579573
0.417676	1.574840
0.417773	1.540443
0.417871	1.551032
0.417969	1.557238
0.418066	1.538779
0.418164	1.522852
0.418262	1.512972
0.418359	1.509471
0.418457	1.497761
0.418555	1.478059
0.418652	1.448826
0.418750	1.428228
0.418848	1.424576
0.418945	1.430799
0.419043	1.434617
0.419141	1.443727
0.419238	1.446100
0.419336	1.428816
0.419434	1.416804
0.419531	1.414142
0.419629	1.445641
0.419727	1.483175
0.419824	1.482120
0.419922	1.471922
0.420020	1.463865
0.420117	1.471887
0.420215	1.495212
0.420312	1.505973
0.420410	1.516942
0.420508	1.527858
0.420605	1.524779
0.420703	1.505870
0.420801	1.496743
0.420898	1.500526
0.420996	1.512867
0.421094	1.516112
0.421191	1.505492
0.421289	1.497185
0.421387	1.514221
0.421484	1.526455
0.421582	1.518712
0.421680	1.511359
0.421777	1.524737
0.421875	1.534011
0.421973	1.536019
0.422070	1.546442
0.422168	1.539110
0.422266	1.536265
0.422363	1.534704
0.422461	1.544894
0.422559	1.522806
0.422656	1.517421
0.422754	1.545869
0.422852	1.548333
0.422949	1.551650
0.423047	1.557648
0.423145	1.566909
0.423242	1.562769
0.423340	1.524764
0.423437	1.483750
0.423535	1.456218
0.423633	1.430484
0.423730	1.478218
0.423828	1.533307
0.423926	1.541556
0.424023	1.556989
0.424121	1.574659
0.424219	1.556556
0.424316	1.571012
0.424414	1.598350
0.424512	1.592467
0.424609	1.614738
0.424707	1.616697
0.424805	1.619751
0.424902	1.627695
0.425000	1.626329
0.425098	1.614295
0.425195	1.598668
0.425293	1.586924
0.425391	1.582688
0.425488	1.560625
0.425586	1.551605
0.425684	1.505609
0.425781	1.499887
0.425879	1.517934
0.425977	1.536978
0.426074	1.545064
0.426172	1.544890
0.426270	1.554367
0.426367	1.575983
0.426465	1.555341
0.426562	1.571940
0.426660	1.602738
0.426758	1.596683
0.426855	1.596119
0.426953	1.583120
0.427051	1.568957
0.427148	1.578061
0.427246	1.581336
0.427344	1.560772
0.427441	1.554205
0.427539	1.549098
0.427637	1.564599
0.427734	1.572479
0.427832	1.568888
0.427930	1.566271
0.428027	1.561696
0.428125	1.583367
0.428223	1.618891
0.428320	1.642596
0.428418	1.655763
0.428516	1.655940
0.428613	1.656402
0.428711	1.648747
0.428809	1.649595
0.428906	1.624761
0.429004	1.599999
0.429102	1.573268
0.429199	1.566486
0.429297	1.567167
0.429395	1.571221
0.429492	1.594164
0.429590	1.616216
0.429687	1.614128
0.429785	1.592010
0.429883	1.576142
0.429980	1.569104
0.430078	1.560226
0.430176	1.558212
0.430273	1.552504
0.430371	1.554792
0.430469	1.550808
0.430566	1.579890
0.430664	1.604418
0.430762	1.630570
0.430859	1.635425
0.430957	1.609644
0.431055	1.580615
0.431152	1.572443
0.431250	1.590495
0.431348	1.610629
0.431445	1.610879
0.431543	1.585706
0.431641	1.595033
0.431738	1.572042
0.431836	1.564998
0.431934	1.555791
0.432031	1.564367
0.432129	1.578104
0.432227	1.570451
0.432324	1.570718
0.432422	1.545206
0.432520	1.539989
0.432617	1.571131
0.432715	1.573517
0.432812	1.543872
0.432910	1.518919
0.433008	1.502385
0.433105	1.508260
0.433203	1.549088
0.433301	1.583184
0.433398	1.558241
0.433496	1.529282
0.433594	1.514153
0.433691	1.504939
0.433789	1.490056
0.433887	1.454632
0.433984	1.424780
0.434082	1.432903
0.434180	1.431785
0.434277	1.457753
0.434375	1.489613
0.434473	1.489057
0.434570	1.485868
0.434668	1.486617
0.434766	1.513404
0.434863	1.533459
0.434961	1.540612
0.435059	1.540433
0.435156	1.533713
0.435254	1.538534
0.435352	1.539719
0.435449	1.525468
0.435547	1.514247
0.435645	1.501143
0.435742	1.478158
0.435840	1.449402
0.435937	1.427816
0.436035	1.415428
0.436133	1.399158
0.436230	1.372928
0.436328	1.338957
0.436426	1.303857
0.436523	1.274762
0.436621	1.261178
0.436719	1.268450
0.436816	1.297100
0.436914	1.328194
0.437012	1.357831
0.437109	1.387284
0.437207	1.398736
0.437305	1.412855
0.437402	1.442828
0.437500	1.470600
0.437598	1.462387
0.437695	1.437705
0.437793	1.437064
0.437891	1.471290
0.437988	1.494903
0.438086	1.499249
0.438184	1.490082
0.438281	1.475661
0.438379	1.463690
0.438477	1.467318
0.438574	1.490090
0.438672	1.503505
0.438770	1.494126
0.438867	1.478973
0.438965	1.477566
0.439062	1.486194
0.439160	1.492771
0.439258	1.503220
0.439355	1.508727
0.439453	1.513375
0.439551	1.509894
0.439648	1.493487
0.439746	1.466586
0.439844	1.477349
0.439941	1.512115
0.440039	1.524517
0.440137	1.534935
0.440234	1.538826
0.440332	1.531793
0.440430	1.505147
0.440527	1.506852
0.440625	1.496282
0.440723	1.494095
0.440820	1.482487
0.440918	1.510424
0.441016	1.536852
0.441113	1.532482
0.441211	1.537146
0.441309	1.571579
0.441406	1.590129
0.441504	1.574032
0.441602	1.579069
0.441699	1.586110
0.441797	1.600028
0.441895	1.610759
0.441992	1.618086
0.442090	1.616761
0.442187	1.617372
0.442285	1.617191
0.442383	1.619300
0.442480	1.620016
0.442578	1.620944
0.442676	1.620019
0.442773	1.620546
0.442871	1.619021
0.442969	1.620327
0.443066	1.621542
0.443164	1.624386
0.443262	1.629461
0.443359	1.637732
0.443457	1.630261
0.443555	1.637582
0.443652	1.641791
0.443750	1.650909
0.443848	1.646145
0.443945	1.640951
0.444043	1.642453
0.444141	1.642432
0.444238	1.644838
0.444336	1.645317
0.444434	1.639779
0.444531	1.653498
0.444629	1.668880
0.444727	1.672449
0.444824	1.677352
0.444922	1.675183
0.445020	1.675806
0.445117	1.674425
0.445215	1.673588
0.445312	1.670806
0.445410	1.668855
0.445508	1.666667
0.445605	1.662801
0.445703	1.658021
0.445801	1.655220
0.445898	1.652733
0.445996	1.651113
0.446094	1.649829
0.446191	1.649578
0.446289	1.649380
0.446387	1.649923
0.446484	1.650621
0.446582	1.649552
0.446680	1.648240
0.446777	1.652498
0.446875	1.650773
0.446973	1.651053
0.447070	1.658374
0.447168	1.656274
0.447266	1.655804
0.447363	1.666174
0.447461	1.681330
0.447559	1.683578
0.447656	1.673481
0.447754	1.654777
0.447852	1.654240
0.447949	1.646958
0.448047	1.620081
0.448145	1.594161
0.448242	1.656160
0.448340	1.673227
0.448437	1.644227
0.448535	1.645552
0.448633	1.641540
0.448730	1.644951
0.448828	1.618067
0.448926	1.637435
0.449023	1.666882
0.449121	1.659294
0.449219	1.634100
0.449316	1.615691
0.449414	1.601104
0.449512	1.607843
0.449609	1.621514
0.449707	1.599455
0.449805	1.608185
0.449902	1.617840
0.450000	1.654004
0.450098	1.699567
0.450195	1.668185
0.450293	1.637196
0.450391	1.602446
0.450488	1.576812
0.450586	1.588825
0.450684	1.597551
0.450781	1.595726
0.450879	1.587995
0.450977	1.611961
0.451074	1.616549
0.451172	1.645146
0.451270	1.657025
0.451367	1.648128
0.451465	1.603559
0.451562	1.572110
0.451660	1.564483
0.451758	1.552639
0.451855	1.571314
0.451953	1.561066
0.452051	1.551578
0.452148	1.546236
0.452246	1.537309
0.452344	1.537169
0.452441	1.541210
0.452539	1.565150
0.452637	1.587600
0.452734	1.573232
0.452832	1.539722
0.452930	1.489298
0.453027	1.449777
0.453125	1.442924
0.453223	1.453204
0.453320	1.468350
0.453418	1.474683
0.453516	1.482986
0.453613	1.488466
0.453711	1.489227
0.453809	1.500204
0.453906	1.498946
0.454004	1.517101
0.454102	1.527214
0.454199	1.517525
0.454297	1.532265
0.454395	1.553703
0.454492	1.557077
0.454590	1.532283
0.454687	1.503556
0.454785	1.487436
0.454883	1.481170
0.454980	1.499115
0.455078	1.513209
0.455176	1.504147
0.455273	1.488320
0.455371	1.485625
0.455469	1.474819
0.455566	1.498120
0.455664	1.500898
0.455762	1.505662
0.455859	1.525593
0.455957	1.560129
0.456055	1.556682
0.456152	1.553186
0.456250	1.488364
0.456348	1.457322
0.456445	1.479901
0.456543	1.499986
0.456641	1.449191
0.456738	1.420953
0.456836	1.451793
0.456934	1.419643
0.457031	1.380308
0.457129	1.310005
0.457227	1.288537
0.457324	1.323838
0.457422	1.357998
0.457520	1.353970
0.457617	1.332800
0.457715	1.316931
0.457812	1.309358
0.457910	1.309509
0.458008	1.318170
0.458105	1.315587
0.458203	1.310970
0.458301	1.295131
0.458398	1.266237
0.458496	1.234495
0.458594	1.259984
0.458691	1.317615
0.458789	1.361167
0.458887	1.423883
0.458984	1.460754
0.459082	1.464771
0.459180	1.462185
0.459277	1.448730
0.459375	1.411291
0.459473	1.428067
0.459570	1.442302
0.459668	1.387895
0.459766	1.361615
0.459863	1.382003
0.459961	1.378550
0.460059	1.372488
0.460156	1.366017
0.460254	1.378628
0.460352	1.385454
0.460449	1.363288
0.460547	1.370394
0.460645	1.386632
0.460742	1.393891
0.460840	1.427981
0.460937	1.432879
0.461035	1.404813
0.461133	1.368407
0.461230	1.341744
0.461328	1.335498
0.461426	1.341971
0.461523	1.361627
0.461621	1.394333
0.461719	1.397783
0.461816	1.377723
0.461914	1.412920
0.462012	1.437726
0.462109	1.470587
0.462207	1.532827
0.462305	1.557284
0.462402	1.570675
0.462500	1.581749
0.462598	1.581974
0.462695	1.528558
0.462793	1.518172
0.462891	1.504011
0.462988	1.541466
0.463086	1.439788
0.463184	1.430947
0.463281	1.465811
0.463379	1.516195
0.463477	1.604146
0.463574	1.588932
0.463672	1.600708
0.463770	1.589189
0.463867	1.590128
0.463965	1.575666
0.464062	1.578381
0.464160	1.575483
0.464258	1.553707
0.464355	1.531859
0.464453	1.526908
0.464551	1.528216
0.464648	1.535116
0.464746	1.542829
0.464844	1.548352
0.464941	1.558562
0.465039	1.567116
0.465137	1.568351
0.465234	1.559115
0.465332	1.551641
0.465430	1.552790
0.465527	1.548178
0.465625	1.534459
0.465723	1.518098
0.465820	1.538702
0.465918	1.552383
0.466016	1.550919
0.466113	1.544039
0.466211	1.539164
0.466309	1.555771
0.466406	1.560636
0.466504	1.545162
0.466602	1.551294
0.466699	1.545424
0.466797	1.528601
0.466895	1.532885
0.466992	1.535140
0.467090	1.549565
0.467187	1.586274
0.467285	1.593972
0.467383	1.589344
0.467480	1.568338
0.467578	1.548209
0.467676	1.524245
0.467773	1.519407
0.467871	1.509726
0.467969	1.522966
0.468066	1.520097
0.468164	1.504984
0.468262	1.509849
0.468359	1.530417
0.468457	1.555969
0.468555	1.564485
0.468652	1.561089
0.468750	1.554550
0.468848	1.547390
0.468945	1.566037
0.469043	1.564038
0.469141	1.561426
0.469238	1.570757
0.469336	1.599829
0.469434	1.617999
0.469531	1.628937
0.469629	1.608632
0.469727	1.533719
0.469824	1.488445
0.469922	1.495326
0.470020	1.491288
0.470117	1.545675
0.470215	1.579153
0.470312	1.553310
0.470410	1.507731
0.470508	1.496218
0.470605	1.502440
0.470703	1.506690
0.470801	1.508265
0.470898	1.497429
0.470996	1.487955
0.471094	1.499116
0.471191	1.494893
0.471289	1.481489
0.471387	1.484096
0.471484	1.514130
0.471582	1.526952
0.471680	1.526773
0.471777	1.531889
0.471875	1.490395
0.471973	1.457044
0.472070	1.526202
0.472168	1.544471
0.472266	1.535494
0.472363	1.539053
0.472461	1.538885
0.472559	1.559085
0.472656	1.565022
0.472754	1.597068
0.472852	1.566197
0.472949	1.537042
0.473047	1.524590
0.473145	1.544004
0.473242	1.543026
0.473340	1.562956
0.473437	1.556314
0.473535	1.535402
0.473633	1.536177
0.473730	1.481009
0.473828	1.459991
0.473926	1.447964
0.474023	1.420901
0.474121	1.388107
0.474219	1.365976
0.474316	1.362220
0.474414	1.358670
0.474512	1.351207
0.474609	1.341547
0.474707	1.343211
0.474805	1.348112
0.474902	1.347727
0.475000	1.344259
0.475098	1.350913
0.475195	1.401220
0.475293	1.433626
0.475391	1.448656
0.475488	1.437709
0.475586	1.487490
0.475684	1.480987
0.475781	1.418319
0.475879	1.412553
0.475977	1.401178
0.476074	1.433145
0.476172	1.446806
0.476270	1.449373
0.476367	1.440387
0.476465	1.406130
0.476562	1.386378
0.476660	1.403946
0.476758	1.425769
0.476855	1.460311
0.476953	1.471655
0.477051	1.449758
0.477148	1.439194
0.477246	1.457167
0.477344	1.478798
0.477441	1.480009
0.477539	1.543625
0.477637	1.570790
0.477734	1.560300
0.477832	1.530822
0.477930	1.500951
0.478027	1.455381
0.478125	1.470344
0.478223	1.462286
0.478320	1.516125
0.478418	1.584629
0.478516	1.530718
0.478613	1.560520
0.478711	1.591548
0.478809	1.604802
0.478906	1.605366
0.479004	1.609237
0.479102	1.614997
0.479199	1.620824
0.479297	1.623220
0.479395	1.616777
0.479492	1.587746
0.479590	1.584405
0.479687	1.611418
0.479785	1.621011
0.479883	1.609647
0.479980	1.596998
0.480078	1.601372
0.480176	1.614372
0.480273	1.603640
0.480371	1.602232
0.480469	1.626445
0.480566	1.622042
0.480664	1.624777
0.480762	1.621572
0.480859	1.602706
0.480957	1.574152
0.481055	1.555238
0.481152	1.532598
0.481250	1.496406
0.481348	1.480886
0.481445	1.484916
0.481543	1.470406
0.481641	1.468885
0.481738	1.489433
0.481836	1.495661
0.481934	1.491319
0.482031	1.493315
0.482129	1.490961
0.482227	1.487227
0.482324	1.488874
0.482422	1.494724
0.482520	1.495622
0.482617	1.485877
0.482715	1.481878
0.482812	1.495744
0.482910	1.497088
0.483008	1.488910
0.483105	1.534453
0.483203	1.587293
0.483301	1.598750
0.483398	1.601940
0.483496	1.627231
0.483594	1.641709
0.483691	1.640948
0.483789	1.629095
0.483887	1.629045
0.483984	1.624742
0.484082	1.608432
0.484180	1.623344
0.484277	1.616207
0.484375	1.606435
0.484473	1.587492
0.484570	1.565527
0.484668	1.557367
0.484766	1.581846
0.484863	1.590853
0.484961	1.611402
0.485059	1.635363
0.485156	1.625252
0.485254	1.636226
0.485352	1.624588
0.485449	1.616075
0.485547	1.614854
0.485645	1.612350
0.485742	1.600212
0.485840	1.609469
0.485937	1.617835
0.486035	1.603756
0.486133	1.611907
0.486230	1.610579
0.486328	1.597940
0.486426	1.582068
0.486523	1.581922
0.486621	1.581180
0.486719	1.579816
0.486816	1.569158
0.486914	1.531013
0.487012	1.492321
0.487109	1.539916
0.487207	1.521241
0.487305	1.504165
0.487402	1.564382
0.487500	1.557125
0.487598	1.551708
0.487695	1.537919
0.487793	1.544861
0.487891	1.555976
0.487988	1.564216
0.488086	1.561152
0.488184	1.545480
0.488281	1.525586
0.488379	1.545799
0.488477	1.563168
0.488574	1.557687
0.488672	1.543170
0.488770	1.532036
0.488867	1.523829
0.488965	1.515143
0.489062	1.504280
0.489160	1.492070
0.489258	1.493998
0.489355	1.504678
0.489453	1.526457
0.489551	1.538873
0.489648	1.521917
0.489746	1.519950
0.489844	1.502703
0.489941	1.496703
0.490039	1.508338
0.490137	1.506517
0.490234	1.541788
0.490332	1.569808
0.490430	1.579773
0.490527	1.590954
0.490625	1.604007
0.490723	1.628093
0.490820	1.647034
0.490918	1.649171
0.491016	1.628981
0.491113	1.611651
0.491211	1.602689
0.491309	1.594773
0.491406	1.589837
0.491504	1.601215
0.491602	1.610907
0.491699	1.615591
0.491797	1.619489
0.491895	1.623349
0.491992	1.627082
0.492090	1.630558
0.492187	1.635180
0.492285	1.636485
0.492383	1.639955
0.492480	1.642615
0.492578	1.644213
0.492676	1.647677
0.492773	1.649765
0.492871	1.651670
0.492969	1.655638
0.493066	1.659535
0.493164	1.661541
0.493262	1.663890
0.493359	1.663292
0.493457	1.659408
0.493555	1.664541
0.493652	1.668372
0.493750	1.672647
0.493848	1.676356
0.493945	1.680466
0.494043	1.683377
0.494141	1.681475
0.494238	1.678387
0.494336	1.677887
0.494434	1.676744
0.494531	1.679858
0.494629	1.677934
0.494727	1.670025
0.494824	1.680858
0.494922	1.696099
0.495020	1.700878
0.495117	1.693342
0.495215	1.690212
0.495312	1.683869
0.495410	1.696813
0.495508	1.695092
0.495605	1.665980
0.495703	1.651133
0.495801	1.661364
0.495898	1.630426
0.495996	1.609213
0.496094	1.630287
0.496191	1.651537
0.496289	1.675603
0.496387	1.667332
0.496484	1.650256
0.496582	1.630393
0.496680	1.629149
0.496777	1.625625
0.496875	1.617810
0.496973	1.603457
0.497070	1.610852
0.497168	1.619210
0.497266	1.611619
0.497363	1.619009
0.497461	1.619399
0.497559	1.625052
0.497656	1.651961
0.497754	1.659672
0.497852	1.660800
0.497949	1.654834
0.498047	1.649474
0.498145	1.640408
0.498242	1.648728
0.498340	1.651936
0.498437	1.632333
0.498535	1.610359
0.498633	1.619004
0.498730	1.645918
0.498828	1.634285
0.498926	1.632507
0.499023	1.615148
0.499121	1.597555
0.499219	1.598034
0.499316	1.590667
0.499414	1.600782
0.499512	1.601975
0.499609	1.600627
0.499707	1.582373
0.499805	1.570632
0.499902	1.562812
0.500000	1.556748
0.500098	1.536405
0.500195	1.539698
0.500293	1.536792
0.500391	1.530777
0.500488	1.560855
0.500586	1.558942
0.500684	1.548832
0.500781	1.550376
0.500879	1.562764
0.500977	1.547600
0.501074	1.528509
0.501172	1.524332
0.501270	1.560034
0.501367	1.586116
0.501465	1.586854
0.501562	1.578557
0.501660	1.563168
0.501758	1.556125
0.501855	1.557760
0.501953	1.552809
0.502051	1.582748
0.502148	1.588707
0.502246	1.583250
0.502344	1.575307
0.502441	1.593816
0.502539	1.605089
0.502637	1.604499
0.502734	1.626074
0.502832	1.606150
0.502930	1.598604
0.503027	1.579884
0.503125	1.567032
0.503223	1.607056
0.503320	1.618294
0.503418	1.593424
0.503516	1.614385
0.503613	1.577151
0.503711	1.590634
0.503809	1.610318
0.503906	1.596598
0.504004	1.606415
0.504102	1.605786
0.504199	1.603753
0.504297	1.602579
0.504395	1.594054
0.504492	1.581547
0.504590	1.574071
0.504687	1.568709
0.504785	1.561702
0.504883	1.569558
0.504980	1.596584
0.505078	1.598134
0.505176	1.594596
0.505273	1.593817
0.505371	1.597797
0.505469	1.597187
0.505566	1.608021
0.505664	1.613687
0.505762	1.601728
0.505859	1.610133
0.505957	1.624230
0.506055	1.604274
0.506152	1.608646
0.506250	1.633316
0.506348	1.631638
0.506445	1.629370
0.506543	1.629728
0.506641	1.633026
0.506738	1.635519
0.506836	1.638485
0.506934	1.640422
0.507031	1.643086
0.507129	1.645544
0.507227	1.649264
0.507324	1.655224
0.507422	1.667612
0.507520	1.669739
0.507617	1.677753
0.507715	1.685719
0.507812	1.707013
0.507910	1.702960
0.508008	1.697411
0.508105	1.698082
0.508203	1.694749
0.508301	1.699537
0.508398	1.698351
0.508496	1.696863
0.508594	1.684550
0.508691	1.685564
0.508789	1.689915
0.508887	1.689812
0.508984	1.683723
0.509082	1.666963
0.509180	1.669897
0.509277	1.666096
0.509375	1.667065
0.509473	1.664546
0.509570	1.664372
0.509668	1.652003
0.509766	1.650433
0.509863	1.649043
0.509961	1.651227
0.510059	1.649013
0.510156	1.630104
0.510254	1.628661
0.510352	1.626315
0.510449	1.615219
0.510547	1.602756
0.510645	1.589277
0.510742	1.576672
0.510840	1.561464
0.510937	1.546606
0.511035	1.554460
0.511133	1.563788
0.511230	1.568907
0.511328	1.574451
0.511426	1.581124
0.511523	1.598768
0.511621	1.607366
0.511719	1.613270
0.511816	1.636128
0.511914	1.613208
0.512012	1.622076
0.512109	1.645729
0.512207	1.650053
0.512305	1.598403
0.512402	1.621812
0.512500	1.660560
0.512598	1.635723
0.512695	1.626107
0.512793	1.609446
0.512891	1.594855
0.512988	1.617819
0.513086	1.607236
0.513184	1.571346
0.513281	1.582450
0.513379	1.609359
0.513477	1.618282
0.513574	1.644570
0.513672	1.654451
0.513770	1.640821
0.513867	1.627670
0.513965	1.625701
0.514062	1.628951
0.514160	1.645829
0.514258	1.654771
0.514355	1.644943
0.514453	1.640892
0.514551	1.615189
0.514648	1.615598
0.514746	1.634529
0.514844	1.646170
0.514941	1.635451
0.515039	1.629541
0.515137	1.622114
0.515234	1.603923
0.515332	1.579021
0.515430	1.567280
0.515527	1.615361
0.515625	1.631718
0.515723	1.614136
0.515820	1.614671
0.515918	1.606032
0.516016	1.613630
0.516113	1.605788
0.516211	1.611013
0.516309	1.620218
0.516406	1.629346
0.516504	1.633264
0.516602	1.609206
0.516699	1.570196
0.516797	1.579629
0.516895	1.573923
0.516992	1.576853
0.517090	1.576011
0.517187	1.567842
0.517285	1.549913
0.517383	1.535681
0.517480	1.526612
0.517578	1.517144
0.517676	1.504261
0.517773	1.491040
0.517871	1.483276
0.517969	1.471405
0.518066	1.460559
0.518164	1.463281
0.518262	1.469673
0.518359	1.482640
0.518457	1.506837
0.518555	1.526861
0.518652	1.561729
0.518750	1.573460
0.518848	1.567199
0.518945	1.529568
0.519043	1.527669
0.519141	1.531778
0.519238	1.524595
0.519336	1.560079
0.519434	1.587996
0.519531	1.589062
0.519629	1.589432
0.519727	1.624409
0.519824	1.625401
0.519922	1.617378
0.520020	1.619915
0.520117	1.628663
0.520215	1.632893
0.520312	1.635855
0.520410	1.623687
0.520508	1.608229
0.520605	1.573135
0.520703	1.570693
0.520801	1.602469
0.520898	1.599171
0.520996	1.557699
0.521094	1.543954
0.521191	1.550790
0.521289	1.577871
0.521387	1.613450
0.521484	1.626279
0.521582	1.605232
0.521680	1.619194
0.521777	1.646576
0.521875	1.651816
0.521973	1.658622
0.522070	1.646004
0.522168	1.643115
0.522266	1.653085
0.522363	1.663160
0.522461	1.668177
0.522559	1.658819
0.522656	1.646448
0.522754	1.647199
0.522852	1.647736
0.522949	1.653005
0.523047	1.655864
0.523145	1.658693
0.523242	1.651537
0.523340	1.650297
0.523437	1.659900
0.523535	1.668550
0.523633	1.666636
0.523730	1.675376
0.523828	1.667168
0.523926	1.667139
0.524023	1.664592
0.524121	1.657417
0.524219	1.658849
0.524316	1.672579
0.524414	1.696468
0.524512	1.675102
0.524609	1.671929
0.524707	1.673289
0.524805	1.678306
0.524902	1.674589
0.525000	1.669596
0.525098	1.643042
0.525195	1.639712
0.525293	1.649533
0.525391	1.635742
0.525488	1.623395
0.525586	1.638646
0.525684	1.676038
0.525781	1.700784
0.525879	1.702763
0.525977	1.686199
0.526074	1.676230
0.526172	1.668693
0.526270	1.665800
0.526367	1.669332
0.526465	1.671212
0.526562	1.671244
0.526660	1.658030
0.526758	1.664524
0.526855	1.681416
0.526953	1.686992
0.527051	1.684791
0.527148	1.661021
0.527246	1.674700
0.527344	1.674456
0.527441	1.668195
0.527539	1.641679
0.527637	1.651647
0.527734	1.664599
0.527832	1.680616
0.527930	1.687394
0.528027	1.679684
0.528125	1.641252
0.528223	1.673203
0.528320	1.656821
0.528418	1.631801
0.528516	1.627981
0.528613	1.594613
0.528711	1.589333
0.528809	1.574924
0.528906	1.588715
0.529004	1.585811
0.529102	1.561083
0.529199	1.553920
0.529297	1.573757
0.529395	1.555284
0.529492	1.578458
0.529590	1.584953
0.529687	1.609574
0.529785	1.620638
0.529883	1.571742
0.529980	1.584529
0.530078	1.556622
0.530176	1.520693
0.530273	1.471617
0.530371	1.506260
0.530469	1.520007
0.530566	1.544124
0.530664	1.565898
0.530762	1.563889
0.530859	1.548419
0.530957	1.581723
0.531055	1.555320
0.531152	1.515916
0.531250	1.529960
0.531348	1.497696
0.531445	1.501363
0.531543	1.497821
0.531641	1.524220
0.531738	1.549221
0.531836	1.539507
0.531934	1.522280
0.532031	1.509042
0.532129	1.500548
0.532227	1.508516
0.532324	1.521745
0.532422	1.543691
0.532520	1.548234
0.532617	1.557286
0.532715	1.561422
0.532812	1.569117
0.532910	1.576093
0.533008	1.599457
0.533105	1.596998
0.533203	1.569294
0.533301	1.562946
0.533398	1.572946
0.533496	1.587877
0.533594	1.582862
0.533691	1.590403
0.533789	1.586047
0.533887	1.578959
0.533984	1.574829
0.534082	1.574605
0.534180	1.567014
0.534277	1.562188
0.534375	1.560784
0.534473	1.588169
0.534570	1.598107
0.534668	1.594306
0.534766	1.585537
0.534863	1.574759
0.534961	1.577167
0.535059	1.597371
0.535156	1.585882
0.535254	1.610111
0.535352	1.625350
0.535449	1.596686
0.535547	1.587414
0.535645	1.579394
0.535742	1.574151
0.535840	1.558786
0.535937	1.564469
0.536035	1.571706
0.536133	1.560474
0.536230	1.560575
0.536328	1.580403
0.536426	1.586906
0.536523	1.559604
0.536621	1.525119
0.536719	1.531718
0.536816	1.560911
0.536914	1.569484
0.537012	1.552959
0.537109	1.533183
0.537207	1.523824
0.537305	1.517361
0.537402	1.480038
0.537500	1.488800
0.537598	1.518458
0.537695	1.531757
0.537793	1.524192
0.537891	1.537834
0.537988	1.554977
0.538086	1.581632
0.538184	1.594191
0.538281	1.594006
0.538379	1.593925
0.538477	1.594554
0.538574	1.585781
0.538672	1.556940
0.538770	1.548771
0.538867	1.559280
0.538965	1.558729
0.539062	1.551207
0.539160	1.548327
0.539258	1.563828
0.539355	1.584090
0.539453	1.585409
0.539551	1.590899
0.539648	1.590849
0.539746	1.604627
0.539844	1.584227
0.539941	1.575140
0.540039	1.578179
0.540137	1.558216
0.540234	1.543796
0.540332	1.541201
0.540430	1.554443
0.540527	1.549504
0.540625	1.536338
0.540723	1.526210
0.540820	1.530015
0.540918	1.518710
0.541016	1.497936
0.541113	1.515411
0.541211	1.536969
0.541309	1.552916
0.541406	1.555061
0.541504	1.538311
0.541602	1.554509
0.541699	1.557023
0.541797	1.550437
0.541895	1.540862
0.541992	1.529494
0.542090	1.518334
0.542187	1.495370
0.542285	1.492590
0.542383	1.489977
0.542480	1.472503
0.542578	1.456402
0.542676	1.470708
0.542773	1.494435
0.542871	1.525272
0.542969	1.562599
0.543066	1.573620
0.543164	1.563716
0.543262	1.555664
0.543359	1.558889
0.543457	1.560657
0.543555	1.556143
0.543652	1.557344
0.543750	1.550401
0.543848	1.564995
0.543945	1.610243
0.544043	1.622029
0.544141	1.603305
0.544238	1.606620
0.544336	1.594247
0.544434	1.597948
0.544531	1.617941
0.544629	1.613902
0.544727	1.601403
0.544824	1.579169
0.544922	1.566796
0.545020	1.546344
0.545117	1.536781
0.545215	1.541260
0.545312	1.545430
0.545410	1.534448
0.545508	1.532842
0.545605	1.523328
0.545703	1.520038
0.545801	1.540721
0.545898	1.542563
0.545996	1.558102
0.546094	1.581366
0.546191	1.597048
0.546289	1.596369
0.546387	1.607062
0.546484	1.626407
0.546582	1.633712
0.546680	1.630660
0.546777	1.629651
0.546875	1.612221
0.546973	1.597847
0.547070	1.604874
0.547168	1.609076
0.547266	1.611668
0.547363	1.596047
0.547461	1.593739
0.547559	1.590339
0.547656	1.561658
0.547754	1.532700
0.547852	1.518726
0.547949	1.503275
0.548047	1.496593
0.548145	1.530187
0.548242	1.596556
0.548340	1.579331
0.548437	1.526795
0.548535	1.467122
0.548633	1.491377
0.548730	1.571502
0.548828	1.593342
0.548926	1.596102
0.549023	1.597429
0.549121	1.603299
0.549219	1.606828
0.549316	1.610968
0.549414	1.614176
0.549512	1.617832
0.549609	1.619837
0.549707	1.621834
0.549805	1.619910
0.549902	1.613035
0.550000	1.606654
0.550098	1.622318
0.550195	1.644326
0.550293	1.632541
0.550391	1.640278
0.550488	1.647493
0.550586	1.647620
0.550684	1.639623
0.550781	1.630642
0.550879	1.616200
0.550977	1.625109
0.551074	1.649482
0.551172	1.651772
0.551270	1.657476
0.551367	1.660826
0.551465	1.672444
0.551562	1.681811
0.551660	1.677615
0.551758	1.676841
0.551855	1.678498
0.551953	1.682740
0.552051	1.685469
0.552148	1.687544
0.552246	1.672346
0.552344	1.657341
0.552441	1.649252
0.552539	1.681047
0.552637	1.672604
0.552734	1.666387
0.552832	1.673505
0.552930	1.679146
0.553027	1.673114
0.553125	1.664008
0.553223	1.651612
0.553320	1.658987
0.553418	1.659865
0.553516	1.654683
0.553613	1.637070
0.553711	1.640268
0.553809	1.639556
0.553906	1.619549
0.554004	1.607005
0.554102	1.603304
0.554199	1.603624
0.554297	1.607797
0.554395	1.607445
0.554492	1.603551
0.554590	1.600423
0.554687	1.602869
0.554785	1.593145
0.554883	1.571355
0.554980	1.562087
0.555078	1.547997
0.555176	1.537658
0.555273	1.543899
0.555371	1.564409
0.555469	1.556073
0.555566	1.534142
0.555664	1.545858
0.555762	1.551657
0.555859	1.531061
0.555957	1.544017
0.556055	1.555483
0.556152	1.554221
0.556250	1.543456
0.556348	1.564140
0.556445	1.577843
0.556543	1.567860
0.556641	1.552669
0.556738	1.543596
0.556836	1.552446
0.556934	1.585881
0.557031	1.600170
0.557129	1.604865
0.557227	1.610624
0.557324	1.615477
0.557422	1.621319
0.557520	1.626229
0.557617	1.632325
0.557715	1.636967
0.557812	1.643047
0.557910	1.644254
0.558008	1.645150
0.558105	1.636474
0.558203	1.643361
0.558301	1.654668
0.558398	1.657412
0.558496	1.662228
0.558594	1.654313
0.558691	1.652489
0.558789	1.641389
0.558887	1.635406
0.558984	1.624499
0.559082	1.612037
0.559180	1.609567
0.559277	1.631165
0.559375	1.655354
0.559473	1.665270
0.559570	1.658258
0.559668	1.650209
0.559766	1.634932
0.559863	1.624054
0.559961	1.635337
0.560059	1.642060
0.560156	1.650428
0.560254	1.639629
0.560352	1.632523
0.560449	1.649721
0.560547	1.675491
0.560645	1.687693
0.560742	1.678448
0.560840	1.665982
0.560937	1.657261
0.561035	1.656632
0.561133	1.651939
0.561230	1.653735
0.561328	1.662753
0.561426	1.670127
0.561523	1.661389
0.561621	1.659504
0.561719	1.662821
0.561816	1.658735
0.561914	1.642501
0.562012	1.637703
0.562109	1.640039
0.562207	1.625033
0.562305	1.609015
0.562402	1.586847
0.562500	1.581526
0.562598	1.594446
0.562695	1.611285
0.562793	1.640750
0.562891	1.638931
0.562988	1.619079
0.563086	1.620023
0.563184	1.657785
0.563281	1.657566
0.563379	1.648767
0.563477	1.661972
0.563574	1.681060
0.563672	1.651932
0.563770	1.631350
0.563867	1.649350
0.563965	1.664602
0.564062	1.671359
0.564160	1.663949
0.564258	1.663463
0.564355	1.669363
0.564453	1.656504
0.564551	1.647927
0.564648	1.648706
0.564746	1.656397
0.564844	1.665636
0.564941	1.660710
0.565039	1.649469
0.565137	1.641025
0.565234	1.625878
0.565332	1.613636
0.565430	1.628843
0.565527	1.620534
0.565625	1.606875
0.565723	1.605970
0.565820	1.603576
0.565918	1.587053
0.566016	1.576125
0.566113	1.597231
0.566211	1.625920
0.566309	1.643940
0.566406	1.634832
0.566504	1.625686
0.566602	1.624555
0.566699	1.645061
0.566797	1.636676
0.566895	1.617370
0.566992	1.576125
0.567090	1.561631
0.567187	1.535118
0.567285	1.527064
0.567383	1.527836
0.567480	1.550406
0.567578	1.552162
0.567676	1.528518
0.567773	1.521734
0.567871	1.523953
0.567969	1.514842
0.568066	1.493990
0.568164	1.487484
0.568262	1.484996
0.568359	1.497306
0.568457	1.500433
0.568555	1.483983
0.568652	1.468323
0.568750	1.455978
0.568848	1.450092
0.568945	1.429421
0.569043	1.426611
0.569141	1.463789
0.569238	1.498824
0.569336	1.512671
0.569434	1.522258
0.569531	1.532542
0.569629	1.556072
0.569727	1.567592
0.569824	1.553802
0.569922	1.564746
0.570020	1.561745
0.570117	1.567656
0.570215	1.605998
0.570312	1.633056
0.570410	1.633784
0.570508	1.625767
0.570605	1.631494
0.570703	1.633805
0.570801	1.647254
0.570898	1.645639
0.570996	1.676932
0.571094	1.697229
0.571191	1.675105
0.571289	1.671408
0.571387	1.670136
0.571484	1.657946
0.571582	1.661723
0.571680	1.652171
0.571777	1.620683
0.571875	1.603052
0.571973	1.630473
0.572070	1.615317
0.572168	1.585625
0.572266	1.606916
0.572363	1.583450
0.572461	1.615737
0.572559	1.637396
0.572656	1.631485
0.572754	1.617052
0.572852	1.601647
0.572949	1.568201
0.573047	1.547392
0.573145	1.533225
0.573242	1.510899
0.573340	1.517886
0.573437	1.520916
0.573535	1.517062
0.573633	1.523397
0.573730	1.533432
0.573828	1.551667
0.573926	1.545784
0.574023	1.543881
0.574121	1.537013
0.574219	1.527637
0.574316	1.516692
0.574414	1.512079
0.574512	1.522804
0.574609	1.540254
0.574707	1.541103
0.574805	1.528965
0.574902	1.496888
0.575000	1.449448
0.575098	1.436373
0.575195	1.486818
0.575293	1.524541
0.575391	1.550935
0.575488	1.555717
0.575586	1.525744
0.575684	1.534611
0.575781	1.546776
0.575879	1.550604
0.575977	1.568857
0.576074	1.571891
0.576172	1.575967
0.576270	1.592811
0.576367	1.587498
0.576465	1.577211
0.576562	1.575001
0.576660	1.553216
0.576758	1.553164
0.576855	1.564412
0.576953	1.562868
0.577051	1.545202
0.577148	1.545973
0.577246	1.558473
0.577344	1.575304
0.577441	1.586572
0.577539	1.623959
0.577637	1.642078
0.577734	1.657941
0.577832	1.651244
0.577930	1.693004
0.578027	1.638556
0.578125	1.592508
0.578223	1.611385
0.578320	1.602460
0.578418	1.658504
0.578516	1.637032
0.578613	1.648338
0.578711	1.623342
0.578809	1.563044
0.578906	1.549768
0.579004	1.516694
0.579102	1.510625
0.579199	1.556235
0.579297	1.569716
0.579395	1.556028
0.579492	1.561959
0.579590	1.580780
0.579687	1.590407
0.579785	1.601016
0.579883	1.601874
0.579980	1.604943
0.580078	1.614860
0.580176	1.634299
0.580273	1.619289
0.580371	1.598700
0.580469	1.634171
0.580566	1.660085
0.580664	1.630817
0.580762	1.619770
0.580859	1.605296
0.580957	1.591208
0.581055	1.579474
0.581152	1.570607
0.581250	1.554660
0.581348	1.568129
0.581445	1.596179
0.581543	1.596890
0.581641	1.566973
0.581738	1.543507
0.581836	1.575567
0.581934	1.568694
0.582031	1.573633
0.582129	1.567084
0.582227	1.627617
0.582324	1.653013
0.582422	1.665029
0.582520	1.677617
0.582617	1.632763
0.582715	1.623414
0.582812	1.608689
0.582910	1.604525
0.583008	1.598172
0.583105	1.581180
0.583203	1.564717
0.583301	1.580311
0.583398	1.594851
0.583496	1.598557
0.583594	1.573005
0.583691	1.547452
0.583789	1.541891
0.583887	1.552049
0.583984	1.563578
0.584082	1.578709
0.584180	1.579747
0.584277	1.575293
0.584375	1.548438
0.584473	1.547849
0.584570	1.557984
0.584668	1.532786
0.584766	1.525104
0.584863	1.514667
0.584961	1.517799
0.585059	1.525561
0.585156	1.522772
0.585254	1.507132
0.585352	1.494193
0.585449	1.488850
0.585547	1.484860
0.585645	1.467196
0.585742	1.449160
0.585840	1.444548
0.585937	1.448791
0.586035	1.456236
0.586133	1.447602
0.586230	1.428510
0.586328	1.408062
0.586426	1.398290
0.586523	1.394722
0.586621	1.410615
0.586719	1.434260
0.586816	1.441125
0.586914	1.443955
0.587012	1.445096
0.587109	1.448304
0.587207	1.457872
0.587305	1.453763
0.587402	1.436138
0.587500	1.429313
0.587598	1.429066
0.587695	1.435875
0.587793	1.430038
0.587891	1.433114
0.587988	1.500870
0.588086	1.561595
0.588184	1.572208
0.588281	1.548569
0.588379	1.561038
0.588477	1.575235
0.588574	1.581423
0.588672	1.587008
0.588770	1.585834
0.588867	1.588823
0.588965	1.589423
0.589062	1.594919
0.589160	1.593127
0.589258	1.590174
0.589355	1.589138
0.589453	1.594632
0.589551	1.582844
0.589648	1.609140
0.589746	1.626616
0.589844	1.614192
0.589941	1.601240
0.590039	1.571298
0.590137	1.590664
0.590234	1.592553
0.590332	1.589945
0.590430	1.583091
0.590527	1.574460
0.590625	1.595852
0.590723	1.601842
0.590820	1.581762
0.590918	1.589117
0.591016	1.608855
0.591113	1.598361
0.591211	1.587323
0.591309	1.587447
0.591406	1.616825
0.591504	1.624628
0.591602	1.606665
0.591699	1.612898
0.591797	1.591472
0.591895	1.566783
0.591992	1.564732
0.592090	1.572614
0.592187	1.555189
0.592285	1.549272
0.592383	1.525494
0.592480	1.533449
0.592578	1.514177
0.592676	1.485019
0.592773	1.493251
0.592871	1.510985
0.592969	1.518909
0.593066	1.510019
0.593164	1.520733
0.593262	1.524462
0.593359	1.523584
0.593457	1.547871
0.593555	1.549963
0.593652	1.566223
0.593750	1.564019
0.593848	1.579129
0.593945	1.585312
0.594043	1.574765
0.594141	1.569555
0.594238	1.555099
0.594336	1.561777
0.594434	1.567287
0.594531	1.566131
0.594629	1.554993
0.594727	1.570752
0.594824	1.559920
0.594922	1.551882
0.595020	1.576282
0.595117	1.600318
0.595215	1.601455
0.595312	1.578334
0.595410	1.571917
0.595508	1.564198
0.595605	1.537417
0.595703	1.513206
0.595801	1.528674
0.595898	1.530881
0.595996	1.550085
0.596094	1.538699
0.596191	1.522961
0.596289	1.506962
0.596387	1.522127
0.596484	1.549227
0.596582	1.576983
0.596680	1.599861
0.596777	1.584897
0.596875	1.560757
0.596973	1.564257
0.597070	1.570614
0.597168	1.583915
0.597266	1.581929
0.597363	1.577999
0.597461	1.554568
0.597559	1.511559
0.597656	1.514780
0.597754	1.519082
0.597852	1.516976
0.597949	1.511350
0.598047	1.493537
0.598145	1.492052
0.598242	1.502772
0.598340	1.501639
0.598437	1.488321
0.598535	1.478141
0.598633	1.471903
0.598730	1.460775
0.598828	1.456285
0.598926	1.459378
0.599023	1.448227
0.599121	1.426878
0.599219	1.421141
0.599316	1.408522
0.599414	1.387763
0.599512	1.371074
0.599609	1.382105
0.599707	1.418237
0.599805	1.441755
0.599902	1.442029
0.600000	1.426277
0.600098	1.410121
0.600195	1.446529
0.600293	1.492031
0.600391	1.498977
0.600488	1.543503
0.600586	1.589046
0.600684	1.609906
0.600781	1.582800
0.600879	1.522348
0.600977	1.523612
0.601074	1.549541
0.601172	1.555463
0.601270	1.571382
0.601367	1.582625
0.601465	1.573057
0.601562	1.562177
0.601660	1.531527
0.601758	1.501886
0.601855	1.478220
0.601953	1.438914
0.602051	1.441479
0.602148	1.445579
0.602246	1.454063
0.602344	1.471548
0.602441	1.529008
0.602539	1.575051
0.602637	1.572135
0.602734	1.588832
0.602832	1.596967
0.602930	1.583555
0.603027	1.573236
0.603125	1.587149
0.603223	1.591580
0.603320	1.599284
0.603418	1.605929
0.603516	1.601852
0.603613	1.579831
0.603711	1.544175
0.603809	1.518831
0.603906	1.512268
0.604004	1.492752
0.604102	1.415245
0.604199	1.381287
0.604297	1.409978
0.604395	1.402688
0.604492	1.375486
0.604590	1.392993
0.604687	1.378353
0.604785	1.385191
0.604883	1.435976
0.604980	1.459135
0.605078	1.459488
0.605176	1.425906
0.605273	1.408130
0.605371	1.418361
0.605469	1.412685
0.605566	1.392890
0.605664	1.363357
0.605762	1.350880
0.605859	1.348665
0.605957	1.365061
0.606055	1.374591
0.606152	1.375726
0.606250	1.340501
0.606348	1.388740
0.606445	1.485153
0.606543	1.528855
0.606641	1.565062
0.606738	1.533962
0.606836	1.492228
0.606934	1.466892
0.607031	1.487887
0.607129	1.517267
0.607227	1.534899
0.607324	1.545834
0.607422	1.584817
0.607520	1.563550
0.607617	1.597106
0.607715	1.567684
0.607812	1.501700
0.607910	1.515927
0.608008	1.507990
0.608105	1.462979
0.608203	1.427190
0.608301	1.450799
0.608398	1.456089
0.608496	1.406690
0.608594	1.367590
0.608691	1.359404
0.608789	1.348237
0.608887	1.310393
0.608984	1.282630
0.609082	1.272866
0.609180	1.315257
0.609277	1.374746
0.609375	1.407029
0.609473	1.407101
0.609570	1.419964
0.609668	1.415448
0.609766	1.544412
0.609863	1.581061
0.609961	1.581301
0.610059	1.561448
0.610156	1.564605
0.610254	1.521666
0.610352	1.507583
0.610449	1.588498
0.610547	1.624682
0.610645	1.616562
0.610742	1.626449
0.610840	1.621104
0.610937	1.574342
0.611035	1.552997
0.611133	1.558143
0.611230	1.581323
0.611328	1.563830
0.611426	1.638658
0.611523	1.664919
0.611621	1.671763
0.611719	1.658813
0.611816	1.666220
0.611914	1.659721
0.612012	1.657993
0.612109	1.629712
0.612207	1.601124
0.612305	1.662228
0.612402	1.706205
0.612500	1.689887
0.612598	1.676956
0.612695	1.655786
0.612793	1.660360
0.612891	1.636248
0.612988	1.673681
0.613086	1.652520
0.613184	1.651595
0.613281	1.657259
0.613379	1.628217
0.613477	1.641078
0.613574	1.652578
0.613672	1.643333
0.613770	1.637831
0.613867	1.648252
0.613965	1.610273
0.614062	1.581758
0.614160	1.587827
0.614258	1.570612
0.614355	1.543909
0.614453	1.585163
0.614551	1.601269
0.614648	1.607399
0.614746	1.575615
0.614844	1.540408
0.614941	1.523465
0.615039	1.534484
0.615137	1.555249
0.615234	1.573541
0.615332	1.561670
0.615430	1.526913
0.615527	1.555814
0.615625	1.573807
0.615723	1.546671
0.615820	1.527909
0.615918	1.515764
0.616016	1.500348
0.616113	1.499443
0.616211	1.511267
0.616309	1.491730
0.616406	1.473807
0.616504	1.476505
0.616602	1.467060
0.616699	1.446953
0.616797	1.448041
0.616895	1.447066
0.616992	1.461121
0.617090	1.471364
0.617187	1.489315
0.617285	1.518848
0.617383	1.544595
0.617480	1.538420
0.617578	1.506774
0.617676	1.480275
0.617773	1.506702
0.617871	1.527456
0.617969	1.508306
0.618066	1.532123
0.618164	1.524828
0.618262	1.508369
0.618359	1.486714
0.618457	1.515925
0.618555	1.528626
0.618652	1.530812
0.618750	1.532500
0.618848	1.507342
0.618945	1.505180
0.619043	1.503494
0.619141	1.460051
0.619238	1.471647
0.619336	1.482248
0.619434	1.471179
0.619531	1.493223
0.619629	1.499973
0.619727	1.504098
0.619824	1.504059
0.619922	1.488156
0.620020	1.490413
0.620117	1.469554
0.620215	1.438325
0.620312	1.428212
0.620410	1.421122
0.620508	1.423737
0.620605	1.425141
0.620703	1.441483
0.620801	1.432226
0.620898	1.410670
0.620996	1.394047
0.621094	1.385023
0.621191	1.380128
0.621289	1.366395
0.621387	1.335131
0.621484	1.298583
0.621582	1.267010
0.621680	1.257446
0.621777	1.277836
0.621875	1.308920
0.621973	1.332050
0.622070	1.345195
0.622168	1.345963
0.622266	1.341830
0.622363	1.339202
0.622461	1.336895
0.622559	1.316692
0.622656	1.317122
0.622754	1.318731
0.622852	1.298874
0.622949	1.291450
0.623047	1.374285
0.623145	1.471382
0.623242	1.483918
0.623340	1.484587
0.623437	1.536850
0.623535	1.581410
0.623633	1.597758
0.623730	1.624001
0.623828	1.619321
0.623926	1.626080
0.624023	1.617345
0.624121	1.599896
0.624219	1.569689
0.624316	1.536413
0.624414	1.585487
0.624512	1.631725
0.624609	1.640727
0.624707	1.661678
0.624805	1.656551
0.624902	1.668414
0.625000	1.667006
0.625098	1.677413
0.625195	1.676367
0.625293	1.675541
0.625391	1.678265
0.625488	1.642911
0.625586	1.628499
0.625684	1.650508
0.625781	1.674629
0.625879	1.664318
0.625977	1.667253
0.626074	1.689662
0.626172	1.674845
0.626270	1.670199
0.626367	1.668014
0.626465	1.677127
0.626562	1.694170
0.626660	1.662057
0.626758	1.655253
0.626855	1.682869
0.626953	1.673513
0.627051	1.665303
0.627148	1.664424
0.627246	1.655267
0.627344	1.580222
0.627441	1.547887
0.627539	1.541896
0.627637	1.515442
0.627734	1.500513
0.627832	1.555915
0.627930	1.583452
0.628027	1.592450
0.628125	1.642497
0.628223	1.628856
0.628320	1.604978
0.628418	1.625212
0.628516	1.625604
0.628613	1.651894
0.628711	1.632284
0.628809	1.586222
0.628906	1.561152
0.629004	1.547190
0.629102	1.550530
0.629199	1.524564
0.629297	1.533249
0.629395	1.540145
0.629492	1.542921
0.629590	1.524646
0.629687	1.533748
0.629785	1.545004
0.629883	1.512608
0.629980	1.484299
0.630078	1.481261
0.630176	1.484034
0.630273	1.476929
0.630371	1.448299
0.630469	1.404902
0.630566	1.439068
0.630664	1.499884
0.630762	1.530399
0.630859	1.524093
0.630957	1.471495
0.631055	1.475264
0.631152	1.495773
0.631250	1.517014
0.631348	1.544795
0.631445	1.542140
0.631543	1.530627
0.631641	1.488918
0.631738	1.462159
0.631836	1.461696
0.631934	1.434355
0.632031	1.437904
0.632129	1.437823
0.632227	1.418398
0.632324	1.381275
0.632422	1.341789
0.632520	1.301964
0.632617	1.272965
0.632715	1.280076
0.632812	1.289687
0.632910	1.287152
0.633008	1.273980
0.633105	1.264374
0.633203	1.263121
0.633301	1.290726
0.633398	1.371203
0.633496	1.427300
0.633594	1.452011
0.633691	1.448446
0.633789	1.431364
0.633887	1.416017
0.633984	1.405030
0.634082	1.409584
0.634180	1.435741
0.634277	1.468092
0.634375	1.485593
0.634473	1.485546
0.634570	1.415270
0.634668	1.431921
0.634766	1.452679
0.634863	1.402445
0.634961	1.385792
0.635059	1.388996
0.635156	1.377777
0.635254	1.358735
0.635352	1.365354
0.635449	1.385413
0.635547	1.385468
0.635645	1.365267
0.635742	1.352129
0.635840	1.330690
0.635937	1.337072
0.636035	1.343525
0.636133	1.337797
0.636230	1.339368
0.636328	1.350773
0.636426	1.373909
0.636523	1.383616
0.636621	1.395941
0.636719	1.397443
0.636816	1.397799
0.636914	1.403192
0.637012	1.423276
0.637109	1.439673
0.637207	1.437424
0.637305	1.430066
0.637402	1.436441
0.637500	1.455435
0.637598	1.469118
0.637695	1.490267
0.637793	1.494198
0.637891	1.524274
0.637988	1.540761
0.638086	1.513815
0.638184	1.496631
0.638281	1.523147
0.638379	1.527341
0.638477	1.501168
0.638574	1.466337
0.638672	1.456016
0.638770	1.470379
0.638867	1.477796
0.638965	1.507412
0.639062	1.521074
0.639160	1.523550
0.639258	1.492301
0.639355	1.432392
0.639453	1.431711
0.639551	1.461870
0.639648	1.501360
0.639746	1.566304
0.639844	1.579000
0.639941	1.559457
0.640039	1.544403
0.640137	1.527527
0.640234	1.516968
0.640332	1.542099
0.640430	1.552219
0.640527	1.533272
0.640625	1.554771
0.640723	1.579639
0.640820	1.602573
0.640918	1.613771
0.641016	1.626778
0.641113	1.652415
0.641211	1.661988
0.641309	1.651668
0.641406	1.630345
0.641504	1.629322
0.641602	1.633457
0.641699	1.622420
0.641797	1.607052
0.641895	1.587026
0.641992	1.563323
0.642090	1.549734
0.642187	1.533562
0.642285	1.519872
0.642383	1.512406
0.642480	1.498609
0.642578	1.497280
0.642676	1.489793
0.642773	1.532564
0.642871	1.554060
0.642969	1.492324
0.643066	1.505508
0.643164	1.568648
0.643262	1.578310
0.643359	1.585226
0.643457	1.583335
0.643555	1.575024
0.643652	1.556081
0.643750	1.565824
0.643848	1.552681
0.643945	1.560270
0.644043	1.565702
0.644141	1.556502
0.644238	1.567044
0.644336	1.549231
0.644434	1.534309
0.644531	1.533530
0.644629	1.551893
0.644727	1.557593
0.644824	1.573719
0.644922	1.577744
0.645020	1.599380
0.645117	1.589617
0.645215	1.581364
0.645312	1.586175
0.645410	1.521665
0.645508	1.503721
0.645605	1.550888
0.645703	1.546346
0.645801	1.564858
0.645898	1.579914
0.645996	1.624241
0.646094	1.672150
0.646191	1.666257
0.646289	1.683340
0.646387	1.673875
0.646484	1.664940
0.646582	1.652175
0.646680	1.657668
0.646777	1.604274
0.646875	1.574712
0.646973	1.607310
0.647070	1.618626
0.647168	1.596311
0.647266	1.628501
0.647363	1.664296
0.647461	1.643075
0.647559	1.656549
0.647656	1.651411
0.647754	1.652495
0.647852	1.658481
0.647949	1.674068
0.648047	1.680034
0.648145	1.684173
0.648242	1.677974
0.648340	1.670064
0.648437	1.670843
0.648535	1.665542
0.648633	1.643744
0.648730	1.639428
0.648828	1.629716
0.648926	1.604308
0.649023	1.581353
0.649121	1.553883
0.649219	1.545391
0.649316	1.547624
0.649414	1.566078
0.649512	1.574368
0.649609	1.563894
0.649707	1.562091
0.649805	1.548053
0.649902	1.523453
0.650000	1.509574
0.650098	1.502422
0.650195	1.494048
0.650293	1.491516
0.650391	1.483414
0.650488	1.463829
0.650586	1.455783
0.650684	1.458786
0.650781	1.469889
0.650879	1.472672
0.650977	1.465248
0.651074	1.454037
0.651172	1.437523
0.651270	1.434945
0.651367	1.444449
0.651465	1.447576
0.651562	1.446325
0.651660	1.450215
0.651758	1.465580
0.651855	1.485369
0.651953	1.491245
0.652051	1.498653
0.652148	1.504281
0.652246	1.490544
0.652344	1.480403
0.652441	1.488794
0.652539	1.508349
0.652637	1.506280
0.652734	1.503154
0.652832	1.509247
0.652930	1.506903
0.653027	1.503641
0.653125	1.496198
0.653223	1.478923
0.653320	1.466439
0.653418	1.458616
0.653516	1.446655
0.653613	1.427788
0.653711	1.404971
0.653809	1.383374
0.653906	1.368191
0.654004	1.362242
0.654102	1.365477
0.654199	1.377673
0.654297	1.396818
0.654395	1.413813
0.654492	1.416911
0.654590	1.408429
0.654687	1.403551
0.654785	1.410081
0.654883	1.418929
0.654980	1.412170
0.655078	1.411086
0.655176	1.445535
0.655273	1.485710
0.655371	1.502183
0.655469	1.520001
0.655566	1.542539
0.655664	1.539558
0.655762	1.525784
0.655859	1.514097
0.655957	1.522645
0.656055	1.527932
0.656152	1.520472
0.656250	1.525179
0.656348	1.525539
0.656445	1.526064
0.656543	1.521832
0.656641	1.507729
0.656738	1.498188
0.656836	1.501413
0.656934	1.511650
0.657031	1.504565
0.657129	1.489783
0.657227	1.492058
0.657324	1.491422
0.657422	1.485113
0.657520	1.465782
0.657617	1.446383
0.657715	1.449636
0.657812	1.454451
0.657910	1.447781
0.658008	1.441044
0.658105	1.446432
0.658203	1.438869
0.658301	1.459142
0.658398	1.481391
0.658496	1.466817
0.658594	1.447421
0.658691	1.426506
0.658789	1.415573
0.658887	1.409332
0.658984	1.411451
0.659082	1.402864
0.659180	1.400019
0.659277	1.399038
0.659375	1.387997
0.659473	1.374855
0.659570	1.391951
0.659668	1.455385
0.659766	1.492210
0.659863	1.476077
0.659961	1.453353
0.660059	1.444098
0.660156	1.437145
0.660254	1.430056
0.660352	1.442558
0.660449	1.460227
0.660547	1.458824
0.660645	1.453752
0.660742	1.455575
0.660840	1.460670
0.660937	1.464536
0.661035	1.462861
0.661133	1.450023
0.661230	1.431444
0.661328	1.412990
0.661426	1.396821
0.661523	1.375823
0.661621	1.356946
0.661719	1.359851
0.661816	1.388046
0.661914	1.420919
0.662012	1.440772
0.662109	1.442164
0.662207	1.461935
0.662305	1.489174
0.662402	1.517892
0.662500	1.547293
0.662598	1.561998
0.662695	1.573316
0.662793	1.564162
0.662891	1.555641
0.662988	1.554034
0.663086	1.550913
0.663184	1.548999
0.663281	1.553936
0.663379	1.562383
0.663477	1.566650
0.663574	1.574239
0.663672	1.561759
0.663770	1.542545
0.663867	1.542496
0.663965	1.535045
0.664062	1.520941
0.664160	1.498705
0.664258	1.478206
0.664355	1.466022
0.664453	1.456449
0.664551	1.462293
0.664648	1.442028
0.664746	1.419518
0.664844	1.410781
0.664941	1.388200
0.665039	1.360799
0.665137	1.355261
0.665234	1.384291
0.665332	1.432770
0.665430	1.484276
0.665527	1.514977
0.665625	1.529574
0.665723	1.535203
0.665820	1.540830
0.665918	1.541547
0.666016	1.533070
0.666113	1.525861
0.666211	1.538446
0.666309	1.539147
0.666406	1.552517
0.666504	1.557129
0.666602	1.548556
0.666699	1.533947
0.666797	1.536556
0.666895	1.560448
0.666992	1.590140
0.667090	1.589955
0.667187	1.581158
0.667285	1.581404
0.667383	1.576146
0.667480	1.578571
0.667578	1.547405
0.667676	1.540212
0.667773	1.571668
0.667871	1.549338
0.667969	1.519913
0.668066	1.504770
0.668164	1.487329
0.668262	1.490594
0.668359	1.491105
0.668457	1.479785
0.668555	1.468943
0.668652	1.463369
0.668750	1.455248
0.668848	1.450518
0.668945	1.451978
0.669043	1.465676
0.669141	1.496576
0.669238	1.561628
0.669336	1.607466
0.669434	1.606047
0.669531	1.628787
0.669629	1.584244
0.669727	1.568918
0.669824	1.589559
0.669922	1.607839
0.670020	1.621671
0.670117	1.619523
0.670215	1.611302
0.670312	1.583655
0.670410	1.595865
0.670508	1.570324
0.670605	1.523062
0.670703	1.495432
0.670801	1.489995
0.670898	1.487006
0.670996	1.487277
0.671094	1.471145
0.671191	1.426487
0.671289	1.406862
0.671387	1.409966
0.671484	1.441256
0.671582	1.486659
0.671680	1.513089
0.671777	1.527313
0.671875	1.528992
0.671973	1.522897
0.672070	1.510504
0.672168	1.519646
0.672266	1.535910
0.672363	1.551572
0.672461	1.561015
0.672559	1.571056
0.672656	1.591337
0.672754	1.590785
0.672852	1.596723
0.672949	1.590877
0.673047	1.594576
0.673145	1.587213
0.673242	1.556464
0.673340	1.594922
0.673437	1.617910
0.673535	1.600505
0.673633	1.581901
0.673730	1.557010
0.673828	1.537906
0.673926	1.517156
0.674023	1.502664
0.674121	1.494155
0.674219	1.470735
0.674316	1.458214
0.674414	1.467129
0.674512	1.485946
0.674609	1.500235
0.674707	1.501440
0.674805	1.488219
0.674902	1.462862
0.675000	1.436334
0.675098	1.417778
0.675195	1.425706
0.675293	1.431913
0.675391	1.422620
0.675488	1.414932
0.675586	1.438214
0.675684	1.461315
0.675781	1.521268
0.675879	1.548396
0.675977	1.562714
0.676074	1.565222
0.676172	1.554411
0.676270	1.544623
0.676367	1.546110
0.676465	1.513627
0.676562	1.503583
0.676660	1.542271
0.676758	1.557995
0.676855	1.557156
0.676953	1.554266
0.677051	1.539474
0.677148	1.511085
0.677246	1.510362
0.677344	1.520195
0.677441	1.521023
0.677539	1.506412
0.677637	1.497332
0.677734	1.478914
0.677832	1.456802
0.677930	1.431849
0.678027	1.424688
0.678125	1.422486
0.678223	1.432078
0.678320	1.445143
0.678418	1.452080
0.678516	1.452957
0.678613	1.443075
0.678711	1.429887
0.678809	1.414758
0.678906	1.400532
0.679004	1.402072
0.679102	1.410457
0.679199	1.413285
0.679297	1.411581
0.679395	1.411368
0.679492	1.411934
0.679590	1.417080
0.679687	1.430671
0.679785	1.441203
0.679883	1.439622
0.679980	1.427310
0.680078	1.415259
0.680176	1.408089
0.680273	1.405963
0.680371	1.404304
0.680469	1.405008
0.680566	1.402912
0.680664	1.388262
0.680762	1.372207
0.680859	1.357510
0.680957	1.340566
0.681055	1.335319
0.681152	1.319614
0.681250	1.320082
0.681348	1.346237
0.681445	1.346623
0.681543	1.339115
0.681641	1.331871
0.681738	1.312638
0.681836	1.285804
0.681934	1.263470
0.682031	1.255031
0.682129	1.267923
0.682227	1.294760
0.682324	1.316167
0.682422	1.322353
0.682520	1.318524
0.682617	1.314415
0.682715	1.320829
0.682812	1.337956
0.682910	1.359235
0.683008	1.372448
0.683105	1.373638
0.683203	1.371033
0.683301	1.376997
0.683398	1.393521
0.683496	1.409660
0.683594	1.423157
0.683691	1.424790
0.683789	1.412201
0.683887	1.411247
0.683984	1.416006
0.684082	1.415261
0.684180	1.410223
0.684277	1.403643
0.684375	1.398136
0.684473	1.392374
0.684570	1.386652
0.684668	1.381427
0.684766	1.376185
0.684863	1.370316
0.684961	1.364988
0.685059	1.359595
0.685156	1.354166
0.685254	1.347852
0.685352	1.340576
0.685449	1.331903
0.685547	1.322769
0.685645	1.315427
0.685742	1.311520
0.685840	1.309912
0.685937	1.308089
0.686035	1.304959
0.686133	1.299474
0.686230	1.288165
0.686328	1.268108
0.686426	1.244010
0.686523	1.228196
0.686621	1.228721
0.686719	1.239373
0.686816	1.249280
0.686914	1.258127
0.687012	1.271754
0.687109	1.290409
0.687207	1.297420
0.687305	1.296696
0.687402	1.294952
0.687500	1.308001
0.687598	1.339726
0.687695	1.353991
0.687793	1.364744
0.687891	1.376817
0.687988	1.388738
0.688086	1.392046
0.688184	1.390126
0.688281	1.383039
0.688379	1.370970
0.688477	1.356610
0.688574	1.341041
0.688672	1.333572
0.688770	1.340136
0.688867	1.367534
0.688965	1.417109
0.689062	1.444486
0.689160	1.413166
0.689258	1.373513
0.689355	1.367557
0.689453	1.379444
0.689551	1.382725
0.689648	1.388890
0.689746	1.404824
0.689844	1.402432
0.689941	1.408967
0.690039	1.428220
0.690137	1.443669
0.690234	1.470616
0.690332	1.485082
0.690430	1.495641
0.690527	1.499624
0.690625	1.493664
0.690723	1.489280
0.690820	1.484854
0.690918	1.477466
0.691016	1.457514
0.691113	1.455483
0.691211	1.459186
0.691309	1.450820
0.691406	1.429354
0.691504	1.421496
0.691602	1.454226
0.691699	1.447118
0.691797	1.449256
0.691895	1.447599
0.691992	1.457135
0.692090	1.477864
0.692187	1.484311
0.692285	1.476359
0.692383	1.466413
0.692480	1.484836
0.692578	1.526750
0.692676	1.508491
0.692773	1.507329
0.692871	1.539988
0.692969	1.542804
0.693066	1.549412
0.693164	1.535329
0.693262	1.542905
0.693359	1.537498
0.693457	1.531287
0.693555	1.511723
0.693652	1.499909
0.693750	1.520491
0.693848	1.516777
0.693945	1.499260
0.694043	1.520716
0.694141	1.550312
0.694238	1.579277
0.694336	1.573452
0.694434	1.509784
0.694531	1.513123
0.694629	1.553765
0.694727	1.586638
0.694824	1.592072
0.694922	1.593106
0.695020	1.596756
0.695117	1.596547
0.695215	1.586456
0.695312	1.571044
0.695410	1.576921
0.695508	1.573974
0.695605	1.569174
0.695703	1.564818
0.695801	1.564804
0.695898	1.554393
0.695996	1.537994
0.696094	1.529977
0.696191	1.529974
0.696289	1.540557
0.696387	1.512377
0.696484	1.508079
0.696582	1.535347
0.696680	1.533588
0.696777	1.536454
0.696875	1.528867
0.696973	1.539775
0.697070	1.544221
0.697168	1.536143
0.697266	1.539633
0.697363	1.520915
0.697461	1.524295
0.697559	1.556514
0.697656	1.568244
0.697754	1.578309
0.697852	1.586728
0.697949	1.591336
0.698047	1.578135
0.698145	1.569970
0.698242	1.571244
0.698340	1.594470
0.698437	1.590213
0.698535	1.585868
0.698633	1.601903
0.698730	1.612207
0.698828	1.605286
0.698926	1.615431
0.699023	1.623447
0.699121	1.608438
0.699219	1.607908
0.699316	1.605988
0.699414	1.610431
0.699512	1.606649
0.699609	1.605831
0.699707	1.599570
0.699805	1.598787
0.699902	1.595703
0.700000	1.602294
0.700098	1.591068
0.700195	1.583981
0.700293	1.581669
0.700391	1.569816
0.700488	1.566596
0.700586	1.581190
0.700684	1.594715
0.700781	1.593681
0.700879	1.590187
0.700977	1.590042
0.701074	1.582820
0.701172	1.578780
0.701270	1.613444
0.701367	1.626302
0.701465	1.639880
0.701562	1.655337
0.701660	1.647849
0.701758	1.622312
0.701855	1.607402
0.701953	1.608342
0.702051	1.619367
0.702148	1.621727
0.702246	1.625735
0.702344	1.584888
0.702441	1.566166
0.702539	1.568820
0.702637	1.579303
0.702734	1.568174
0.702832	1.549770
0.702930	1.525993
0.703027	1.517296
0.703125	1.519218
0.703223	1.566247
0.703320	1.587600
0.703418	1.547143
0.703516	1.566957
0.703613	1.581231
0.703711	1.599504
0.703809	1.602599
0.703906	1.577680
0.704004	1.551796
0.704102	1.565120
0.704199	1.593096
0.704297	1.581644
0.704395	1.569379
0.704492	1.564154
0.704590	1.592471
0.704687	1.591200
0.704785	1.558131
0.704883	1.513255
0.704980	1.485023
0.705078	1.540523
0.705176	1.579516
0.705273	1.575588
0.705371	1.569905
0.705469	1.580210
0.705566	1.566957
0.705664	1.538598
0.705762	1.532593
0.705859	1.536415
0.705957	1.544521
0.706055	1.548041
0.706152	1.559027
0.706250	1.553933
0.706348	1.537380
0.706445	1.537171
0.706543	1.523806
0.706641	1.527435
0.706738	1.503729
0.706836	1.497493
0.706934	1.514977
0.707031	1.482632
0.707129	1.449843
0.707227	1.418591
0.707324	1.406179
0.707422	1.423429
0.707520	1.468426
0.707617	1.487922
0.707715	1.531284
0.707812	1.549597
0.707910	1.549564
0.708008	1.584947
0.708105	1.561601
0.708203	1.532809
0.708301	1.507549
0.708398	1.501287
0.708496	1.493770
0.708594	1.465391
0.708691	1.440844
0.708789	1.434052
0.708887	1.463565
0.708984	1.504004
0.709082	1.511182
0.709180	1.513482
0.709277	1.541011
0.709375	1.573725
0.709473	1.590305
0.709570	1.606144
0.709668	1.597844
0.709766	1.575481
0.709863	1.563923
0.709961	1.560761
0.710059	1.540795
0.710156	1.522839
0.710254	1.540192
0.710352	1.592997
0.710449	1.591104
0.710547	1.572816
0.710645	1.576049
0.710742	1.567319
0.710840	1.555725
0.710937	1.568869
0.711035	1.571355
0.711133	1.587500
0.711230	1.570640
0.711328	1.565197
0.711426	1.559554
0.711523	1.555115
0.711621	1.534851
0.711719	1.509386
0.711816	1.491876
0.711914	1.516799
0.712012	1.563475
0.712109	1.591085
0.712207	1.639205
0.712305	1.659644
0.712402	1.668536
0.712500	1.657298
0.712598	1.650115
0.712695	1.673275
0.712793	1.677582
0.712891	1.673017
0.712988	1.654679
0.713086	1.627439
0.713184	1.608445
0.713281	1.597073
0.713379	1.613617
0.713477	1.619114
0.713574	1.620257
0.713672	1.596956
0.713770	1.605794
0.713867	1.619552
0.713965	1.606680
0.714062	1.597552
0.714160	1.581837
0.714258	1.567115
0.714355	1.590501
0.714453	1.628613
0.714551	1.639146
0.714648	1.644995
0.714746	1.650145
0.714844	1.663092
0.714941	1.656456
0.715039	1.634503
0.715137	1.612985
0.715234	1.613916
0.715332	1.619612
0.715430	1.621685
0.715527	1.621835
0.715625	1.622710
0.715723	1.624819
0.715820	1.618945
0.715918	1.613274
0.716016	1.614248
0.716113	1.624726
0.716211	1.630941
0.716309	1.628784
0.716406	1.625386
0.716504	1.629635
0.716602	1.636123
0.716699	1.639985
0.716797	1.639265
0.716895	1.638062
0.716992	1.612301
0.717090	1.585590
0.717187	1.583654
0.717285	1.564280
0.717383	1.549862
0.717480	1.573281
0.717578	1.595752
0.717676	1.594457
0.717773	1.563839
0.717871	1.575350
0.717969	1.598723
0.718066	1.601047
0.718164	1.600109
0.718262	1.585496
0.718359	1.560870
0.718457	1.561655
0.718555	1.542447
0.718652	1.539469
0.718750	1.531864
0.718848	1.543106
0.718945	1.581443
0.719043	1.560710
0.719141	1.578550
0.719238	1.547907
0.719336	1.538301
0.719434	1.557468
0.719531	1.549395
0.719629	1.545460
0.719727	1.530791
0.719824	1.534245
0.719922	1.511380
0.720020	1.477655
0.720117	1.478620
0.720215	1.488728
0.720312	1.512019
0.720410	1.501546
0.720508	1.502685
0.720605	1.518298
0.720703	1.498531
0.720801	1.499962
0.720898	1.502744
0.720996	1.517865
0.721094	1.506950
0.721191	1.500242
0.721289	1.509975
0.721387	1.511317
0.721484	1.497653
0.721582	1.518139
0.721680	1.632279
0.721777	1.587863
0.721875	1.532650
0.721973	1.544168
0.722070	1.532844
0.722168	1.543648
0.722266	1.545379
0.722363	1.506133
0.722461	1.487635
0.722559	1.494508
0.722656	1.493666
0.722754	1.522723
0.722852	1.561204
0.722949	1.591453
0.723047	1.576542
0.723145	1.570635
0.723242	1.566991
0.723340	1.543066
0.723437	1.529640
0.723535	1.535451
0.723633	1.537033
0.723730	1.524550
0.723828	1.490527
0.723926	1.465283
0.724023	1.440933
0.724121	1.436037
0.724219	1.419979
0.724316	1.400297
0.724414	1.393461
0.724512	1.411096
0.724609	1.417961
0.724707	1.406383
0.724805	1.390129
0.724902	1.379659
0.725000	1.372006
0.725098	1.362772
0.725195	1.359052
0.725293	1.357647
0.725391	1.369316
0.725488	1.380495
0.725586	1.397981
0.725684	1.425068
0.725781	1.465066
0.725879	1.470716
0.725977	1.452437
0.726074	1.467686
0.726172	1.510583
0.726270	1.521308
0.726367	1.524248
0.726465	1.538086
0.726562	1.538151
0.726660	1.543716
0.726758	1.551328
0.726855	1.529665
0.726953	1.522875
0.727051	1.508708
0.727148	1.467390
0.727246	1.458055
0.727344	1.492358
0.727441	1.540101
0.727539	1.550556
0.727637	1.539206
0.727734	1.512542
0.727832	1.485016
0.727930	1.463123
0.728027	1.438322
0.728125	1.425848
0.728223	1.466768
0.728320	1.489591
0.728418	1.442451
0.728516	1.373154
0.728613	1.341888
0.728711	1.354355
0.728809	1.343986
0.728906	1.329424
0.729004	1.318181
0.729102	1.312584
0.729199	1.367308
0.729297	1.386938
0.729395	1.366222
0.729492	1.386359
0.729590	1.397170
0.729687	1.368186
0.729785	1.353139
0.729883	1.416352
0.729980	1.476116
0.730078	1.514043
0.730176	1.542737
0.730273	1.543463
0.730371	1.540912
0.730469	1.519238
0.730566	1.513115
0.730664	1.536001
0.730762	1.535451
0.730859	1.515727
0.730957	1.498962
0.731055	1.481749
0.731152	1.462095
0.731250	1.444439
0.731348	1.440011
0.731445	1.518459
0.731543	1.585093
0.731641	1.599351
0.731738	1.616442
0.731836	1.628116
0.731934	1.635841
0.732031	1.629728
0.732129	1.625196
0.732227	1.624893
0.732324	1.639696
0.732422	1.657794
0.732520	1.658620
0.732617	1.651448
0.732715	1.656108
0.732812	1.659201
0.732910	1.655808
0.733008	1.660758
0.733105	1.676949
0.733203	1.666511
0.733301	1.656286
0.733398	1.649884
0.733496	1.652125
0.733594	1.652516
0.733691	1.652287
0.733789	1.656351
0.733887	1.652046
0.733984	1.628221
0.734082	1.601601
0.734180	1.603639
0.734277	1.629862
0.734375	1.650632
0.734473	1.660282
0.734570	1.658054
0.734668	1.652373
0.734766	1.655766
0.734863	1.667411
0.734961	1.663418
0.735059	1.660807
0.735156	1.653293
0.735254	1.647147
0.735352	1.651391
0.735449	1.641712
0.735547	1.625596
0.735645	1.627734
0.735742	1.627439
0.735840	1.601211
0.735937	1.589746
0.736035	1.561185
0.736133	1.558054
0.736230	1.564282
0.736328	1.576697
0.736426	1.570669
0.736523	1.559190
0.736621	1.547671
0.736719	1.553689
0.736816	1.549512
0.736914	1.549237
0.737012	1.570462
0.737109	1.589901
0.737207	1.568277
0.737305	1.549239
0.737402	1.550106
0.737500	1.586904
0.737598	1.655358
0.737695	1.651138
0.737793	1.649956
0.737891	1.629895
0.737988	1.635400
0.738086	1.650924
0.738184	1.658248
0.738281	1.664473
0.738379	1.691838
0.738477	1.672397
0.738574	1.638441
0.738672	1.608273
0.738770	1.597385
0.738867	1.602494
0.738965	1.587978
0.739062	1.573306
0.739160	1.567860
0.739258	1.565663
0.739355	1.572371
0.739453	1.605873
0.739551	1.639968
0.739648	1.648358
0.739746	1.647402
0.739844	1.643489
0.739941	1.640913
0.740039	1.637253
0.740137	1.628732
0.740234	1.624625
0.740332	1.623417
0.740430	1.602194
0.740527	1.578981
0.740625	1.596470
0.740723	1.601939
0.740820	1.598893
0.740918	1.581681
0.741016	1.584560
0.741113	1.616726
0.741211	1.628298
0.741309	1.633972
0.741406	1.630157
0.741504	1.641051
0.741602	1.640428
0.741699	1.637986
0.741797	1.616869
0.741895	1.596182
0.741992	1.571549
0.742090	1.577503
0.742187	1.615733
0.742285	1.626488
0.742383	1.628446
0.742480	1.615394
0.742578	1.626917
0.742676	1.629199
0.742773	1.632823
0.742871	1.629854
0.742969	1.594888
0.743066	1.576633
0.743164	1.570404
0.743262	1.568850
0.743359	1.554647
0.743457	1.544449
0.743555	1.521879
0.743652	1.498576
0.743750	1.475310
0.743848	1.459346
0.743945	1.443157
0.744043	1.440777
0.744141	1.452252
0.744238	1.476985
0.744336	1.494264
0.744434	1.492539
0.744531	1.471982
0.744629	1.439877
0.744727	1.409810
0.744824	1.383591
0.744922	1.366823
0.745020	1.355202
0.745117	1.349577
0.745215	1.346623
0.745312	1.354290
0.745410	1.381881
0.745508	1.410590
0.745605	1.443340
0.745703	1.469146
0.745801	1.480412
0.745898	1.495934
0.745996	1.497202
0.746094	1.498533
0.746191	1.486539
0.746289	1.458907
0.746387	1.457757
0.746484	1.486166
0.746582	1.501281
0.746680	1.511183
0.746777	1.532385
0.746875	1.537156
0.746973	1.537593
0.747070	1.554363
0.747168	1.553779
0.747266	1.556367
0.747363	1.543489
0.747461	1.510531
0.747559	1.495509
0.747656	1.485809
0.747754	1.478297
0.747852	1.468097
0.747949	1.473732
0.748047	1.484649
0.748145	1.489746
0.748242	1.494301
0.748340	1.500335
0.748437	1.505802
0.748535	1.499601
0.748633	1.526020
0.748730	1.549869
0.748828	1.561244
0.748926	1.578555
0.749023	1.581019
0.749121	1.587511
0.749219	1.621784
0.749316	1.617282
0.749414	1.612007
0.749512	1.613546
0.749609	1.612498
0.749707	1.613319
0.749805	1.611251
0.749902	1.612435
0.750000	1.604282
0.750098	1.607474
0.750195	1.589069
0.750293	1.557649
0.750391	1.526269
0.750488	1.512356
0.750586	1.520343
0.750684	1.506693
0.750781	1.507174
0.750879	1.508878
0.750977	1.538514
0.751074	1.538902
0.751172	1.537663
0.751270	1.531404
0.751367	1.557866
0.751465	1.598332
0.751562	1.599608
0.751660	1.598153
0.751758	1.561424
0.751855	1.530175
0.751953	1.513988
0.752051	1.514285
0.752148	1.518669
0.752246	1.501837
0.752344	1.478396
0.752441	1.474821
0.752539	1.515034
0.752637	1.558389
0.752734	1.567883
0.752832	1.556758
0.752930	1.559834
0.753027	1.582043
0.753125	1.557445
0.753223	1.525190
0.753320	1.489721
0.753418	1.483303
0.753516	1.537264
0.753613	1.554045
0.753711	1.561535
0.753809	1.549465
0.753906	1.558474
0.754004	1.547506
0.754102	1.535396
0.754199	1.513718
0.754297	1.496539
0.754395	1.506915
0.754492	1.491191
0.754590	1.473719
0.754687	1.463522
0.754785	1.475162
0.754883	1.487346
0.754980	1.477217
0.755078	1.455353
0.755176	1.450828
0.755273	1.459938
0.755371	1.462993
0.755469	1.462988
0.755566	1.449240
0.755664	1.427549
0.755762	1.415768
0.755859	1.403811
0.755957	1.378752
0.756055	1.349487
0.756152	1.348834
0.756250	1.420343
0.756348	1.470952
0.756445	1.459792
0.756543	1.458007
0.756641	1.468268
0.756738	1.470707
0.756836	1.469136
0.756934	1.498517
0.757031	1.515688
0.757129	1.523669
0.757227	1.542047
0.757324	1.559944
0.757422	1.570914
0.757520	1.569134
0.757617	1.558200
0.757715	1.536141
0.757812	1.561006
0.757910	1.563959
0.758008	1.550635
0.758105	1.530356
0.758203	1.523444
0.758301	1.517994
0.758398	1.503688
0.758496	1.483273
0.758594	1.478283
0.758691	1.471878
0.758789	1.473753
0.758887	1.473018
0.758984	1.489361
0.759082	1.507578
0.759180	1.507975
0.759277	1.540261
0.759375	1.540619
0.759473	1.545374
0.759570	1.568986
0.759668	1.593000
0.759766	1.593251
0.759863	1.586094
0.759961	1.563312
0.760059	1.564580
0.760156	1.575523
0.760254	1.571304
0.760352	1.566709
0.760449	1.548292
0.760547	1.530822
0.760645	1.509236
0.760742	1.493515
0.760840	1.480520
0.760937	1.467310
0.761035	1.452276
0.761133	1.474510
0.761230	1.449393
0.761328	1.499540
0.761426	1.574971
0.761523	1.605132
0.761621	1.615384
0.761719	1.600316
0.761816	1.609851
0.761914	1.609345
0.762012	1.608877
0.762109	1.609114
0.762207	1.613817
0.762305	1.594486
0.762402	1.586158
0.762500	1.572255
0.762598	1.552627
0.762695	1.532601
0.762793	1.521455
0.762891	1.511671
0.762988	1.491725
0.763086	1.479360
0.763184	1.495106
0.763281	1.528775
0.763379	1.518275
0.763477	1.523551
0.763574	1.593202
0.763672	1.611816
0.763770	1.612412
0.763867	1.617902
0.763965	1.602401
0.764062	1.603958
0.764160	1.619499
0.764258	1.619695
0.764355	1.593621
0.764453	1.596063
0.764551	1.632870
0.764648	1.636657
0.764746	1.636993
0.764844	1.630258
0.764941	1.637938
0.765039	1.623924
0.765137	1.606369
0.765234	1.583288
0.765332	1.584058
0.765430	1.580361
0.765527	1.582237
0.765625	1.573242
0.765723	1.542487
0.765820	1.541990
0.765918	1.545677
0.766016	1.557717
0.766113	1.555721
0.766211	1.527891
0.766309	1.475489
0.766406	1.438853
0.766504	1.408167
0.766602	1.404443
0.766699	1.423290
0.766797	1.447581
0.766895	1.474795
0.766992	1.486863
0.767090	1.524822
0.767187	1.546382
0.767285	1.554495
0.767383	1.559930
0.767480	1.574376
0.767578	1.602758
0.767676	1.614725
0.767773	1.598271
0.767871	1.572444
0.767969	1.550859
0.768066	1.552217
0.768164	1.552878
0.768262	1.543193
0.768359	1.529842
0.768457	1.513094
0.768555	1.567191
0.768652	1.581039
0.768750	1.583497
0.768848	1.610983
0.768945	1.620742
0.769043	1.633216
0.769141	1.608365
0.769238	1.591183
0.769336	1.578727
0.769434	1.589687
0.769531	1.624972
0.769629	1.633843
0.769727	1.670781
0.769824	1.652590
0.769922	1.664463
0.770020	1.688873
0.770117	1.665227
0.770215	1.669444
0.770312	1.653898
0.770410	1.657597
0.770508	1.678767
0.770605	1.682301
0.770703	1.689240
0.770801	1.696505
0.770898	1.676909
0.770996	1.668339
0.771094	1.644953
0.771191	1.612542
0.771289	1.646330
0.771387	1.656911
0.771484	1.668821
0.771582	1.653742
0.771680	1.660962
0.771777	1.676510
0.771875	1.667924
0.771973	1.666213
0.772070	1.662501
0.772168	1.667380
0.772266	1.650212
0.772363	1.645613
0.772461	1.635861
0.772559	1.632254
0.772656	1.616077
0.772754	1.611778
0.772852	1.609649
0.772949	1.610268
0.773047	1.624433
0.773145	1.628439
0.773242	1.637803
0.773340	1.633460
0.773437	1.633452
0.773535	1.636969
0.773633	1.642698
0.773730	1.646362
0.773828	1.646137
0.773926	1.652626
0.774023	1.657719
0.774121	1.652277
0.774219	1.650236
0.774316	1.631647
0.774414	1.636362
0.774512	1.646578
0.774609	1.643866
0.774707	1.650760
0.774805	1.639270
0.774902	1.622534
0.775000	1.630415
0.775098	1.621304
0.775195	1.613521
0.775293	1.599405
0.775391	1.578402
0.775488	1.559611
0.775586	1.584384
0.775684	1.582831
0.775781	1.575206
0.775879	1.571466
0.775977	1.570952
0.776074	1.564630
0.776172	1.560308
0.776270	1.536295
0.776367	1.514587
0.776465	1.538243
0.776562	1.566722
0.776660	1.567288
0.776758	1.543330
0.776855	1.539654
0.776953	1.553381
0.777051	1.553219
0.777148	1.548452
0.777246	1.535164
0.777344	1.522499
0.777441	1.509663
0.777539	1.503773
0.777637	1.488534
0.777734	1.472185
0.777832	1.462857
0.777930	1.454891
0.778027	1.441803
0.778125	1.465979
0.778223	1.490351
0.778320	1.509410
0.778418	1.534967
0.778516	1.516746
0.778613	1.543762
0.778711	1.560797
0.778809	1.569689
0.778906	1.555846
0.779004	1.545445
0.779102	1.555616
0.779199	1.554349
0.779297	1.542274
0.779395	1.531407
0.779492	1.528544
0.779590	1.544554
0.779687	1.567725
0.779785	1.559995
0.779883	1.536049
0.779980	1.527059
0.780078	1.531956
0.780176	1.498478
0.780273	1.492494
0.780371	1.506604
0.780469	1.534716
0.780566	1.553807
0.780664	1.554765
0.780762	1.534303
0.780859	1.549759
0.780957	1.576420
0.781055	1.568576
0.781152	1.604683
0.781250	1.612216
0.781348	1.597193
0.781445	1.593236
0.781543	1.575585
0.781641	1.578914
0.781738	1.592117
0.781836	1.592301
0.781934	1.580271
0.782031	1.566386
0.782129	1.570965
0.782227	1.567378
0.782324	1.568464
0.782422	1.566388
0.782520	1.562410
0.782617	1.549511
0.782715	1.538677
0.782812	1.556450
0.782910	1.551278
0.783008	1.539480
0.783105	1.537520
0.783203	1.519841
0.783301	1.514906
0.783398	1.540335
0.783496	1.553189
0.783594	1.557774
0.783691	1.563312
0.783789	1.566477
0.783887	1.579070
0.783984	1.585263
0.784082	1.587179
0.784180	1.548127
0.784277	1.530848
0.784375	1.530519
0.784473	1.543190
0.784570	1.556732
0.784668	1.560281
0.784766	1.546535
0.784863	1.555131
0.784961	1.576884
0.785059	1.579835
0.785156	1.573631
0.785254	1.575864
0.785352	1.562792
0.785449	1.560820
0.785547	1.553732
0.785645	1.561347
0.785742	1.571773
0.785840	1.564623
0.785937	1.566965
0.786035	1.590306
0.786133	1.603360
0.786230	1.605805
0.786328	1.584327
0.786426	1.546171
0.786523	1.517388
0.786621	1.489044
0.786719	1.451828
0.786816	1.434173
0.786914	1.448326
0.787012	1.459821
0.787109	1.490536
0.787207	1.497019
0.787305	1.476930
0.787402	1.452620
0.787500	1.450122
0.787598	1.459244
0.787695	1.469359
0.787793	1.490598
0.787891	1.488407
0.787988	1.490372
0.788086	1.464469
0.788184	1.452535
0.788281	1.459493
0.788379	1.439728
0.788477	1.421374
0.788574	1.499705
0.788672	1.511444
0.788770	1.492917
0.788867	1.471506
0.788965	1.489691
0.789062	1.521579
0.789160	1.530095
0.789258	1.539282
0.789355	1.550024
0.789453	1.555848
0.789551	1.557070
0.789648	1.570964
0.789746	1.575722
0.789844	1.564050
0.789941	1.546324
0.790039	1.548684
0.790137	1.537838
0.790234	1.555853
0.790332	1.556075
0.790430	1.509759
0.790527	1.478610
0.790625	1.479700
0.790723	1.476443
0.790820	1.459865
0.790918	1.441453
0.791016	1.415475
0.791113	1.415156
0.791211	1.421755
0.791309	1.426005
0.791406	1.427220
0.791504	1.451167
0.791602	1.493428
0.791699	1.532670
0.791797	1.550352
0.791895	1.588356
0.791992	1.598779
0.792090	1.571515
0.792187	1.598219
0.792285	1.577035
0.792383	1.548439
0.792480	1.578724
0.792578	1.612717
0.792676	1.624982
0.792773	1.620324
0.792871	1.625926
0.792969	1.642864
0.793066	1.661460
0.793164	1.658392
0.793262	1.659734
0.793359	1.660261
0.793457	1.644692
0.793555	1.645261
0.793652	1.653317
0.793750	1.660969
0.793848	1.648440
0.793945	1.631083
0.794043	1.631182
0.794141	1.635325
0.794238	1.614580
0.794336	1.613198
0.794434	1.611444
0.794531	1.610747
0.794629	1.591373
0.794727	1.577334
0.794824	1.588499
0.794922	1.587929
0.795020	1.585644
0.795117	1.587395
0.795215	1.586958
0.795312	1.588055
0.795410	1.591625
0.795508	1.577988
0.795605	1.638837
0.795703	1.678056
0.795801	1.653048
0.795898	1.637466
0.795996	1.627246
0.796094	1.643808
0.796191	1.594932
0.796289	1.574312
0.796387	1.570150
0.796484	1.590767
0.796582	1.583782
0.796680	1.576021
0.796777	1.550395
0.796875	1.557887
0.796973	1.628172
0.797070	1.641677
0.797168	1.637120
0.797266	1.636951
0.797363	1.638566
0.797461	1.655136
0.797559	1.653797
0.797656	1.647127
0.797754	1.636441
0.797852	1.631417
0.797949	1.631975
0.798047	1.634570
0.798145	1.623624
0.798242	1.610813
0.798340	1.624154
0.798437	1.607301
0.798535	1.590424
0.798633	1.582383
0.798730	1.581003
0.798828	1.612226
0.798926	1.603136
0.799023	1.604588
0.799121	1.608528
0.799219	1.574563
0.799316	1.557097
0.799414	1.559809
0.799512	1.552144
0.799609	1.537394
0.799707	1.526699
0.799805	1.546993
0.799902	1.555570
0.800000	1.556633
0.800098	1.555216
0.800195	1.554737
0.800293	1.550644
0.800391	1.536067
0.800488	1.519526
0.800586	1.502977
0.800684	1.497796
0.800781	1.504814
0.800879	1.517289
0.800977	1.516680
0.801074	1.505755
0.801172	1.490631
0.801270	1.477342
0.801367	1.459425
0.801465	1.449199
0.801562	1.438304
0.801660	1.438798
0.801758	1.449375
0.801855	1.439868
0.801953	1.408950
0.802051	1.394147
0.802148	1.402298
0.802246	1.395370
0.802344	1.397059
0.802441	1.413620
0.802539	1.435941
0.802637	1.441052
0.802734	1.437797
0.802832	1.439924
0.802930	1.466553
0.803027	1.495859
0.803125	1.512661
0.803223	1.502624
0.803320	1.488133
0.803418	1.477522
0.803516	1.480368
0.803613	1.486241
0.803711	1.494838
0.803809	1.511159
0.803906	1.511382
0.804004	1.519940
0.804102	1.531403
0.804199	1.565061
0.804297	1.536578
0.804395	1.538906
0.804492	1.584626
0.804590	1.597560
0.804687	1.592903
0.804785	1.604902
0.804883	1.612932
0.804980	1.625727
0.805078	1.587556
0.805176	1.596477
0.805273	1.622306
0.805371	1.600528
0.805469	1.608062
0.805566	1.608200
0.805664	1.639700
0.805762	1.669556
0.805859	1.662479
0.805957	1.643807
0.806055	1.630675
0.806152	1.582074
0.806250	1.552127
0.806348	1.552926
0.806445	1.579236
0.806543	1.608376
0.806641	1.624828
0.806738	1.628787
0.806836	1.618591
0.806934	1.620664
0.807031	1.629571
0.807129	1.620884
0.807227	1.609167
0.807324	1.603481
0.807422	1.567770
0.807520	1.554181
0.807617	1.564316
0.807715	1.578212
0.807812	1.600107
0.807910	1.617523
0.808008	1.598630
0.808105	1.593092
0.808203	1.581237
0.808301	1.566237
0.808398	1.544011
0.808496	1.549850
0.808594	1.551898
0.808691	1.547507
0.808789	1.547660
0.808887	1.557281
0.808984	1.587299
0.809082	1.616358
0.809180	1.617074
0.809277	1.614858
0.809375	1.614593
0.809473	1.613970
0.809570	1.611438
0.809668	1.603951
0.809766	1.608290
0.809863	1.617706
0.809961	1.623001
0.810059	1.625802
0.810156	1.628234
0.810254	1.629169
0.810352	1.627523
0.810449	1.612127
0.810547	1.607952
0.810645	1.629336
0.810742	1.650687
0.810840	1.635794
0.810937	1.638509
0.811035	1.644165
0.811133	1.638722
0.811230	1.624158
0.811328	1.594699
0.811426	1.590010
0.811523	1.568540
0.811621	1.575931
0.811719	1.610327
0.811816	1.612648
0.811914	1.642302
0.812012	1.631993
0.812109	1.626118
0.812207	1.652252
0.812305	1.675456
0.812402	1.685516
0.812500	1.682250
0.812598	1.677547
0.812695	1.682649
0.812793	1.669058
0.812891	1.650925
0.812988	1.646590
0.813086	1.655986
0.813184	1.687479
0.813281	1.679165
0.813379	1.650757
0.813477	1.644404
0.813574	1.648122
0.813672	1.655625
0.813770	1.662559
0.813867	1.656682
0.813965	1.636433
0.814062	1.627558
0.814160	1.615408
0.814258	1.642823
0.814355	1.665028
0.814453	1.642541
0.814551	1.641212
0.814648	1.621384
0.814746	1.602844
0.814844	1.604345
0.814941	1.587983
0.815039	1.591474
0.815137	1.586445
0.815234	1.574178
0.815332	1.559232
0.815430	1.559615
0.815527	1.540137
0.815625	1.496956
0.815723	1.511926
0.815820	1.555076
0.815918	1.550340
0.816016	1.538181
0.816113	1.569843
0.816211	1.583521
0.816309	1.595169
0.816406	1.593544
0.816504	1.583291
0.816602	1.570834
0.816699	1.553760
0.816797	1.531152
0.816895	1.522835
0.816992	1.523950
0.817090	1.511073
0.817187	1.500326
0.817285	1.534278
0.817383	1.545197
0.817480	1.550832
0.817578	1.560385
0.817676	1.571221
0.817773	1.570942
0.817871	1.571211
0.817969	1.588667
0.818066	1.578208
0.818164	1.559925
0.818262	1.558819
0.818359	1.567615
0.818457	1.598792
0.818555	1.566489
0.818652	1.576458
0.818750	1.638042
0.818848	1.633813
0.818945	1.626163
0.819043	1.631080
0.819141	1.667154
0.819238	1.655225
0.819336	1.637089
0.819434	1.626591
0.819531	1.623562
0.819629	1.629477
0.819727	1.621097
0.819824	1.617837
0.819922	1.635503
0.820020	1.615539
0.820117	1.568328
0.820215	1.534650
0.820312	1.515204
0.820410	1.511206
0.820508	1.509064
0.820605	1.512305
0.820703	1.547626
0.820801	1.556513
0.820898	1.565364
0.820996	1.544752
0.821094	1.535420
0.821191	1.535337
0.821289	1.537437
0.821387	1.531240
0.821484	1.529419
0.821582	1.499557
0.821680	1.480899
0.821777	1.508415
0.821875	1.516096
0.821973	1.509176
0.822070	1.501900
0.822168	1.501520
0.822266	1.504945
0.822363	1.512035
0.822461	1.505129
0.822559	1.490621
0.822656	1.485535
0.822754	1.508210
0.822852	1.519443
0.822949	1.524857
0.823047	1.498100
0.823145	1.501358
0.823242	1.559623
0.823340	1.585676
0.823437	1.597413
0.823535	1.608908
0.823633	1.597451
0.823730	1.577174
0.823828	1.571963
0.823926	1.550871
0.824023	1.568066
0.824121	1.624019
0.824219	1.629979
0.824316	1.637374
0.824414	1.637210
0.824512	1.638200
0.824609	1.634864
0.824707	1.641106
0.824805	1.647317
0.824902	1.647709
0.825000	1.655268
0.825098	1.653200
0.825195	1.658007
0.825293	1.654462
0.825391	1.645786
0.825488	1.642869
0.825586	1.639291
0.825684	1.643670
0.825781	1.667832
0.825879	1.661237
0.825977	1.650403
0.826074	1.625166
0.826172	1.614597
0.826270	1.597465
0.826367	1.586404
0.826465	1.590914
0.826562	1.587907
0.826660	1.609081
0.826758	1.595544
0.826855	1.578109
0.826953	1.599523
0.827051	1.620676
0.827148	1.599815
0.827246	1.603315
0.827344	1.601208
0.827441	1.619364
0.827539	1.616671
0.827637	1.590238
0.827734	1.597808
0.827832	1.590102
0.827930	1.576203
0.828027	1.548071
0.828125	1.548062
0.828223	1.553949
0.828320	1.573812
0.828418	1.586378
0.828516	1.565270
0.828613	1.555353
0.828711	1.526101
0.828809	1.535598
0.828906	1.562321
0.829004	1.526947
0.829102	1.571446
0.829199	1.645193
0.829297	1.662896
0.829395	1.669046
0.829492	1.681057
0.829590	1.688653
0.829687	1.695594
0.829785	1.700610
0.829883	1.707112
0.829980	1.721583
0.830078	1.708762
0.830176	1.687106
0.830273	1.700185
0.830371	1.703007
0.830469	1.687265
0.830566	1.680644
0.830664	1.634964
0.830762	1.664851
0.830859	1.670501
0.830957	1.664167
0.831055	1.681655
0.831152	1.668335
0.831250	1.637380
0.831348	1.603274
0.831445	1.639820
0.831543	1.666600
0.831641	1.651208
0.831738	1.646515
0.831836	1.658974
0.831934	1.657367
0.832031	1.629839
0.832129	1.612393
0.832227	1.634833
0.832324	1.645503
0.832422	1.625241
0.832520	1.615836
0.832617	1.621873
0.832715	1.566838
0.832812	1.570821
0.832910	1.597366
0.833008	1.605397
0.833105	1.598100
0.833203	1.570048
0.833301	1.562018
0.833398	1.601357
0.833496	1.630002
0.833594	1.654539
0.833691	1.658214
0.833789	1.653320
0.833887	1.670617
0.833984	1.679523
0.834082	1.671432
0.834180	1.674603
0.834277	1.676732
0.834375	1.679068
0.834473	1.680270
0.834570	1.672108
0.834668	1.667927
0.834766	1.663181
0.834863	1.666664
0.834961	1.663017
0.835059	1.663860
0.835156	1.682230
0.835254	1.679194
0.835352	1.669659
0.835449	1.662267
0.835547	1.663054
0.835645	1.665559
0.835742	1.663265
0.835840	1.663212
0.835937	1.652437
0.836035	1.644004
0.836133	1.661927
0.836230	1.663009
0.836328	1.647101
0.836426	1.664118
0.836523	1.640870
0.836621	1.634742
0.836719	1.633030
0.836816	1.638692
0.836914	1.637299
0.837012	1.637729
0.837109	1.626249
0.837207	1.612058
0.837305	1.633283
0.837402	1.631085
0.837500	1.635511
0.837598	1.627168
0.837695	1.625554
0.837793	1.625962
0.837891	1.622820
0.837988	1.620856
0.838086	1.626032
0.838184	1.626911
0.838281	1.630562
0.838379	1.631934
0.838477	1.634690
0.838574	1.635471
0.838672	1.637739
0.838770	1.638214
0.838867	1.639413
0.838965	1.637291
0.839062	1.632658
0.839160	1.615557
0.839258	1.593583
0.839355	1.594434
0.839453	1.597629
0.839551	1.592624
0.839648	1.593253
0.839746	1.584396
0.839844	1.608764
0.839941	1.604621
0.840039	1.555326
0.840137	1.570178
0.840234	1.577958
0.840332	1.562289
0.840430	1.546778
0.840527	1.582459
0.840625	1.609185
0.840723	1.588574
0.840820	1.619861
0.840918	1.613504
0.841016	1.618236
0.841113	1.626669
0.841211	1.630777
0.841309	1.626140
0.841406	1.600988
0.841504	1.606836
0.841602	1.628416
0.841699	1.623215
0.841797	1.598611
0.841895	1.641786
0.841992	1.639770
0.842090	1.615557
0.842187	1.602076
0.842285	1.600781
0.842383	1.615293
0.842480	1.604927
0.842578	1.592874
0.842676	1.612897
0.842773	1.624710
0.842871	1.634398
0.842969	1.640027
0.843066	1.613333
0.843164	1.605563
0.843262	1.595398
0.843359	1.605529
0.843457	1.640247
0.843555	1.640270
0.843652	1.620353
0.843750	1.633618
0.843848	1.667480
0.843945	1.675670
0.844043	1.670708
0.844141	1.654956
0.844238	1.655930
0.844336	1.653505
0.844434	1.639999
0.844531	1.636845
0.844629	1.638640
0.844727	1.641197
0.844824	1.634667
0.844922	1.623079
0.845020	1.612465
0.845117	1.607543
0.845215	1.609287
0.845312	1.612996
0.845410	1.615173
0.845508	1.619420
0.845605	1.628688
0.845703	1.633536
0.845801	1.642180
0.845898	1.651469
0.845996	1.657733
0.846094	1.643407
0.846191	1.649896
0.846289	1.663442
0.846387	1.657792
0.846484	1.650574
0.846582	1.664640
0.846680	1.647698
0.846777	1.645428
0.846875	1.647077
0.846973	1.646090
0.847070	1.645913
0.847168	1.645676
0.847266	1.646189
0.847363	1.647604
0.847461	1.642970
0.847559	1.640123
0.847656	1.637917
0.847754	1.638098
0.847852	1.628297
0.847949	1.639523
0.848047	1.655518
0.848145	1.648506
0.848242	1.649011
0.848340	1.655371
0.848437	1.655580
0.848535	1.669793
0.848633	1.674321
0.848730	1.646220
0.848828	1.627253
0.848926	1.610462
0.849023	1.617979
0.849121	1.607704
0.849219	1.608097
0.849316	1.592246
0.849414	1.591021
0.849512	1.598575
0.849609	1.588046
0.849707	1.583625
0.849805	1.570137
0.849902	1.550060
0.850000	1.540543
0.850098	1.554825
0.850195	1.579246
0.850293	1.559887
0.850391	1.559236
0.850488	1.551876
0.850586	1.527399
0.850684	1.505692
0.850781	1.498877
0.850879	1.531610
0.850977	1.514290
0.851074	1.498774
0.851172	1.513234
0.851270	1.517162
0.851367	1.508248
0.851465	1.488926
0.851562	1.467470
0.851660	1.466371
0.851758	1.488525
0.851855	1.517564
0.851953	1.537813
0.852051	1.554100
0.852148	1.581680
0.852246	1.591830
0.852344	1.617869
0.852441	1.606043
0.852539	1.595081
0.852637	1.599216
0.852734	1.603214
0.852832	1.621991
0.852930	1.631279
0.853027	1.626669
0.853125	1.605744
0.853223	1.598245
0.853320	1.577648
0.853418	1.587110
0.853516	1.568606
0.853613	1.542534
0.853711	1.522552
0.853809	1.506241
0.853906	1.509869
0.854004	1.514886
0.854102	1.515696
0.854199	1.540631
0.854297	1.597685
0.854395	1.582556
0.854492	1.597678
0.854590	1.591835
0.854687	1.578935
0.854785	1.613647
0.854883	1.621245
0.854980	1.639564
0.855078	1.640728
0.855176	1.667851
0.855273	1.664351
0.855371	1.669043
0.855469	1.673568
0.855566	1.667648
0.855664	1.665803
0.855762	1.666206
0.855859	1.671103
0.855957	1.676243
0.856055	1.674673
0.856152	1.674597
0.856250	1.675862
0.856348	1.668792
0.856445	1.643498
0.856543	1.653236
0.856641	1.624503
0.856738	1.624299
0.856836	1.638795
0.856934	1.648562
0.857031	1.667059
0.857129	1.650080
0.857227	1.649816
0.857324	1.654651
0.857422	1.644447
0.857520	1.626113
0.857617	1.622037
0.857715	1.618155
0.857812	1.596606
0.857910	1.580576
0.858008	1.573218
0.858105	1.564838
0.858203	1.548925
0.858301	1.566095
0.858398	1.602793
0.858496	1.620156
0.858594	1.628518
0.858691	1.626287
0.858789	1.622442
0.858887	1.610752
0.858984	1.603219
0.859082	1.595840
0.859180	1.582429
0.859277	1.570163
0.859375	1.570497
0.859473	1.574756
0.859570	1.566531
0.859668	1.580019
0.859766	1.609259
0.859863	1.605768
0.859961	1.598446
0.860059	1.588372
0.860156	1.588854
0.860254	1.624692
0.860352	1.639460
0.860449	1.622143
0.860547	1.589365
0.860645	1.589422
0.860742	1.575865
0.860840	1.575155
0.860937	1.588152
0.861035	1.588687
0.861133	1.576830
0.861230	1.603672
0.861328	1.624845
0.861426	1.629764
0.861523	1.637271
0.861621	1.636238
0.861719	1.633728
0.861816	1.628668
0.861914	1.621720
0.862012	1.638517
0.862109	1.618777
0.862207	1.593242
0.862305	1.599918
0.862402	1.590607
0.862500	1.585981
0.862598	1.572208
0.862695	1.566120
0.862793	1.601024
0.862891	1.605225
0.862988	1.602270
0.863086	1.584743
0.863184	1.582071
0.863281	1.588051
0.863379	1.585188
0.863477	1.576680
0.863574	1.590852
0.863672	1.603147
0.863770	1.638606
0.863867	1.619537
0.863965	1.590188
0.864062	1.547073
0.864160	1.532903
0.864258	1.541863
0.864355	1.556178
0.864453	1.561169
0.864551	1.568555
0.864648	1.557036
0.864746	1.598898
0.864844	1.614860
0.864941	1.627388
0.865039	1.626506
0.865137	1.590980
0.865234	1.602059
0.865332	1.602964
0.865430	1.571887
0.865527	1.605650
0.865625	1.583921
0.865723	1.597880
0.865820	1.606491
0.865918	1.596092
0.866016	1.591310
0.866113	1.594910
0.866211	1.607715
0.866309	1.622950
0.866406	1.577039
0.866504	1.574799
0.866602	1.582305
0.866699	1.586509
0.866797	1.581313
0.866895	1.556787
0.866992	1.558476
0.867090	1.551711
0.867187	1.559285
0.867285	1.559280
0.867383	1.553910
0.867480	1.519936
0.867578	1.505778
0.867676	1.500822
0.867773	1.494323
0.867871	1.492852
0.867969	1.518138
0.868066	1.557734
0.868164	1.543399
0.868262	1.537888
0.868359	1.548266
0.868457	1.550116
0.868555	1.540941
0.868652	1.544053
0.868750	1.554512
0.868848	1.572658
0.868945	1.592789
0.869043	1.597515
0.869141	1.570752
0.869238	1.561037
0.869336	1.555204
0.869434	1.558311
0.869531	1.569206
0.869629	1.603315
0.869727	1.613204
0.869824	1.614749
0.869922	1.620942
0.870020	1.631661
0.870117	1.635987
0.870215	1.628803
0.870312	1.608637
0.870410	1.583670
0.870508	1.603358
0.870605	1.620403
0.870703	1.615886
0.870801	1.581560
0.870898	1.537389
0.870996	1.548933
0.871094	1.588594
0.871191	1.610856
0.871289	1.632214
0.871387	1.627688
0.871484	1.616615
0.871582	1.660461
0.871680	1.651651
0.871777	1.635047
0.871875	1.607259
0.871973	1.607823
0.872070	1.608745
0.872168	1.628275
0.872266	1.646020
0.872363	1.622044
0.872461	1.615944
0.872559	1.622422
0.872656	1.644699
0.872754	1.664567
0.872852	1.675769
0.872949	1.661725
0.873047	1.672478
0.873145	1.655795
0.873242	1.639986
0.873340	1.628757
0.873437	1.618716
0.873535	1.622840
0.873633	1.620291
0.873730	1.612811
0.873828	1.623561
0.873926	1.640677
0.874023	1.640602
0.874121	1.647220
0.874219	1.633135
0.874316	1.622389
0.874414	1.610588
0.874512	1.613395
0.874609	1.597895
0.874707	1.581578
0.874805	1.578593
0.874902	1.590926
0.875000	1.596044
0.875098	1.603889
0.875195	1.584045
0.875293	1.572346
0.875391	1.575943
0.875488	1.565813
0.875586	1.556148
0.875684	1.561175
0.875781	1.588444
0.875879	1.583883
0.875977	1.571590
0.876074	1.556956
0.876172	1.546838
0.876270	1.510833
0.876367	1.506254
0.876465	1.530427
0.876562	1.487626
0.876660	1.461446
0.876758	1.469404
0.876855	1.482967
0.876953	1.518193
0.877051	1.568696
0.877148	1.603107
0.877246	1.595986
0.877344	1.560943
0.877441	1.544494
0.877539	1.565198
0.877637	1.560828
0.877734	1.533905
0.877832	1.543574
0.877930	1.596225
0.878027	1.597668
0.878125	1.595091
0.878223	1.579845
0.878320	1.578237
0.878418	1.573531
0.878516	1.557569
0.878613	1.557117
0.878711	1.541125
0.878809	1.515036
0.878906	1.486329
0.879004	1.472111
0.879102	1.446893
0.879199	1.455014
0.879297	1.476857
0.879395	1.512954
0.879492	1.519940
0.879590	1.524158
0.879687	1.523189
0.879785	1.521493
0.879883	1.504957
0.879980	1.478763
0.880078	1.472176
0.880176	1.467370
0.880273	1.474808
0.880371	1.479659
0.880469	1.466097
0.880566	1.447962
0.880664	1.477301
0.880762	1.481157
0.880859	1.491312
0.880957	1.508514
0.881055	1.485736
0.881152	1.461401
0.881250	1.499353
0.881348	1.446869
0.881445	1.450867
0.881543	1.470493
0.881641	1.444852
0.881738	1.436013
0.881836	1.478297
0.881934	1.535298
0.882031	1.604025
0.882129	1.606334
0.882227	1.599414
0.882324	1.611047
0.882422	1.623694
0.882520	1.627185
0.882617	1.613442
0.882715	1.621089
0.882812	1.621278
0.882910	1.614137
0.883008	1.616961
0.883105	1.607277
0.883203	1.590901
0.883301	1.570468
0.883398	1.573797
0.883496	1.570169
0.883594	1.558510
0.883691	1.552057
0.883789	1.544673
0.883887	1.528086
0.883984	1.536639
0.884082	1.552494
0.884180	1.535771
0.884277	1.540479
0.884375	1.531095
0.884473	1.521976
0.884570	1.519993
0.884668	1.500643
0.884766	1.479332
0.884863	1.462863
0.884961	1.460319
0.885059	1.479633
0.885156	1.474478
0.885254	1.454594
0.885352	1.430364
0.885449	1.402004
0.885547	1.368199
0.885645	1.337733
0.885742	1.325774
0.885840	1.335513
0.885937	1.364136
0.886035	1.389332
0.886133	1.414667
0.886230	1.443261
0.886328	1.478894
0.886426	1.487729
0.886523	1.489780
0.886621	1.473756
0.886719	1.445552
0.886816	1.373189
0.886914	1.340213
0.887012	1.423339
0.887109	1.489501
0.887207	1.490311
0.887305	1.508603
0.887402	1.571523
0.887500	1.577237
0.887598	1.597604
0.887695	1.603565
0.887793	1.605312
0.887891	1.597755
0.887988	1.594600
0.888086	1.606756
0.888184	1.607265
0.888281	1.609906
0.888379	1.629124
0.888477	1.626472
0.888574	1.613413
0.888672	1.589684
0.888770	1.572489
0.888867	1.577407
0.888965	1.590363
0.889062	1.583081
0.889160	1.589201
0.889258	1.569825
0.889355	1.553751
0.889453	1.533819
0.889551	1.518851
0.889648	1.514236
0.889746	1.503971
0.889844	1.486751
0.889941	1.505043
0.890039	1.566463
0.890137	1.575063
0.890234	1.595896
0.890332	1.586367
0.890430	1.564342
0.890527	1.611239
0.890625	1.611394
0.890723	1.562037
0.890820	1.535225
0.890918	1.568649
0.891016	1.566811
0.891113	1.531091
0.891211	1.512093
0.891309	1.486235
0.891406	1.464319
0.891504	1.437709
0.891602	1.416364
0.891699	1.448665
0.891797	1.509354
0.891895	1.540312
0.891992	1.528287
0.892090	1.531424
0.892187	1.530103
0.892285	1.498603
0.892383	1.463672
0.892480	1.414958
0.892578	1.371433
0.892676	1.370312
0.892773	1.421678
0.892871	1.452572
0.892969	1.429121
0.893066	1.480550
0.893164	1.532539
0.893262	1.506088
0.893359	1.487085
0.893457	1.480077
0.893555	1.482807
0.893652	1.488752
0.893750	1.500935
0.893848	1.497090
0.893945	1.489211
0.894043	1.485293
0.894141	1.477520
0.894238	1.466522
0.894336	1.455659
0.894434	1.454791
0.894531	1.462080
0.894629	1.469731
0.894727	1.482872
0.894824	1.483216
0.894922	1.494034
0.895020	1.501174
0.895117	1.471608
0.895215	1.451257
0.895312	1.428389
0.895410	1.404704
0.895508	1.398036
0.895605	1.401608
0.895703	1.393436
0.895801	1.366619
0.895898	1.346492
0.895996	1.334669
0.896094	1.325950
0.896191	1.318067
0.896289	1.314523
0.896387	1.313518
0.896484	1.317998
0.896582	1.336532
0.896680	1.357292
0.896777	1.351284
0.896875	1.320583
0.896973	1.326581
0.897070	1.358313
0.897168	1.353000
0.897266	1.348903
0.897363	1.356610
0.897461	1.356095
0.897559	1.335764
0.897656	1.298945
0.897754	1.266970
0.897852	1.247422
0.897949	1.234189
0.898047	1.222832
0.898145	1.225030
0.898242	1.266581
0.898340	1.366383
0.898437	1.426438
0.898535	1.435822
0.898633	1.403250
0.898730	1.365660
0.898828	1.352984
0.898926	1.370695
0.899023	1.460623
0.899121	1.487628
0.899219	1.484232
0.899316	1.478489
0.899414	1.471833
0.899512	1.469074
0.899609	1.471143
0.899707	1.487569
0.899805	1.511433
0.899902	1.506365
0.900000	1.490542
0.900098	1.491371
0.900195	1.474937
0.900293	1.448496
0.900391	1.388773
0.900488	1.339747
0.900586	1.393549
0.900684	1.428037
0.900781	1.462999
0.900879	1.477661
0.900977	1.456612
0.901074	1.387314
0.901172	1.359297
0.901270	1.395636
0.901367	1.427285
0.901465	1.440638
0.901562	1.496185
0.901660	1.539584
0.901758	1.529552
0.901855	1.460906
0.901953	1.428155
0.902051	1.447142
0.902148	1.423189
0.902246	1.361914
0.902344	1.333323
0.902441	1.326792
0.902539	1.295347
0.902637	1.278347
0.902734	1.303178
0.902832	1.320968
0.902930	1.386187
0.903027	1.398512
0.903125	1.454656
0.903223	1.522214
0.903320	1.544542
0.903418	1.515231
0.903516	1.519817
0.903613	1.529435
0.903711	1.537862
0.903809	1.529436
0.903906	1.536302
0.904004	1.574583
0.904102	1.613751
0.904199	1.580366
0.904297	1.604851
0.904395	1.593163
0.904492	1.552735
0.904590	1.623286
0.904687	1.632890
0.904785	1.639528
0.904883	1.643412
0.904980	1.642808
0.905078	1.636892
0.905176	1.620661
0.905273	1.598061
0.905371	1.580734
0.905469	1.561764
0.905566	1.562266
0.905664	1.573888
0.905762	1.562948
0.905859	1.534725
0.905957	1.535798
0.906055	1.526580
0.906152	1.524778
0.906250	1.523687
0.906348	1.512443
0.906445	1.531673
0.906543	1.537103
0.906641	1.524966
0.906738	1.573327
0.906836	1.590479
0.906934	1.574475
0.907031	1.553154
0.907129	1.551570
0.907227	1.563089
0.907324	1.566878
0.907422	1.567189
0.907520	1.561885
0.907617	1.563188
0.907715	1.565156
0.907812	1.567786
0.907910	1.574829
0.908008	1.553472
0.908105	1.536394
0.908203	1.499815
0.908301	1.453128
0.908398	1.420142
0.908496	1.383699
0.908594	1.339396
0.908691	1.326090
0.908789	1.371003
0.908887	1.427604
0.908984	1.458913
0.909082	1.469129
0.909180	1.490516
0.909277	1.523694
0.909375	1.573570
0.909473	1.590528
0.909570	1.561224
0.909668	1.561845
0.909766	1.545902
0.909863	1.525956
0.909961	1.541150
0.910059	1.528429
0.910156	1.498956
0.910254	1.484104
0.910352	1.497599
0.910449	1.499621
0.910547	1.468676
0.910645	1.449415
0.910742	1.473771
0.910840	1.529749
0.910937	1.497523
0.911035	1.403980
0.911133	1.332802
0.911230	1.278628
0.911328	1.283312
0.911426	1.280770
0.911523	1.278619
0.911621	1.322762
0.911719	1.377600
0.911816	1.381956
0.911914	1.370247
0.912012	1.372473
0.912109	1.373794
0.912207	1.370117
0.912305	1.373924
0.912402	1.394108
0.912500	1.411003
0.912598	1.399758
0.912695	1.377518
0.912793	1.377446
0.912891	1.381559
0.912988	1.366845
0.913086	1.337296
0.913184	1.309766
0.913281	1.302458
0.913379	1.305138
0.913477	1.307008
0.913574	1.309980
0.913672	1.312259
0.913770	1.312466
0.913867	1.310355
0.913965	1.305169
0.914062	1.298963
0.914160	1.291577
0.914258	1.282632
0.914355	1.272241
0.914453	1.264754
0.914551	1.263315
0.914648	1.271578
0.914746	1.286105
0.914844	1.300595
0.914941	1.313383
0.915039	1.332346
0.915137	1.341970
0.915234	1.339471
0.915332	1.341581
0.915430	1.332418
0.915527	1.317136
0.915625	1.302531
0.915723	1.291530
0.915820	1.284125
0.915918	1.277388
0.916016	1.270533
0.916113	1.268419
0.916211	1.269335
0.916309	1.267247
0.916406	1.263099
0.916504	1.266795
0.916602	1.293727
0.916699	1.336929
0.916797	1.370092
0.916895	1.389783
0.916992	1.407575
0.917090	1.426017
0.917187	1.446788
0.917285	1.458439
0.917383	1.466428
0.917480	1.456207
0.917578	1.461924
0.917676	1.492711
0.917773	1.500221
0.917871	1.478396
0.917969	1.447395
0.918066	1.422638
0.918164	1.425831
0.918262	1.429832
0.918359	1.417032
0.918457	1.407543
0.918555	1.404752
0.918652	1.414774
0.918750	1.429422
0.918848	1.430421
0.918945	1.397664
0.919043	1.341337
0.919141	1.378833
0.919238	1.431543
0.919336	1.458782
0.919434	1.463638
0.919531	1.435097
0.919629	1.401139
0.919727	1.379953
0.919824	1.369211
0.919922	1.351302
0.920020	1.321899
0.920117	1.327903
0.920215	1.386623
0.920312	1.439957
0.920410	1.481189
0.920508	1.464209
0.920605	1.431824
0.920703	1.411255
0.920801	1.364701
0.920898	1.370014
0.920996	1.381474
0.921094	1.364782
0.921191	1.421265
0.921289	1.497382
0.921387	1.522606
0.921484	1.529740
0.921582	1.535156
0.921680	1.531015
0.921777	1.560280
0.921875	1.580220
0.921973	1.586872
0.922070	1.586352
0.922168	1.586625
0.922266	1.593228
0.922363	1.613270
0.922461	1.626853
0.922559	1.626518
0.922656	1.623306
0.922754	1.599905
0.922852	1.604479
0.922949	1.607149
0.923047	1.617851
0.923145	1.630181
0.923242	1.613816
0.923340	1.593347
0.923437	1.584889
0.923535	1.588652
0.923633	1.587359
0.923730	1.592642
0.923828	1.602753
0.923926	1.613204
0.924023	1.648875
0.924121	1.658575
0.924219	1.638211
0.924316	1.681460
0.924414	1.689143
0.924512	1.698851
0.924609	1.708682
0.924707	1.689327
0.924805	1.692786
0.924902	1.696416
0.925000	1.694914
0.925098	1.705949
0.925195	1.707373
0.925293	1.712446
0.925391	1.703832
0.925488	1.701390
0.925586	1.699137
0.925684	1.672145
0.925781	1.664932
0.925879	1.654781
0.925977	1.632193
0.926074	1.611651
0.926172	1.604248
0.926270	1.589916
0.926367	1.571300
0.926465	1.593583
0.926562	1.603141
0.926660	1.599679
0.926758	1.582277
0.926855	1.591048
0.926953	1.601488
0.927051	1.590653
0.927148	1.576184
0.927246	1.593928
0.927344	1.620189
0.927441	1.610193
0.927539	1.614893
0.927637	1.598088
0.927734	1.571945
0.927832	1.554773
0.927930	1.579271
0.928027	1.620792
0.928125	1.624876
0.928223	1.644869
0.928320	1.610354
0.928418	1.590085
0.928516	1.590817
0.928613	1.602795
0.928711	1.620955
0.928809	1.597460
0.928906	1.614944
0.929004	1.613894
0.929102	1.599609
0.929199	1.606599
0.929297	1.591356
0.929395	1.565217
0.929492	1.582893
0.929590	1.587760
0.929687	1.559585
0.929785	1.580638
0.929883	1.610762
0.929980	1.649972
0.930078	1.645151
0.930176	1.641996
0.930273	1.647955
0.930371	1.661051
0.930469	1.661212
0.930566	1.662669
0.930664	1.649869
0.930762	1.644883
0.930859	1.642153
0.930957	1.627470
0.931055	1.606894
0.931152	1.612280
0.931250	1.630019
0.931348	1.625723
0.931445	1.568274
0.931543	1.581268
0.931641	1.610428
0.931738	1.595417
0.931836	1.592533
0.931934	1.597514
0.932031	1.600772
0.932129	1.587287
0.932227	1.583332
0.932324	1.578230
0.932422	1.596436
0.932520	1.617673
0.932617	1.628915
0.932715	1.635852
0.932812	1.630475
0.932910	1.612736
0.933008	1.593790
0.933105	1.585336
0.933203	1.606529
0.933301	1.659468
0.933398	1.655388
0.933496	1.643897
0.933594	1.641773
0.933691	1.637131
0.933789	1.615948
0.933887	1.599666
0.933984	1.603292
0.934082	1.598620
0.934180	1.605421
0.934277	1.609993
0.934375	1.585262
0.934473	1.602498
0.934570	1.613174
0.934668	1.620325
0.934766	1.622038
0.934863	1.622509
0.934961	1.625692
0.935059	1.630309
0.935156	1.637876
0.935254	1.642521
0.935352	1.642210
0.935449	1.650588
0.935547	1.658541
0.935645	1.663845
0.935742	1.666783
0.935840	1.665789
0.935937	1.669951
0.936035	1.665946
0.936133	1.659207
0.936230	1.663317
0.936328	1.665057
0.936426	1.653514
0.936523	1.652634
0.936621	1.670173
0.936719	1.671182
0.936816	1.663124
0.936914	1.666676
0.937012	1.668179
0.937109	1.663237
0.937207	1.656276
0.937305	1.633946
0.937402	1.623528
0.937500	1.619948
0.937598	1.615101
0.937695	1.611950
0.937793	1.594575
0.937891	1.577664
0.937988	1.592336
0.938086	1.580793
0.938184	1.586412
0.938281	1.590505
0.938379	1.540089
0.938477	1.518407
0.938574	1.525206
0.938672	1.515761
0.938770	1.503319
0.938867	1.493386
0.938965	1.477497
0.939062	1.493805
0.939160	1.506576
0.939258	1.489402
0.939355	1.457889
0.939453	1.459885
0.939551	1.480178
0.939648	1.473369
0.939746	1.463151
0.939844	1.468629
0.939941	1.486919
0.940039	1.496396
0.940137	1.496332
0.940234	1.524638
0.940332	1.559604
0.940430	1.572312
0.940527	1.578805
0.940625	1.569408
0.940723	1.545619
0.940820	1.510179
0.940918	1.472189
0.941016	1.448468
0.941113	1.454132
0.941211	1.484605
0.941309	1.491985
0.941406	1.530060
0.941504	1.569353
0.941602	1.548523
0.941699	1.517046
0.941797	1.495717
0.941895	1.500067
0.941992	1.499476
0.942090	1.513986
0.942187	1.545985
0.942285	1.544807
0.942383	1.550919
0.942480	1.565403
0.942578	1.554045
0.942676	1.538893
0.942773	1.542681
0.942871	1.558227
0.942969	1.542755
0.943066	1.534731
0.943164	1.528779
0.943262	1.533309
0.943359	1.544230
0.943457	1.527731
0.943555	1.532524
0.943652	1.539361
0.943750	1.531499
0.943848	1.579648
0.943945	1.616391
0.944043	1.617322
0.944141	1.649028
0.944238	1.670066
0.944336	1.679030
0.944434	1.683560
0.944531	1.678163
0.944629	1.667923
0.944727	1.663102
0.944824	1.669321
0.944922	1.665454
0.945020	1.660612
0.945117	1.651057
0.945215	1.643618
0.945312	1.630147
0.945410	1.618902
0.945508	1.613188
0.945605	1.587378
0.945703	1.564519
0.945801	1.597178
0.945898	1.622118
0.945996	1.620624
0.946094	1.646389
0.946191	1.656773
0.946289	1.637861
0.946387	1.617863
0.946484	1.605773
0.946582	1.601414
0.946680	1.595583
0.946777	1.593812
0.946875	1.593366
0.946973	1.596275
0.947070	1.591958
0.947168	1.583231
0.947266	1.579558
0.947363	1.577077
0.947461	1.586761
0.947559	1.575845
0.947656	1.607254
0.947754	1.653605
0.947852	1.647811
0.947949	1.632606
0.948047	1.614701
0.948145	1.609642
0.948242	1.616286
0.948340	1.622791
0.948437	1.615320
0.948535	1.607699
0.948633	1.587848
0.948730	1.584604
0.948828	1.588877
0.948926	1.586508
0.949023	1.567700
0.949121	1.582782
0.949219	1.585091
0.949316	1.616640
0.949414	1.630741
0.949512	1.625636
0.949609	1.599512
0.949707	1.569539
0.949805	1.560910
0.949902	1.545329
0.950000	1.542819
0.950098	1.530325
0.950195	1.547845
0.950293	1.550136
0.950391	1.547596
0.950488	1.565068
0.950586	1.573020
0.950684	1.575686
0.950781	1.578608
0.950879	1.606796
0.950977	1.611042
0.951074	1.635425
0.951172	1.655203
0.951270	1.650345
0.951367	1.631545
0.951465	1.623131
0.951562	1.610287
0.951660	1.644272
0.951758	1.661691
0.951855	1.649878
0.951953	1.616321
0.952051	1.603298
0.952148	1.600215
0.952246	1.607829
0.952344	1.604478
0.952441	1.570009
0.952539	1.528719
0.952637	1.576687
0.952734	1.647158
0.952832	1.625858
0.952930	1.590709
0.953027	1.570770
0.953125	1.556154
0.953223	1.555295
0.953320	1.556316
0.953418	1.549062
0.953516	1.532822
0.953613	1.512694
0.953711	1.511455
0.953809	1.503629
0.953906	1.500277
0.954004	1.479409
0.954102	1.491462
0.954199	1.536444
0.954297	1.568239
0.954395	1.548181
0.954492	1.516383
0.954590	1.515985
0.954687	1.513588
0.954785	1.501087
0.954883	1.499326
0.954980	1.510916
0.955078	1.497723
0.955176	1.489279
0.955273	1.491685
0.955371	1.530312
0.955469	1.542440
0.955566	1.522302
0.955664	1.516439
0.955762	1.507135
0.955859	1.504329
0.955957	1.500223
0.956055	1.493735
0.956152	1.487011
0.956250	1.476966
0.956348	1.466749
0.956445	1.479319
0.956543	1.467403
0.956641	1.463832
0.956738	1.473541
0.956836	1.471618
0.956934	1.469297
0.957031	1.454832
0.957129	1.469080
0.957227	1.499135
0.957324	1.527549
0.957422	1.559240
0.957520	1.582226
0.957617	1.594689
0.957715	1.608972
0.957812	1.620717
0.957910	1.598693
0.958008	1.592901
0.958105	1.590172
0.958203	1.574192
0.958301	1.562052
0.958398	1.557893
0.958496	1.541565
0.958594	1.541611
0.958691	1.525080
0.958789	1.519243
0.958887	1.537542
0.958984	1.531529
0.959082	1.512236
0.959180	1.503940
0.959277	1.504769
0.959375	1.503624
0.959473	1.483035
0.959570	1.459936
0.959668	1.479559
0.959766	1.495812
0.959863	1.499416
0.959961	1.486270
0.960059	1.453078
0.960156	1.438864
0.960254	1.438247
0.960352	1.439930
0.960449	1.455693
0.960547	1.469484
0.960645	1.475183
0.960742	1.438389
0.960840	1.433092
0.960937	1.426803
0.961035	1.410234
0.961133	1.394414
0.961230	1.393975
0.961328	1.405234
0.961426	1.446735
0.961523	1.506230
0.961621	1.556742
0.961719	1.571416
0.961816	1.583435
0.961914	1.582772
0.962012	1.590871
0.962109	1.598107
0.962207	1.585429
0.962305	1.589382
0.962402	1.581398
0.962500	1.559354
0.962598	1.533226
0.962695	1.519501
0.962793	1.532952
0.962891	1.526576
0.962988	1.533340
0.963086	1.537669
0.963184	1.552557
0.963281	1.566560
0.963379	1.564004
0.963477	1.553235
0.963574	1.541013
0.963672	1.526869
0.963770	1.493644
0.963867	1.471971
0.963965	1.502373
0.964062	1.522333
0.964160	1.539585
0.964258	1.557805
0.964355	1.552377
0.964453	1.540874
0.964551	1.525547
0.964648	1.504940
0.964746	1.484354
0.964844	1.469241
0.964941	1.457806
0.965039	1.446078
0.965137	1.439674
0.965234	1.438888
0.965332	1.433663
0.965430	1.422555
0.965527	1.409278
0.965625	1.396127
0.965723	1.378954
0.965820	1.364908
0.965918	1.358506
0.966016	1.352534
0.966113	1.344605
0.966211	1.337972
0.966309	1.341064
0.966406	1.345132
0.966504	1.343077
0.966602	1.343669
0.966699	1.379690
0.966797	1.407535
0.966895	1.400946
0.966992	1.378325
0.967090	1.358480
0.967187	1.345053
0.967285	1.371227
0.967383	1.417503
0.967480	1.452561
0.967578	1.492614
0.967676	1.505990
0.967773	1.518986
0.967871	1.526213
0.967969	1.530502
0.968066	1.533210
0.968164	1.543998
0.968262	1.567964
0.968359	1.578905
0.968457	1.571752
0.968555	1.547945
0.968652	1.526188
0.968750	1.523401
0.968848	1.493008
0.968945	1.468866
0.969043	1.463362
0.969141	1.426381
0.969238	1.427978
0.969336	1.480274
0.969434	1.507214
0.969531	1.497046
0.969629	1.464810
0.969727	1.501289
0.969824	1.570614
0.969922	1.571509
0.970020	1.577854
0.970117	1.591348
0.970215	1.578596
0.970312	1.553366
0.970410	1.536589
0.970508	1.534258
0.970605	1.540153
0.970703	1.534869
0.970801	1.531751
0.970898	1.534109
0.970996	1.536335
0.971094	1.542979
0.971191	1.536616
0.971289	1.529428
0.971387	1.532012
0.971484	1.533326
0.971582	1.555822
0.971680	1.557789
0.971777	1.543121
0.971875	1.529187
0.971973	1.569073
0.972070	1.575022
0.972168	1.571422
0.972266	1.569052
0.972363	1.556446
0.972461	1.563297
0.972559	1.527646
0.972656	1.515144
0.972754	1.527269
0.972852	1.533811
0.972949	1.523797
0.973047	1.558978
0.973145	1.561278
0.973242	1.575614
0.973340	1.618649
0.973437	1.585047
0.973535	1.585408
0.973633	1.572994
0.973730	1.578864
0.973828	1.575523
0.973926	1.586810
0.974023	1.592824
0.974121	1.586735
0.974219	1.578974
0.974316	1.561739
0.974414	1.557079
0.974512	1.527019
0.974609	1.499279
0.974707	1.528385
0.974805	1.538316
0.974902	1.537019
0.975000	1.519940
0.975098	1.529339
0.975195	1.553028
0.975293	1.527458
0.975391	1.483664
0.975488	1.479804
0.975586	1.478772
0.975684	1.515755
0.975781	1.544537
0.975879	1.534767
0.975977	1.544847
0.976074	1.533282
0.976172	1.539570
0.976270	1.534613
0.976367	1.518994
0.976465	1.511862

