LabVIEW Measurement	
Writer_Version	2
Reader_Version	2
Separator	Tab
Decimal_Separator	.
Multi_Headings	Yes
X_Columns	One
Time_Pref	Absolute
Operator	W-Tunnel
Date	1904/01/01
Time	01:00:00
***End_of_Header***	
	
Channels	1	
Samples	10000	
Date	2024/05/17	
Time	18:32:52.4746791562497666171	
Y_Unit_Label	Volts	
X_Dimension	Time	
X0	0.0000000000000000E+0	
Delta_X	9.765625E-5	
***End_of_Header***		
X_Value	Voltage	Comment
0.000000	1.532182
9.765625E-5	1.550891
0.000195	1.557141
0.000293	1.550790
0.000391	1.535635
0.000488	1.500165
0.000586	1.486767
0.000684	1.479835
0.000781	1.454596
0.000879	1.449607
0.000977	1.452436
0.001074	1.441327
0.001172	1.432671
0.001270	1.442572
0.001367	1.456824
0.001465	1.459173
0.001562	1.459452
0.001660	1.468910
0.001758	1.481229
0.001855	1.511660
0.001953	1.525938
0.002051	1.495877
0.002148	1.513375
0.002246	1.504559
0.002344	1.510736
0.002441	1.532183
0.002539	1.514415
0.002637	1.474087
0.002734	1.420698
0.002832	1.410492
0.002930	1.400830
0.003027	1.385448
0.003125	1.371529
0.003223	1.364035
0.003320	1.358688
0.003418	1.359155
0.003516	1.356409
0.003613	1.378297
0.003711	1.407150
0.003809	1.424782
0.003906	1.439082
0.004004	1.442380
0.004102	1.440746
0.004199	1.435326
0.004297	1.428008
0.004395	1.423485
0.004492	1.443277
0.004590	1.472060
0.004687	1.484423
0.004785	1.497330
0.004883	1.501024
0.004980	1.496201
0.005078	1.484331
0.005176	1.476430
0.005273	1.448665
0.005371	1.426436
0.005469	1.431376
0.005566	1.433036
0.005664	1.432651
0.005762	1.429664
0.005859	1.425537
0.005957	1.419391
0.006055	1.413249
0.006152	1.407287
0.006250	1.402721
0.006348	1.398177
0.006445	1.393962
0.006543	1.388890
0.006641	1.382981
0.006738	1.375327
0.006836	1.366418
0.006934	1.356949
0.007031	1.348191
0.007129	1.339950
0.007227	1.330982
0.007324	1.320303
0.007422	1.307912
0.007520	1.293079
0.007617	1.275467
0.007715	1.255922
0.007812	1.237703
0.007910	1.225704
0.008008	1.224820
0.008105	1.234207
0.008203	1.250575
0.008301	1.270520
0.008398	1.290796
0.008496	1.306338
0.008594	1.313224
0.008691	1.313148
0.008789	1.307907
0.008887	1.298829
0.008984	1.287744
0.009082	1.275486
0.009180	1.262913
0.009277	1.250219
0.009375	1.238018
0.009473	1.227469
0.009570	1.219543
0.009668	1.215784
0.009766	1.216678
0.009863	1.222669
0.009961	1.232584
0.010059	1.244929
0.010156	1.256683
0.010254	1.266555
0.010352	1.272868
0.010449	1.276832
0.010547	1.277952
0.010645	1.279172
0.010742	1.283003
0.010840	1.296205
0.010937	1.317936
0.011035	1.343951
0.011133	1.361962
0.011230	1.384518
0.011328	1.393466
0.011426	1.403737
0.011523	1.419652
0.011621	1.416626
0.011719	1.410614
0.011816	1.429607
0.011914	1.454297
0.012012	1.466611
0.012109	1.474800
0.012207	1.469152
0.012305	1.472269
0.012402	1.477387
0.012500	1.488170
0.012598	1.491595
0.012695	1.468651
0.012793	1.482585
0.012891	1.473531
0.012988	1.471066
0.013086	1.470913
0.013184	1.459696
0.013281	1.449624
0.013379	1.471078
0.013477	1.463671
0.013574	1.511969
0.013672	1.556708
0.013770	1.576214
0.013867	1.580876
0.013965	1.562610
0.014062	1.555444
0.014160	1.562490
0.014258	1.555169
0.014355	1.558362
0.014453	1.554681
0.014551	1.537312
0.014648	1.520297
0.014746	1.506884
0.014844	1.463544
0.014941	1.399534
0.015039	1.362398
0.015137	1.323913
0.015234	1.400436
0.015332	1.477374
0.015430	1.483143
0.015527	1.474333
0.015625	1.450103
0.015723	1.437983
0.015820	1.404832
0.015918	1.453365
0.016016	1.405916
0.016113	1.352480
0.016211	1.328004
0.016309	1.319097
0.016406	1.361368
0.016504	1.422030
0.016602	1.423314
0.016699	1.386591
0.016797	1.339223
0.016895	1.297354
0.016992	1.270541
0.017090	1.255737
0.017187	1.279146
0.017285	1.397907
0.017383	1.390440
0.017480	1.324760
0.017578	1.290712
0.017676	1.307993
0.017773	1.332933
0.017871	1.372354
0.017969	1.410001
0.018066	1.400538
0.018164	1.366036
0.018262	1.357925
0.018359	1.374715
0.018457	1.371108
0.018555	1.376618
0.018652	1.435140
0.018750	1.480266
0.018848	1.519456
0.018945	1.569614
0.019043	1.567324
0.019141	1.560052
0.019238	1.533207
0.019336	1.513443
0.019434	1.503538
0.019531	1.525730
0.019629	1.550785
0.019727	1.543032
0.019824	1.558483
0.019922	1.552605
0.020020	1.524226
0.020117	1.474238
0.020215	1.451436
0.020312	1.438098
0.020410	1.418564
0.020508	1.416769
0.020605	1.462005
0.020703	1.511461
0.020801	1.528622
0.020898	1.550782
0.020996	1.547751
0.021094	1.527958
0.021191	1.521561
0.021289	1.531287
0.021387	1.542515
0.021484	1.565304
0.021582	1.534004
0.021680	1.486860
0.021777	1.481820
0.021875	1.478431
0.021973	1.485686
0.022070	1.466270
0.022168	1.455005
0.022266	1.464271
0.022363	1.442714
0.022461	1.320040
0.022559	1.323515
0.022656	1.394078
0.022754	1.437849
0.022852	1.496260
0.022949	1.498585
0.023047	1.495898
0.023145	1.490152
0.023242	1.483361
0.023340	1.484908
0.023437	1.468164
0.023535	1.479312
0.023633	1.449733
0.023730	1.400098
0.023828	1.442263
0.023926	1.427749
0.024023	1.416030
0.024121	1.392229
0.024219	1.380889
0.024316	1.387145
0.024414	1.401656
0.024512	1.410933
0.024609	1.404555
0.024707	1.397323
0.024805	1.418937
0.024902	1.451820
0.025000	1.451492
0.025098	1.425471
0.025195	1.435060
0.025293	1.423267
0.025391	1.408202
0.025488	1.430957
0.025586	1.439509
0.025684	1.445854
0.025781	1.457277
0.025879	1.484422
0.025977	1.519949
0.026074	1.528924
0.026172	1.472158
0.026270	1.507482
0.026367	1.533428
0.026465	1.539884
0.026562	1.536482
0.026660	1.526462
0.026758	1.526462
0.026855	1.529877
0.026953	1.520739
0.027051	1.511287
0.027148	1.509365
0.027246	1.494638
0.027344	1.498367
0.027441	1.498387
0.027539	1.500483
0.027637	1.501536
0.027734	1.499280
0.027832	1.482462
0.027930	1.453912
0.028027	1.439080
0.028125	1.444620
0.028223	1.470056
0.028320	1.468597
0.028418	1.468254
0.028516	1.471764
0.028613	1.457659
0.028711	1.451682
0.028809	1.445734
0.028906	1.457208
0.029004	1.484936
0.029102	1.490971
0.029199	1.483791
0.029297	1.472910
0.029395	1.456088
0.029492	1.533676
0.029590	1.552925
0.029687	1.556207
0.029785	1.575864
0.029883	1.584211
0.029980	1.580145
0.030078	1.575521
0.030176	1.573850
0.030273	1.586933
0.030371	1.604067
0.030469	1.595212
0.030566	1.557075
0.030664	1.526514
0.030762	1.548979
0.030859	1.548109
0.030957	1.552962
0.031055	1.557457
0.031152	1.592946
0.031250	1.585473
0.031348	1.569946
0.031445	1.574951
0.031543	1.584488
0.031641	1.608453
0.031738	1.611214
0.031836	1.602678
0.031934	1.610914
0.032031	1.606851
0.032129	1.606997
0.032227	1.630055
0.032324	1.646517
0.032422	1.609060
0.032520	1.579701
0.032617	1.575114
0.032715	1.553034
0.032812	1.568140
0.032910	1.599903
0.033008	1.644509
0.033105	1.607723
0.033203	1.550694
0.033301	1.539147
0.033398	1.542260
0.033496	1.531731
0.033594	1.525185
0.033691	1.556754
0.033789	1.576124
0.033887	1.594208
0.033984	1.591811
0.034082	1.596165
0.034180	1.618003
0.034277	1.637864
0.034375	1.643825
0.034473	1.632618
0.034570	1.638797
0.034668	1.630346
0.034766	1.582788
0.034863	1.629833
0.034961	1.691274
0.035059	1.648977
0.035156	1.638772
0.035254	1.606689
0.035352	1.553698
0.035449	1.541571
0.035547	1.491732
0.035645	1.514040
0.035742	1.555544
0.035840	1.572299
0.035937	1.552909
0.036035	1.530367
0.036133	1.525354
0.036230	1.471917
0.036328	1.469648
0.036426	1.445131
0.036523	1.426739
0.036621	1.451472
0.036719	1.488925
0.036816	1.483009
0.036914	1.468939
0.037012	1.440321
0.037109	1.445761
0.037207	1.464961
0.037305	1.469582
0.037402	1.478336
0.037500	1.439113
0.037598	1.442855
0.037695	1.442363
0.037793	1.418553
0.037891	1.421147
0.037988	1.488541
0.038086	1.491261
0.038184	1.475785
0.038281	1.449392
0.038379	1.414792
0.038477	1.417226
0.038574	1.419545
0.038672	1.397394
0.038770	1.375691
0.038867	1.380173
0.038965	1.416780
0.039062	1.479575
0.039160	1.508401
0.039258	1.484375
0.039355	1.485027
0.039453	1.484334
0.039551	1.453081
0.039648	1.421943
0.039746	1.386058
0.039844	1.334996
0.039941	1.298434
0.040039	1.276946
0.040137	1.263981
0.040234	1.280473
0.040332	1.322659
0.040430	1.334841
0.040527	1.303414
0.040625	1.366274
0.040723	1.407978
0.040820	1.384198
0.040918	1.354866
0.041016	1.315075
0.041113	1.277744
0.041211	1.279490
0.041309	1.322437
0.041406	1.328554
0.041504	1.323269
0.041602	1.374920
0.041699	1.442046
0.041797	1.452853
0.041895	1.509164
0.041992	1.525976
0.042090	1.537332
0.042187	1.560949
0.042285	1.553931
0.042383	1.534359
0.042480	1.487229
0.042578	1.460561
0.042676	1.486331
0.042773	1.515810
0.042871	1.529509
0.042969	1.537697
0.043066	1.542984
0.043164	1.550457
0.043262	1.554918
0.043359	1.561137
0.043457	1.567712
0.043555	1.579137
0.043652	1.590702
0.043750	1.618633
0.043848	1.617438
0.043945	1.606104
0.044043	1.595778
0.044141	1.566959
0.044238	1.561437
0.044336	1.570543
0.044434	1.604275
0.044531	1.614485
0.044629	1.574159
0.044727	1.554539
0.044824	1.526964
0.044922	1.471829
0.045020	1.429246
0.045117	1.423746
0.045215	1.464073
0.045312	1.455966
0.045410	1.411000
0.045508	1.425411
0.045605	1.426482
0.045703	1.416102
0.045801	1.421998
0.045898	1.465548
0.045996	1.484935
0.046094	1.480575
0.046191	1.492213
0.046289	1.508778
0.046387	1.531877
0.046484	1.515519
0.046582	1.501241
0.046680	1.440973
0.046777	1.453482
0.046875	1.481265
0.046973	1.461936
0.047070	1.512354
0.047168	1.524346
0.047266	1.547422
0.047363	1.567447
0.047461	1.553765
0.047559	1.545826
0.047656	1.532321
0.047754	1.569246
0.047852	1.589587
0.047949	1.561581
0.048047	1.532434
0.048145	1.514557
0.048242	1.490637
0.048340	1.455738
0.048437	1.473921
0.048535	1.504409
0.048633	1.523634
0.048730	1.519864
0.048828	1.553408
0.048926	1.589459
0.049023	1.612241
0.049121	1.636092
0.049219	1.604769
0.049316	1.622450
0.049414	1.641214
0.049512	1.628671
0.049609	1.605835
0.049707	1.599331
0.049805	1.613154
0.049902	1.610375
0.050000	1.619464
0.050098	1.617901
0.050195	1.598457
0.050293	1.531243
0.050391	1.565104
0.050488	1.621025
0.050586	1.622734
0.050684	1.601823
0.050781	1.566919
0.050879	1.548702
0.050977	1.536978
0.051074	1.532241
0.051172	1.511784
0.051270	1.508582
0.051367	1.523323
0.051465	1.543341
0.051562	1.533841
0.051660	1.502780
0.051758	1.471353
0.051855	1.451285
0.051953	1.441395
0.052051	1.422955
0.052148	1.392870
0.052246	1.377517
0.052344	1.395307
0.052441	1.401010
0.052539	1.384682
0.052637	1.370705
0.052734	1.381449
0.052832	1.396489
0.052930	1.404605
0.053027	1.402409
0.053125	1.398196
0.053223	1.388691
0.053320	1.376660
0.053418	1.368585
0.053516	1.372236
0.053613	1.382969
0.053711	1.381564
0.053809	1.367633
0.053906	1.352753
0.054004	1.344279
0.054102	1.345404
0.054199	1.354534
0.054297	1.374972
0.054395	1.399756
0.054492	1.431145
0.054590	1.448951
0.054687	1.453068
0.054785	1.457232
0.054883	1.464527
0.054980	1.476918
0.055078	1.478019
0.055176	1.481198
0.055273	1.484047
0.055371	1.476214
0.055469	1.474335
0.055566	1.489585
0.055664	1.498370
0.055762	1.511047
0.055859	1.514229
0.055957	1.514028
0.056055	1.526996
0.056152	1.539306
0.056250	1.546070
0.056348	1.556178
0.056445	1.565851
0.056543	1.581547
0.056641	1.584310
0.056738	1.586550
0.056836	1.592814
0.056934	1.601856
0.057031	1.611293
0.057129	1.607776
0.057227	1.618453
0.057324	1.617634
0.057422	1.620774
0.057520	1.602861
0.057617	1.595749
0.057715	1.604025
0.057812	1.615303
0.057910	1.617825
0.058008	1.596704
0.058105	1.555059
0.058203	1.549519
0.058301	1.549826
0.058398	1.534527
0.058496	1.517649
0.058594	1.519258
0.058691	1.523124
0.058789	1.554987
0.058887	1.580471
0.058984	1.570627
0.059082	1.566868
0.059180	1.538297
0.059277	1.529763
0.059375	1.507442
0.059473	1.509992
0.059570	1.501410
0.059668	1.493388
0.059766	1.487115
0.059863	1.493387
0.059961	1.503495
0.060059	1.525306
0.060156	1.525101
0.060254	1.518856
0.060352	1.513400
0.060449	1.467267
0.060547	1.449090
0.060645	1.420679
0.060742	1.419512
0.060840	1.445081
0.060937	1.457790
0.061035	1.447508
0.061133	1.419493
0.061230	1.412932
0.061328	1.411308
0.061426	1.421486
0.061523	1.427249
0.061621	1.428819
0.061719	1.440187
0.061816	1.459933
0.061914	1.487709
0.062012	1.491695
0.062109	1.481243
0.062207	1.450837
0.062305	1.419950
0.062402	1.406230
0.062500	1.401282
0.062598	1.433839
0.062695	1.520160
0.062793	1.515110
0.062891	1.521547
0.062988	1.580335
0.063086	1.620576
0.063184	1.603423
0.063281	1.597009
0.063379	1.614475
0.063477	1.622230
0.063574	1.629422
0.063672	1.617473
0.063770	1.611146
0.063867	1.599432
0.063965	1.604730
0.064062	1.604459
0.064160	1.602621
0.064258	1.573288
0.064355	1.574907
0.064453	1.562504
0.064551	1.566280
0.064648	1.588850
0.064746	1.577079
0.064844	1.565571
0.064941	1.549395
0.065039	1.545128
0.065137	1.527466
0.065234	1.537026
0.065332	1.563149
0.065430	1.567634
0.065527	1.542482
0.065625	1.538188
0.065723	1.542321
0.065820	1.522598
0.065918	1.506639
0.066016	1.470521
0.066113	1.435656
0.066211	1.442410
0.066309	1.459624
0.066406	1.456087
0.066504	1.477277
0.066602	1.496804
0.066699	1.497150
0.066797	1.498882
0.066895	1.492515
0.066992	1.482520
0.067090	1.464982
0.067187	1.438883
0.067285	1.413167
0.067383	1.397240
0.067480	1.390052
0.067578	1.391750
0.067676	1.408883
0.067773	1.438384
0.067871	1.451665
0.067969	1.448064
0.068066	1.438190
0.068164	1.422019
0.068262	1.406191
0.068359	1.390565
0.068457	1.373242
0.068555	1.358393
0.068652	1.350763
0.068750	1.352260
0.068848	1.356371
0.068945	1.355608
0.069043	1.360524
0.069141	1.372897
0.069238	1.383668
0.069336	1.388550
0.069434	1.387056
0.069531	1.375619
0.069629	1.353938
0.069727	1.332729
0.069824	1.314387
0.069922	1.298035
0.070020	1.283719
0.070117	1.274618
0.070215	1.280877
0.070312	1.326312
0.070410	1.370582
0.070508	1.395286
0.070605	1.372701
0.070703	1.343970
0.070801	1.376964
0.070898	1.434714
0.070996	1.483039
0.071094	1.547425
0.071191	1.580200
0.071289	1.577946
0.071387	1.571045
0.071484	1.564760
0.071582	1.561923
0.071680	1.566014
0.071777	1.572570
0.071875	1.591955
0.071973	1.566545
0.072070	1.530443
0.072168	1.568500
0.072266	1.555694
0.072363	1.551666
0.072461	1.523355
0.072559	1.473219
0.072656	1.441884
0.072754	1.425279
0.072852	1.434573
0.072949	1.461397
0.073047	1.490561
0.073145	1.492096
0.073242	1.468138
0.073340	1.462742
0.073437	1.461072
0.073535	1.456620
0.073633	1.461920
0.073730	1.418876
0.073828	1.419514
0.073926	1.435473
0.074023	1.440627
0.074121	1.432364
0.074219	1.444924
0.074316	1.471089
0.074414	1.469156
0.074512	1.488168
0.074609	1.526637
0.074707	1.556414
0.074805	1.564682
0.074902	1.550734
0.075000	1.535696
0.075098	1.514279
0.075195	1.512869
0.075293	1.481340
0.075391	1.466829
0.075488	1.462260
0.075586	1.445074
0.075684	1.429867
0.075781	1.417673
0.075879	1.407861
0.075977	1.384985
0.076074	1.369904
0.076172	1.341879
0.076270	1.279344
0.076367	1.358386
0.076465	1.435899
0.076562	1.490372
0.076660	1.509541
0.076758	1.490248
0.076855	1.495510
0.076953	1.496770
0.077051	1.509930
0.077148	1.505694
0.077246	1.552425
0.077344	1.571537
0.077441	1.550437
0.077539	1.557316
0.077637	1.563977
0.077734	1.560923
0.077832	1.575637
0.077930	1.579123
0.078027	1.540451
0.078125	1.535494
0.078223	1.541012
0.078320	1.544544
0.078418	1.531617
0.078516	1.528180
0.078613	1.543380
0.078711	1.560879
0.078809	1.541765
0.078906	1.552298
0.079004	1.564278
0.079102	1.561676
0.079199	1.554728
0.079297	1.532717
0.079395	1.542050
0.079492	1.541415
0.079590	1.543398
0.079687	1.550145
0.079785	1.536695
0.079883	1.509711
0.079980	1.464039
0.080078	1.431992
0.080176	1.428326
0.080273	1.429314
0.080371	1.438608
0.080469	1.431096
0.080566	1.410608
0.080664	1.388189
0.080762	1.381074
0.080859	1.379102
0.080957	1.383726
0.081055	1.375008
0.081152	1.351750
0.081250	1.340535
0.081348	1.342143
0.081445	1.348675
0.081543	1.352934
0.081641	1.358003
0.081738	1.368807
0.081836	1.371864
0.081934	1.366431
0.082031	1.349549
0.082129	1.326404
0.082227	1.315620
0.082324	1.323321
0.082422	1.323189
0.082520	1.309177
0.082617	1.293234
0.082715	1.284950
0.082812	1.282328
0.082910	1.288709
0.083008	1.308088
0.083105	1.327906
0.083203	1.359919
0.083301	1.388428
0.083398	1.402661
0.083496	1.419305
0.083594	1.438937
0.083691	1.456216
0.083789	1.469609
0.083887	1.483658
0.083984	1.489348
0.084082	1.487385
0.084180	1.498846
0.084277	1.514778
0.084375	1.519669
0.084473	1.526003
0.084570	1.524932
0.084668	1.504326
0.084766	1.490916
0.084863	1.498816
0.084961	1.491116
0.085059	1.504014
0.085156	1.506165
0.085254	1.470191
0.085352	1.454759
0.085449	1.441031
0.085547	1.435053
0.085645	1.453628
0.085742	1.476772
0.085840	1.485593
0.085937	1.470572
0.086035	1.462188
0.086133	1.487407
0.086230	1.484286
0.086328	1.485835
0.086426	1.475306
0.086523	1.466407
0.086621	1.462193
0.086719	1.464734
0.086816	1.427580
0.086914	1.404915
0.087012	1.401152
0.087109	1.427735
0.087207	1.456440
0.087305	1.475461
0.087402	1.511059
0.087500	1.548587
0.087598	1.588366
0.087695	1.550163
0.087793	1.547873
0.087891	1.556933
0.087988	1.498025
0.088086	1.485441
0.088184	1.509343
0.088281	1.511757
0.088379	1.479022
0.088477	1.442267
0.088574	1.439656
0.088672	1.453886
0.088770	1.472470
0.088867	1.492320
0.088965	1.516684
0.089062	1.534807
0.089160	1.537238
0.089258	1.536254
0.089355	1.523850
0.089453	1.529019
0.089551	1.541358
0.089648	1.511498
0.089746	1.499866
0.089844	1.476387
0.089941	1.502357
0.090039	1.507783
0.090137	1.501534
0.090234	1.504168
0.090332	1.498221
0.090430	1.484273
0.090527	1.463907
0.090625	1.439260
0.090723	1.420267
0.090820	1.376712
0.090918	1.368983
0.091016	1.426401
0.091113	1.454701
0.091211	1.476085
0.091309	1.529349
0.091406	1.527167
0.091504	1.510954
0.091602	1.520565
0.091699	1.489122
0.091797	1.494838
0.091895	1.520403
0.091992	1.535553
0.092090	1.501186
0.092187	1.494542
0.092285	1.514406
0.092383	1.516741
0.092480	1.506184
0.092578	1.483124
0.092676	1.495894
0.092773	1.496114
0.092871	1.495513
0.092969	1.521869
0.093066	1.526236
0.093164	1.516630
0.093262	1.496717
0.093359	1.465120
0.093457	1.439366
0.093555	1.418400
0.093652	1.394085
0.093750	1.392226
0.093848	1.420211
0.093945	1.420610
0.094043	1.453244
0.094141	1.480282
0.094238	1.462691
0.094336	1.497760
0.094434	1.511013
0.094531	1.504032
0.094629	1.478872
0.094727	1.449995
0.094824	1.420205
0.094922	1.400611
0.095020	1.402607
0.095117	1.413314
0.095215	1.424292
0.095312	1.453229
0.095410	1.456640
0.095508	1.453940
0.095605	1.434562
0.095703	1.430369
0.095801	1.420845
0.095898	1.422320
0.095996	1.442580
0.096094	1.444799
0.096191	1.449096
0.096289	1.444014
0.096387	1.438728
0.096484	1.435503
0.096582	1.431940
0.096680	1.414077
0.096777	1.385743
0.096875	1.351290
0.096973	1.312253
0.097070	1.270708
0.097168	1.240852
0.097266	1.274397
0.097363	1.378319
0.097461	1.446747
0.097559	1.507841
0.097656	1.576396
0.097754	1.587895
0.097852	1.582725
0.097949	1.576745
0.098047	1.547979
0.098145	1.477607
0.098242	1.462036
0.098340	1.549939
0.098437	1.573541
0.098535	1.570133
0.098633	1.566548
0.098730	1.559880
0.098828	1.579591
0.098926	1.596603
0.099023	1.583967
0.099121	1.575340
0.099219	1.585380
0.099316	1.575258
0.099414	1.585326
0.099512	1.596475
0.099609	1.601893
0.099707	1.601263
0.099805	1.629269
0.099902	1.618326
0.100000	1.592424
0.100098	1.615620
0.100195	1.586946
0.100293	1.560425
0.100391	1.554635
0.100488	1.585325
0.100586	1.574273
0.100684	1.555168
0.100781	1.511615
0.100879	1.526766
0.100977	1.506411
0.101074	1.476831
0.101172	1.461484
0.101270	1.443615
0.101367	1.453078
0.101465	1.470024
0.101562	1.447397
0.101660	1.414999
0.101758	1.422222
0.101855	1.407943
0.101953	1.419158
0.102051	1.430999
0.102148	1.429397
0.102246	1.391127
0.102344	1.345875
0.102441	1.297183
0.102539	1.292024
0.102637	1.322909
0.102734	1.365115
0.102832	1.401572
0.102930	1.433211
0.103027	1.413539
0.103125	1.395628
0.103223	1.374902
0.103320	1.327896
0.103418	1.303492
0.103516	1.287653
0.103613	1.282316
0.103711	1.285581
0.103809	1.305607
0.103906	1.348691
0.104004	1.374713
0.104102	1.372745
0.104199	1.378837
0.104297	1.386226
0.104395	1.381665
0.104492	1.369321
0.104590	1.363110
0.104687	1.367091
0.104785	1.372169
0.104883	1.379969
0.104980	1.392208
0.105078	1.389238
0.105176	1.374039
0.105273	1.349745
0.105371	1.338022
0.105469	1.343207
0.105566	1.353795
0.105664	1.356135
0.105762	1.357097
0.105859	1.359840
0.105957	1.354052
0.106055	1.341790
0.106152	1.331026
0.106250	1.331150
0.106348	1.349847
0.106445	1.384177
0.106543	1.407403
0.106641	1.414853
0.106738	1.438441
0.106836	1.463834
0.106934	1.518457
0.107031	1.509080
0.107129	1.466280
0.107227	1.476687
0.107324	1.526446
0.107422	1.487945
0.107520	1.463686
0.107617	1.488598
0.107715	1.474995
0.107812	1.450823
0.107910	1.407700
0.108008	1.356265
0.108105	1.331142
0.108203	1.335762
0.108301	1.382339
0.108398	1.441469
0.108496	1.423679
0.108594	1.429213
0.108691	1.400811
0.108789	1.379290
0.108887	1.336639
0.108984	1.302712
0.109082	1.347727
0.109180	1.350053
0.109277	1.383770
0.109375	1.407732
0.109473	1.398642
0.109570	1.414945
0.109668	1.434188
0.109766	1.443388
0.109863	1.433479
0.109961	1.448543
0.110059	1.455106
0.110156	1.453295
0.110254	1.436853
0.110352	1.423898
0.110449	1.421620
0.110547	1.412074
0.110645	1.395740
0.110742	1.382462
0.110840	1.372833
0.110937	1.375593
0.111035	1.389983
0.111133	1.401521
0.111230	1.409121
0.111328	1.426172
0.111426	1.436949
0.111523	1.430858
0.111621	1.416008
0.111719	1.399021
0.111816	1.410569
0.111914	1.426966
0.112012	1.430207
0.112109	1.426499
0.112207	1.448670
0.112305	1.469707
0.112402	1.465501
0.112500	1.458708
0.112598	1.470770
0.112695	1.483380
0.112793	1.486274
0.112891	1.483886
0.112988	1.475700
0.113086	1.463877
0.113184	1.452921
0.113281	1.434667
0.113379	1.405430
0.113477	1.398700
0.113574	1.428302
0.113672	1.492332
0.113770	1.562907
0.113867	1.557851
0.113965	1.539249
0.114062	1.536900
0.114160	1.538455
0.114258	1.557706
0.114355	1.535242
0.114453	1.488595
0.114551	1.467292
0.114648	1.439431
0.114746	1.433393
0.114844	1.436965
0.114941	1.443562
0.115039	1.447475
0.115137	1.442026
0.115234	1.435594
0.115332	1.434770
0.115430	1.424529
0.115527	1.421872
0.115625	1.483193
0.115723	1.530017
0.115820	1.548182
0.115918	1.522928
0.116016	1.532191
0.116113	1.529724
0.116211	1.515727
0.116309	1.500844
0.116406	1.473074
0.116504	1.466315
0.116602	1.539078
0.116699	1.574212
0.116797	1.571569
0.116895	1.556458
0.116992	1.539665
0.117090	1.576607
0.117187	1.565668
0.117285	1.557829
0.117383	1.571895
0.117480	1.581282
0.117578	1.536895
0.117676	1.552883
0.117773	1.572634
0.117871	1.573570
0.117969	1.578214
0.118066	1.573593
0.118164	1.527762
0.118262	1.470726
0.118359	1.454992
0.118457	1.465117
0.118555	1.472885
0.118652	1.476910
0.118750	1.480491
0.118848	1.471069
0.118945	1.494126
0.119043	1.513807
0.119141	1.454643
0.119238	1.477866
0.119336	1.512244
0.119434	1.532537
0.119531	1.561185
0.119629	1.554535
0.119727	1.558384
0.119824	1.540859
0.119922	1.529492
0.120020	1.522699
0.120117	1.518947
0.120215	1.536214
0.120312	1.553902
0.120410	1.574627
0.120508	1.584032
0.120605	1.580788
0.120703	1.588051
0.120801	1.573428
0.120898	1.560279
0.120996	1.555971
0.121094	1.566036
0.121191	1.556408
0.121289	1.532678
0.121387	1.533195
0.121484	1.545287
0.121582	1.541900
0.121680	1.504008
0.121777	1.466798
0.121875	1.449015
0.121973	1.481965
0.122070	1.551479
0.122168	1.537763
0.122266	1.504649
0.122363	1.507711
0.122461	1.510476
0.122559	1.532423
0.122656	1.527299
0.122754	1.531632
0.122852	1.529713
0.122949	1.523814
0.123047	1.518977
0.123145	1.537702
0.123242	1.537415
0.123340	1.524071
0.123437	1.519627
0.123535	1.540011
0.123633	1.553041
0.123730	1.558629
0.123828	1.568097
0.123926	1.517497
0.124023	1.538459
0.124121	1.560865
0.124219	1.552621
0.124316	1.566257
0.124414	1.568405
0.124512	1.559676
0.124609	1.532840
0.124707	1.504297
0.124805	1.498284
0.124902	1.476901
0.125000	1.463181
0.125098	1.449406
0.125195	1.448119
0.125293	1.448267
0.125391	1.448862
0.125488	1.451013
0.125586	1.449746
0.125684	1.442213
0.125781	1.437671
0.125879	1.441822
0.125977	1.446618
0.126074	1.442009
0.126172	1.439343
0.126270	1.435872
0.126367	1.422878
0.126465	1.447278
0.126562	1.452188
0.126660	1.444345
0.126758	1.444517
0.126855	1.447081
0.126953	1.449361
0.127051	1.449228
0.127148	1.479014
0.127246	1.504581
0.127344	1.512054
0.127441	1.520015
0.127539	1.513286
0.127637	1.518872
0.127734	1.527470
0.127832	1.540000
0.127930	1.566141
0.128027	1.555681
0.128125	1.556397
0.128223	1.543051
0.128320	1.554919
0.128418	1.573746
0.128516	1.587752
0.128613	1.602737
0.128711	1.610937
0.128809	1.613967
0.128906	1.614292
0.129004	1.616280
0.129102	1.625963
0.129199	1.635810
0.129297	1.656783
0.129395	1.656019
0.129492	1.650330
0.129590	1.656432
0.129687	1.669440
0.129785	1.649870
0.129883	1.624695
0.129980	1.600461
0.130078	1.587400
0.130176	1.568325
0.130273	1.573516
0.130371	1.628511
0.130469	1.583852
0.130566	1.571925
0.130664	1.550062
0.130762	1.584706
0.130859	1.591476
0.130957	1.561766
0.131055	1.563586
0.131152	1.509541
0.131250	1.539826
0.131348	1.554898
0.131445	1.543937
0.131543	1.545097
0.131641	1.553844
0.131738	1.549567
0.131836	1.517404
0.131934	1.499560
0.132031	1.508054
0.132129	1.513773
0.132227	1.501230
0.132324	1.463723
0.132422	1.426309
0.132520	1.385632
0.132617	1.355506
0.132715	1.339624
0.132812	1.339098
0.132910	1.384580
0.133008	1.419918
0.133105	1.395419
0.133203	1.371034
0.133301	1.368426
0.133398	1.389425
0.133496	1.399965
0.133594	1.414105
0.133691	1.428522
0.133789	1.406757
0.133887	1.402076
0.133984	1.439590
0.134082	1.497899
0.134180	1.507040
0.134277	1.481007
0.134375	1.461266
0.134473	1.501095
0.134570	1.528306
0.134668	1.537019
0.134766	1.545863
0.134863	1.551512
0.134961	1.551824
0.135059	1.544006
0.135156	1.557500
0.135254	1.569353
0.135352	1.590728
0.135449	1.591865
0.135547	1.605521
0.135645	1.680538
0.135742	1.594271
0.135840	1.563220
0.135937	1.616524
0.136035	1.554536
0.136133	1.564473
0.136230	1.580733
0.136328	1.547819
0.136426	1.531968
0.136523	1.481974
0.136621	1.406123
0.136719	1.438575
0.136816	1.595872
0.136914	1.646571
0.137012	1.657453
0.137109	1.693750
0.137207	1.697896
0.137305	1.685197
0.137402	1.697035
0.137500	1.681629
0.137598	1.657529
0.137695	1.643397
0.137793	1.625637
0.137891	1.613888
0.137988	1.632998
0.138086	1.638772
0.138184	1.621442
0.138281	1.577962
0.138379	1.572291
0.138477	1.527653
0.138574	1.500058
0.138672	1.498480
0.138770	1.491328
0.138867	1.498990
0.138965	1.491221
0.139062	1.514200
0.139160	1.516444
0.139258	1.504333
0.139355	1.478392
0.139453	1.458437
0.139551	1.409932
0.139648	1.363991
0.139746	1.326639
0.139844	1.284230
0.139941	1.270312
0.140039	1.305878
0.140137	1.339914
0.140234	1.433998
0.140332	1.516378
0.140430	1.541000
0.140527	1.518037
0.140625	1.569577
0.140723	1.598693
0.140820	1.593904
0.140918	1.599956
0.141016	1.595788
0.141113	1.584331
0.141211	1.529632
0.141309	1.515870
0.141406	1.559725
0.141504	1.611817
0.141602	1.607199
0.141699	1.619742
0.141797	1.586619
0.141895	1.556959
0.141992	1.564799
0.142090	1.585322
0.142187	1.604490
0.142285	1.650387
0.142383	1.655013
0.142480	1.605237
0.142578	1.593610
0.142676	1.578882
0.142773	1.591913
0.142871	1.594943
0.142969	1.598933
0.143066	1.598737
0.143164	1.601416
0.143262	1.602230
0.143359	1.604392
0.143457	1.604696
0.143555	1.605884
0.143652	1.606117
0.143750	1.607907
0.143848	1.610381
0.143945	1.613274
0.144043	1.614352
0.144141	1.613588
0.144238	1.614488
0.144336	1.617718
0.144434	1.618690
0.144531	1.623395
0.144629	1.639680
0.144727	1.654215
0.144824	1.659853
0.144922	1.657083
0.145020	1.640617
0.145117	1.645277
0.145215	1.651848
0.145312	1.648133
0.145410	1.653664
0.145508	1.676645
0.145605	1.677474
0.145703	1.660893
0.145801	1.656037
0.145898	1.648731
0.145996	1.622530
0.146094	1.585813
0.146191	1.554027
0.146289	1.558042
0.146387	1.587401
0.146484	1.582768
0.146582	1.598884
0.146680	1.632899
0.146777	1.649478
0.146875	1.646625
0.146973	1.627286
0.147070	1.632017
0.147168	1.627195
0.147266	1.623215
0.147363	1.580502
0.147461	1.564569
0.147559	1.554939
0.147656	1.538397
0.147754	1.548961
0.147852	1.551332
0.147949	1.539056
0.148047	1.542051
0.148145	1.529990
0.148242	1.526382
0.148340	1.542096
0.148437	1.544437
0.148535	1.525641
0.148633	1.501381
0.148730	1.484951
0.148828	1.485341
0.148926	1.480493
0.149023	1.407370
0.149121	1.357013
0.149219	1.369185
0.149316	1.364648
0.149414	1.443900
0.149512	1.472591
0.149609	1.472914
0.149707	1.447986
0.149805	1.481471
0.149902	1.506089
0.150000	1.516215
0.150098	1.504662
0.150195	1.509940
0.150293	1.566707
0.150391	1.558296
0.150488	1.547898
0.150586	1.533863
0.150684	1.569637
0.150781	1.579757
0.150879	1.551327
0.150977	1.516063
0.151074	1.503011
0.151172	1.494173
0.151270	1.579486
0.151367	1.636534
0.151465	1.626087
0.151562	1.615485
0.151660	1.570986
0.151758	1.606979
0.151855	1.629241
0.151953	1.625789
0.152051	1.611761
0.152148	1.603111
0.152246	1.596345
0.152344	1.612818
0.152441	1.602070
0.152539	1.580948
0.152637	1.565638
0.152734	1.561593
0.152832	1.555382
0.152930	1.553518
0.153027	1.557679
0.153125	1.559929
0.153223	1.555811
0.153320	1.537510
0.153418	1.508694
0.153516	1.563352
0.153613	1.587570
0.153711	1.580422
0.153809	1.613051
0.153906	1.595367
0.154004	1.594230
0.154102	1.609310
0.154199	1.582264
0.154297	1.578963
0.154395	1.574577
0.154492	1.598776
0.154590	1.586592
0.154687	1.578454
0.154785	1.576376
0.154883	1.593540
0.154980	1.585314
0.155078	1.590978
0.155176	1.597191
0.155273	1.602577
0.155371	1.581207
0.155469	1.577512
0.155566	1.569053
0.155664	1.548536
0.155762	1.522581
0.155859	1.524465
0.155957	1.536825
0.156055	1.542183
0.156152	1.563278
0.156250	1.576384
0.156348	1.562571
0.156445	1.569452
0.156543	1.572399
0.156641	1.538824
0.156738	1.499647
0.156836	1.476120
0.156934	1.482375
0.157031	1.487519
0.157129	1.481513
0.157227	1.476338
0.157324	1.469463
0.157422	1.459125
0.157520	1.426697
0.157617	1.428295
0.157715	1.427602
0.157812	1.436992
0.157910	1.439968
0.158008	1.424137
0.158105	1.420226
0.158203	1.426611
0.158301	1.413835
0.158398	1.379541
0.158496	1.392943
0.158594	1.435302
0.158691	1.446327
0.158789	1.445803
0.158887	1.454420
0.158984	1.471905
0.159082	1.460289
0.159180	1.478163
0.159277	1.517191
0.159375	1.510534
0.159473	1.516791
0.159570	1.509319
0.159668	1.515160
0.159766	1.528978
0.159863	1.505160
0.159961	1.435033
0.160059	1.420432
0.160156	1.442451
0.160254	1.500994
0.160352	1.532518
0.160449	1.538047
0.160547	1.520557
0.160645	1.516991
0.160742	1.531967
0.160840	1.514387
0.160937	1.477448
0.161035	1.404834
0.161133	1.368673
0.161230	1.360521
0.161328	1.328180
0.161426	1.298075
0.161523	1.315277
0.161621	1.358547
0.161719	1.352884
0.161816	1.349511
0.161914	1.355739
0.162012	1.383195
0.162109	1.445035
0.162207	1.454663
0.162305	1.467437
0.162402	1.475332
0.162500	1.479609
0.162598	1.459106
0.162695	1.411029
0.162793	1.363487
0.162891	1.344313
0.162988	1.342975
0.163086	1.336651
0.163184	1.352658
0.163281	1.334503
0.163379	1.329727
0.163477	1.335984
0.163574	1.335180
0.163672	1.339721
0.163770	1.365356
0.163867	1.401913
0.163965	1.415660
0.164062	1.404948
0.164160	1.407420
0.164258	1.441853
0.164355	1.474744
0.164453	1.502844
0.164551	1.489804
0.164648	1.445279
0.164746	1.419379
0.164844	1.410155
0.164941	1.406526
0.165039	1.379900
0.165137	1.368451
0.165234	1.370493
0.165332	1.399811
0.165430	1.418829
0.165527	1.430741
0.165625	1.467485
0.165723	1.518455
0.165820	1.544194
0.165918	1.524376
0.166016	1.517030
0.166113	1.513549
0.166211	1.524343
0.166309	1.528561
0.166406	1.555602
0.166504	1.571815
0.166602	1.547857
0.166699	1.526787
0.166797	1.509355
0.166895	1.508527
0.166992	1.503187
0.167090	1.501386
0.167187	1.517721
0.167285	1.519428
0.167383	1.535604
0.167480	1.541507
0.167578	1.519349
0.167676	1.472780
0.167773	1.463134
0.167871	1.493904
0.167969	1.490260
0.168066	1.487459
0.168164	1.484634
0.168262	1.454335
0.168359	1.439202
0.168457	1.405265
0.168555	1.431238
0.168652	1.487124
0.168750	1.466807
0.168848	1.444683
0.168945	1.433327
0.169043	1.426003
0.169141	1.434508
0.169238	1.467638
0.169336	1.470208
0.169434	1.463546
0.169531	1.461533
0.169629	1.469731
0.169727	1.431680
0.169824	1.411396
0.169922	1.425681
0.170020	1.447045
0.170117	1.439526
0.170215	1.412610
0.170312	1.405525
0.170410	1.393610
0.170508	1.395243
0.170605	1.402005
0.170703	1.417495
0.170801	1.408638
0.170898	1.369735
0.170996	1.290696
0.171094	1.278642
0.171191	1.348122
0.171289	1.382100
0.171387	1.388900
0.171484	1.372611
0.171582	1.361400
0.171680	1.365780
0.171777	1.375522
0.171875	1.380135
0.171973	1.372578
0.172070	1.341532
0.172168	1.300311
0.172266	1.271722
0.172363	1.292554
0.172461	1.325126
0.172559	1.368720
0.172656	1.413292
0.172754	1.420907
0.172852	1.405471
0.172949	1.402699
0.173047	1.391849
0.173145	1.390620
0.173242	1.423669
0.173340	1.437043
0.173437	1.418661
0.173535	1.462963
0.173633	1.538859
0.173730	1.554427
0.173828	1.544981
0.173926	1.527949
0.174023	1.501661
0.174121	1.525038
0.174219	1.548869
0.174316	1.541016
0.174414	1.562407
0.174512	1.564314
0.174609	1.536131
0.174707	1.541114
0.174805	1.522643
0.174902	1.538709
0.175000	1.577650
0.175098	1.574903
0.175195	1.563938
0.175293	1.540717
0.175391	1.530231
0.175488	1.524529
0.175586	1.512220
0.175684	1.511473
0.175781	1.501624
0.175879	1.533104
0.175977	1.532961
0.176074	1.527928
0.176172	1.552921
0.176270	1.541352
0.176367	1.525831
0.176465	1.527508
0.176562	1.499895
0.176660	1.491698
0.176758	1.510213
0.176855	1.519347
0.176953	1.542314
0.177051	1.555227
0.177148	1.544826
0.177246	1.547981
0.177344	1.561467
0.177441	1.566480
0.177539	1.562945
0.177637	1.573327
0.177734	1.589794
0.177832	1.615413
0.177930	1.597972
0.178027	1.606486
0.178125	1.627647
0.178223	1.658472
0.178320	1.660071
0.178418	1.617936
0.178516	1.605317
0.178613	1.580339
0.178711	1.524876
0.178809	1.509737
0.178906	1.500955
0.179004	1.522282
0.179102	1.550780
0.179199	1.546626
0.179297	1.533255
0.179395	1.504176
0.179492	1.479673
0.179590	1.543205
0.179687	1.577098
0.179785	1.573503
0.179883	1.552370
0.179980	1.499088
0.180078	1.477046
0.180176	1.539997
0.180273	1.532019
0.180371	1.550722
0.180469	1.568263
0.180566	1.528901
0.180664	1.497646
0.180762	1.482689
0.180859	1.460189
0.180957	1.455686
0.181055	1.498243
0.181152	1.562972
0.181250	1.581491
0.181348	1.558819
0.181445	1.515849
0.181543	1.523758
0.181641	1.526638
0.181738	1.502393
0.181836	1.517079
0.181934	1.537971
0.182031	1.549927
0.182129	1.534066
0.182227	1.496719
0.182324	1.475057
0.182422	1.470088
0.182520	1.472901
0.182617	1.481684
0.182715	1.502828
0.182812	1.558673
0.182910	1.552448
0.183008	1.561580
0.183105	1.603047
0.183203	1.599301
0.183301	1.555532
0.183398	1.538931
0.183496	1.547494
0.183594	1.568825
0.183691	1.570192
0.183789	1.536346
0.183887	1.512835
0.183984	1.485607
0.184082	1.491475
0.184180	1.502359
0.184277	1.478125
0.184375	1.455433
0.184473	1.483363
0.184570	1.493781
0.184668	1.483827
0.184766	1.476912
0.184863	1.473854
0.184961	1.452036
0.185059	1.445431
0.185156	1.447983
0.185254	1.446268
0.185352	1.438975
0.185449	1.420479
0.185547	1.429117
0.185645	1.452718
0.185742	1.483493
0.185840	1.518255
0.185937	1.542918
0.186035	1.549354
0.186133	1.489580
0.186230	1.504125
0.186328	1.571454
0.186426	1.523355
0.186523	1.497030
0.186621	1.476048
0.186719	1.464007
0.186816	1.468996
0.186914	1.484872
0.187012	1.523722
0.187109	1.491394
0.187207	1.478046
0.187305	1.489776
0.187402	1.504115
0.187500	1.562122
0.187598	1.542027
0.187695	1.510425
0.187793	1.517388
0.187891	1.558885
0.187988	1.525624
0.188086	1.554724
0.188184	1.574146
0.188281	1.555952
0.188379	1.521419
0.188477	1.501850
0.188574	1.481496
0.188672	1.472557
0.188770	1.470298
0.188867	1.451224
0.188965	1.443340
0.189062	1.474030
0.189160	1.496036
0.189258	1.510623
0.189355	1.505369
0.189453	1.510614
0.189551	1.537461
0.189648	1.546532
0.189746	1.563789
0.189844	1.550091
0.189941	1.534929
0.190039	1.542545
0.190137	1.536197
0.190234	1.550380
0.190332	1.547776
0.190430	1.510210
0.190527	1.497965
0.190625	1.504986
0.190723	1.514596
0.190820	1.521126
0.190918	1.528068
0.191016	1.522613
0.191113	1.507413
0.191211	1.497038
0.191309	1.505927
0.191406	1.510465
0.191504	1.488856
0.191602	1.476041
0.191699	1.455743
0.191797	1.466106
0.191895	1.495553
0.191992	1.492623
0.192090	1.491317
0.192187	1.491176
0.192285	1.516047
0.192383	1.524285
0.192480	1.532912
0.192578	1.563400
0.192676	1.581085
0.192773	1.588784
0.192871	1.582242
0.192969	1.573149
0.193066	1.560551
0.193164	1.529316
0.193262	1.524672
0.193359	1.558800
0.193457	1.583561
0.193555	1.597131
0.193652	1.592741
0.193750	1.616098
0.193848	1.616300
0.193945	1.597378
0.194043	1.593186
0.194141	1.613370
0.194238	1.601207
0.194336	1.589628
0.194434	1.583474
0.194531	1.596334
0.194629	1.575719
0.194727	1.552885
0.194824	1.531056
0.194922	1.534195
0.195020	1.531181
0.195117	1.536399
0.195215	1.560177
0.195312	1.574893
0.195410	1.578980
0.195508	1.577073
0.195605	1.613040
0.195703	1.608060
0.195801	1.607479
0.195898	1.618406
0.195996	1.608456
0.196094	1.615569
0.196191	1.656714
0.196289	1.640065
0.196387	1.664910
0.196484	1.677504
0.196582	1.661331
0.196680	1.649974
0.196777	1.622139
0.196875	1.621599
0.196973	1.613451
0.197070	1.601619
0.197168	1.560057
0.197266	1.578114
0.197363	1.611848
0.197461	1.615528
0.197559	1.602505
0.197656	1.591601
0.197754	1.582776
0.197852	1.572972
0.197949	1.579767
0.198047	1.562178
0.198145	1.554564
0.198242	1.554384
0.198340	1.544562
0.198437	1.536368
0.198535	1.521142
0.198633	1.509859
0.198730	1.497030
0.198828	1.482414
0.198926	1.465532
0.199023	1.459119
0.199121	1.452786
0.199219	1.438361
0.199316	1.420300
0.199414	1.408130
0.199512	1.411809
0.199609	1.425196
0.199707	1.426210
0.199805	1.418121
0.199902	1.421370
0.200000	1.425968
0.200098	1.446257
0.200195	1.460850
0.200293	1.460483
0.200391	1.453525
0.200488	1.448052
0.200586	1.447374
0.200684	1.444973
0.200781	1.436811
0.200879	1.430977
0.200977	1.431396
0.201074	1.434317
0.201172	1.433128
0.201270	1.424241
0.201367	1.415070
0.201465	1.407230
0.201562	1.399485
0.201660	1.373002
0.201758	1.339732
0.201855	1.324837
0.201953	1.326625
0.202051	1.342351
0.202148	1.368312
0.202246	1.394435
0.202344	1.414451
0.202441	1.443896
0.202539	1.472433
0.202637	1.490002
0.202734	1.471109
0.202832	1.457841
0.202930	1.465551
0.203027	1.479318
0.203125	1.473053
0.203223	1.439460
0.203320	1.435060
0.203418	1.448613
0.203516	1.472617
0.203613	1.504057
0.203711	1.484972
0.203809	1.471462
0.203906	1.466625
0.204004	1.481527
0.204102	1.466147
0.204199	1.408152
0.204297	1.442717
0.204395	1.431223
0.204492	1.472361
0.204590	1.465877
0.204687	1.387709
0.204785	1.362720
0.204883	1.390263
0.204980	1.471736
0.205078	1.523086
0.205176	1.531972
0.205273	1.515966
0.205371	1.453363
0.205469	1.455097
0.205566	1.509036
0.205664	1.523259
0.205762	1.526346
0.205859	1.515662
0.205957	1.570858
0.206055	1.553116
0.206152	1.561392
0.206250	1.590629
0.206348	1.576988
0.206445	1.555225
0.206543	1.539438
0.206641	1.541979
0.206738	1.562550
0.206836	1.558516
0.206934	1.535754
0.207031	1.518537
0.207129	1.504807
0.207227	1.493434
0.207324	1.471595
0.207422	1.467868
0.207520	1.454317
0.207617	1.443634
0.207715	1.425384
0.207812	1.430520
0.207910	1.465863
0.208008	1.474594
0.208105	1.463523
0.208203	1.519965
0.208301	1.561655
0.208398	1.565678
0.208496	1.576879
0.208594	1.601223
0.208691	1.585621
0.208789	1.557887
0.208887	1.567421
0.208984	1.563703
0.209082	1.539992
0.209180	1.530273
0.209277	1.561738
0.209375	1.569386
0.209473	1.535892
0.209570	1.586836
0.209668	1.617691
0.209766	1.608382
0.209863	1.601687
0.209961	1.607808
0.210059	1.604545
0.210156	1.610632
0.210254	1.628418
0.210352	1.610420
0.210449	1.582686
0.210547	1.594703
0.210645	1.603042
0.210742	1.600794
0.210840	1.592793
0.210937	1.527803
0.211035	1.495078
0.211133	1.484082
0.211230	1.549392
0.211328	1.585423
0.211426	1.571726
0.211523	1.566193
0.211621	1.544477
0.211719	1.536869
0.211816	1.538193
0.211914	1.554409
0.212012	1.549097
0.212109	1.518457
0.212207	1.493766
0.212305	1.492102
0.212402	1.489721
0.212500	1.460458
0.212598	1.390448
0.212695	1.364296
0.212793	1.391360
0.212891	1.437088
0.212988	1.455792
0.213086	1.446831
0.213184	1.485629
0.213281	1.506323
0.213379	1.512236
0.213477	1.508964
0.213574	1.498833
0.213672	1.479702
0.213770	1.464020
0.213867	1.455214
0.213965	1.458504
0.214062	1.458530
0.214160	1.460657
0.214258	1.467265
0.214355	1.470853
0.214453	1.463337
0.214551	1.449782
0.214648	1.443846
0.214746	1.442873
0.214844	1.441691
0.214941	1.443034
0.215039	1.437986
0.215137	1.422961
0.215234	1.400996
0.215332	1.382767
0.215430	1.368351
0.215527	1.351913
0.215625	1.332177
0.215723	1.327559
0.215820	1.342360
0.215918	1.355581
0.216016	1.362158
0.216113	1.363205
0.216211	1.363535
0.216309	1.366277
0.216406	1.380247
0.216504	1.396906
0.216602	1.407078
0.216699	1.406588
0.216797	1.390151
0.216895	1.369086
0.216992	1.355197
0.217090	1.343020
0.217187	1.324155
0.217285	1.297770
0.217383	1.265028
0.217480	1.247079
0.217578	1.292343
0.217676	1.333184
0.217773	1.343770
0.217871	1.336263
0.217969	1.294148
0.218066	1.269454
0.218164	1.289811
0.218262	1.307669
0.218359	1.320884
0.218457	1.326914
0.218555	1.312333
0.218652	1.311741
0.218750	1.335244
0.218848	1.367186
0.218945	1.416258
0.219043	1.452421
0.219141	1.462957
0.219238	1.477117
0.219336	1.486706
0.219434	1.462340
0.219531	1.430810
0.219629	1.426180
0.219727	1.435140
0.219824	1.466092
0.219922	1.482115
0.220020	1.491829
0.220117	1.479694
0.220215	1.480867
0.220312	1.504781
0.220410	1.526887
0.220508	1.530559
0.220605	1.505387
0.220703	1.483424
0.220801	1.488745
0.220898	1.504269
0.220996	1.507830
0.221094	1.506564
0.221191	1.500003
0.221289	1.491597
0.221387	1.504856
0.221484	1.502178
0.221582	1.515448
0.221680	1.551510
0.221777	1.548465
0.221875	1.546285
0.221973	1.550032
0.222070	1.540928
0.222168	1.519863
0.222266	1.526196
0.222363	1.555098
0.222461	1.511977
0.222559	1.516607
0.222656	1.554407
0.222754	1.581049
0.222852	1.574179
0.222949	1.523703
0.223047	1.498710
0.223145	1.518661
0.223242	1.527971
0.223340	1.589312
0.223437	1.629684
0.223535	1.642302
0.223633	1.655183
0.223730	1.657252
0.223828	1.660502
0.223926	1.653037
0.224023	1.617654
0.224121	1.605185
0.224219	1.610588
0.224316	1.636147
0.224414	1.684044
0.224512	1.669948
0.224609	1.661940
0.224707	1.604298
0.224805	1.606258
0.224902	1.631858
0.225000	1.627901
0.225098	1.611393
0.225195	1.609179
0.225293	1.553734
0.225391	1.509771
0.225488	1.551097
0.225586	1.534882
0.225684	1.529399
0.225781	1.568358
0.225879	1.580938
0.225977	1.584912
0.226074	1.601111
0.226172	1.601530
0.226270	1.575998
0.226367	1.542065
0.226465	1.528101
0.226562	1.541617
0.226660	1.566196
0.226758	1.605759
0.226855	1.577693
0.226953	1.592830
0.227051	1.603551
0.227148	1.574580
0.227246	1.528977
0.227344	1.499403
0.227441	1.523928
0.227539	1.552213
0.227637	1.527473
0.227734	1.509058
0.227832	1.544906
0.227930	1.569464
0.228027	1.539012
0.228125	1.492550
0.228223	1.482116
0.228320	1.529605
0.228418	1.544353
0.228516	1.519418
0.228613	1.519252
0.228711	1.548345
0.228809	1.569219
0.228906	1.569449
0.229004	1.559116
0.229102	1.568669
0.229199	1.541119
0.229297	1.454068
0.229395	1.432707
0.229492	1.524428
0.229590	1.558614
0.229687	1.517586
0.229785	1.478102
0.229883	1.492883
0.229980	1.473759
0.230078	1.477176
0.230176	1.549271
0.230273	1.520501
0.230371	1.519620
0.230469	1.521074
0.230566	1.499878
0.230664	1.493210
0.230762	1.421548
0.230859	1.356131
0.230957	1.409409
0.231055	1.424152
0.231152	1.417306
0.231250	1.402338
0.231348	1.390572
0.231445	1.387674
0.231543	1.388051
0.231641	1.396603
0.231738	1.406479
0.231836	1.405635
0.231934	1.385222
0.232031	1.397275
0.232129	1.420390
0.232227	1.422076
0.232324	1.421244
0.232422	1.417335
0.232520	1.424244
0.232617	1.441691
0.232715	1.458104
0.232812	1.464670
0.232910	1.465526
0.233008	1.468147
0.233105	1.491061
0.233203	1.500785
0.233301	1.471183
0.233398	1.442042
0.233496	1.373929
0.233594	1.373270
0.233691	1.452773
0.233789	1.470331
0.233887	1.464775
0.233984	1.457603
0.234082	1.483883
0.234180	1.497267
0.234277	1.491277
0.234375	1.464604
0.234473	1.439296
0.234570	1.494711
0.234668	1.520699
0.234766	1.501775
0.234863	1.444959
0.234961	1.354177
0.235059	1.313181
0.235156	1.392154
0.235254	1.440381
0.235352	1.447868
0.235449	1.473356
0.235547	1.500124
0.235645	1.507180
0.235742	1.459886
0.235840	1.439244
0.235937	1.456073
0.236035	1.485220
0.236133	1.504703
0.236230	1.515851
0.236328	1.530832
0.236426	1.518521
0.236523	1.498178
0.236621	1.460111
0.236719	1.432295
0.236816	1.423132
0.236914	1.449489
0.237012	1.462915
0.237109	1.446459
0.237207	1.461602
0.237305	1.441631
0.237402	1.453461
0.237500	1.453192
0.237598	1.466236
0.237695	1.492465
0.237793	1.490219
0.237891	1.493051
0.237988	1.500375
0.238086	1.497814
0.238184	1.488122
0.238281	1.473302
0.238379	1.453487
0.238477	1.459621
0.238574	1.485324
0.238672	1.483606
0.238770	1.463324
0.238867	1.447427
0.238965	1.426274
0.239062	1.409461
0.239160	1.400437
0.239258	1.415888
0.239355	1.427165
0.239453	1.423005
0.239551	1.426855
0.239648	1.416867
0.239746	1.412217
0.239844	1.428026
0.239941	1.432579
0.240039	1.453591
0.240137	1.481903
0.240234	1.493563
0.240332	1.503360
0.240430	1.504195
0.240527	1.504027
0.240625	1.510833
0.240723	1.535246
0.240820	1.542087
0.240918	1.556030
0.241016	1.547208
0.241113	1.538339
0.241211	1.539162
0.241309	1.534192
0.241406	1.541047
0.241504	1.544130
0.241602	1.557012
0.241699	1.572111
0.241797	1.567568
0.241895	1.550840
0.241992	1.547245
0.242090	1.547932
0.242187	1.563081
0.242285	1.544491
0.242383	1.548750
0.242480	1.541222
0.242578	1.540859
0.242676	1.562383
0.242773	1.562931
0.242871	1.559156
0.242969	1.543459
0.243066	1.532722
0.243164	1.550578
0.243262	1.555972
0.243359	1.528592
0.243457	1.541813
0.243555	1.559821
0.243652	1.553055
0.243750	1.553991
0.243848	1.538931
0.243945	1.525629
0.244043	1.509396
0.244141	1.479893
0.244238	1.473565
0.244336	1.502811
0.244434	1.520621
0.244531	1.518632
0.244629	1.521791
0.244727	1.533854
0.244824	1.522670
0.244922	1.528376
0.245020	1.548201
0.245117	1.542746
0.245215	1.553925
0.245312	1.555000
0.245410	1.540762
0.245508	1.518947
0.245605	1.501504
0.245703	1.490082
0.245801	1.488928
0.245898	1.496750
0.245996	1.507181
0.246094	1.513330
0.246191	1.487834
0.246289	1.493799
0.246387	1.512308
0.246484	1.519471
0.246582	1.547664
0.246680	1.583019
0.246777	1.550205
0.246875	1.508225
0.246973	1.459299
0.247070	1.427149
0.247168	1.466977
0.247266	1.498010
0.247363	1.479561
0.247461	1.465768
0.247559	1.455696
0.247656	1.454602
0.247754	1.464618
0.247852	1.442593
0.247949	1.410470
0.248047	1.391213
0.248145	1.415380
0.248242	1.450678
0.248340	1.481500
0.248437	1.509178
0.248535	1.514290
0.248633	1.511561
0.248730	1.514520
0.248828	1.515440
0.248926	1.508464
0.249023	1.515024
0.249121	1.502394
0.249219	1.494228
0.249316	1.496677
0.249414	1.487509
0.249512	1.460468
0.249609	1.448749
0.249707	1.484962
0.249805	1.494752
0.249902	1.522161
0.250000	1.573454
0.250098	1.516414
0.250195	1.488872
0.250293	1.481727
0.250391	1.432233
0.250488	1.446917
0.250586	1.520901
0.250684	1.537591
0.250781	1.528792
0.250879	1.492766
0.250977	1.503232
0.251074	1.508721
0.251172	1.524180
0.251270	1.528971
0.251367	1.554778
0.251465	1.565020
0.251562	1.577682
0.251660	1.584126
0.251758	1.593605
0.251855	1.544903
0.251953	1.561956
0.252051	1.563026
0.252148	1.545149
0.252246	1.523595
0.252344	1.519378
0.252441	1.545149
0.252539	1.529555
0.252637	1.474871
0.252734	1.496077
0.252832	1.500420
0.252930	1.490821
0.253027	1.468947
0.253125	1.465032
0.253223	1.467424
0.253320	1.515774
0.253418	1.533517
0.253516	1.565019
0.253613	1.540372
0.253711	1.517898
0.253809	1.499926
0.253906	1.487445
0.254004	1.472083
0.254102	1.463784
0.254199	1.470535
0.254297	1.448832
0.254395	1.450023
0.254492	1.464018
0.254590	1.499059
0.254687	1.483890
0.254785	1.498847
0.254883	1.557660
0.254980	1.554389
0.255078	1.537346
0.255176	1.563200
0.255273	1.559533
0.255371	1.594272
0.255469	1.534029
0.255566	1.489485
0.255664	1.486463
0.255762	1.464136
0.255859	1.418971
0.255957	1.413497
0.256055	1.387289
0.256152	1.453880
0.256250	1.574646
0.256348	1.580967
0.256445	1.555138
0.256543	1.486425
0.256641	1.426149
0.256738	1.376792
0.256836	1.398259
0.256934	1.397635
0.257031	1.363049
0.257129	1.450209
0.257227	1.335907
0.257324	1.374531
0.257422	1.409073
0.257520	1.395937
0.257617	1.421904
0.257715	1.416733
0.257812	1.439775
0.257910	1.474255
0.258008	1.484552
0.258105	1.476802
0.258203	1.487854
0.258301	1.490112
0.258398	1.480490
0.258496	1.477396
0.258594	1.480718
0.258691	1.477090
0.258789	1.466701
0.258887	1.440745
0.258984	1.417500
0.259082	1.387080
0.259180	1.349041
0.259277	1.314857
0.259375	1.282718
0.259473	1.262466
0.259570	1.255762
0.259668	1.253586
0.259766	1.247668
0.259863	1.239662
0.259961	1.234112
0.260059	1.231890
0.260156	1.231055
0.260254	1.229521
0.260352	1.226468
0.260449	1.223898
0.260547	1.228035
0.260645	1.242331
0.260742	1.265473
0.260840	1.292437
0.260937	1.316553
0.261035	1.336553
0.261133	1.358563
0.261230	1.376801
0.261328	1.388415
0.261426	1.395108
0.261523	1.399830
0.261621	1.406186
0.261719	1.412955
0.261816	1.395481
0.261914	1.367969
0.262012	1.374984
0.262109	1.399274
0.262207	1.419106
0.262305	1.426819
0.262402	1.416629
0.262500	1.418359
0.262598	1.438675
0.262695	1.463358
0.262793	1.477228
0.262891	1.496788
0.262988	1.501039
0.263086	1.451828
0.263184	1.440472
0.263281	1.447529
0.263379	1.454048
0.263477	1.418662
0.263574	1.370164
0.263672	1.388638
0.263770	1.411276
0.263867	1.443534
0.263965	1.481916
0.264062	1.513150
0.264160	1.528008
0.264258	1.482787
0.264355	1.445010
0.264453	1.403122
0.264551	1.322881
0.264648	1.306954
0.264746	1.325918
0.264844	1.360167
0.264941	1.353807
0.265039	1.398476
0.265137	1.442340
0.265234	1.466118
0.265332	1.448834
0.265430	1.445744
0.265527	1.458902
0.265625	1.504018
0.265723	1.542644
0.265820	1.477051
0.265918	1.410583
0.266016	1.399777
0.266113	1.385431
0.266211	1.380761
0.266309	1.410268
0.266406	1.468730
0.266504	1.437585
0.266602	1.412697
0.266699	1.433711
0.266797	1.419085
0.266895	1.428049
0.266992	1.456410
0.267090	1.476800
0.267187	1.485339
0.267285	1.514264
0.267383	1.525303
0.267480	1.509266
0.267578	1.480423
0.267676	1.504741
0.267773	1.504182
0.267871	1.509671
0.267969	1.506958
0.268066	1.489770
0.268164	1.481155
0.268262	1.463920
0.268359	1.440268
0.268457	1.419903
0.268555	1.400181
0.268652	1.372776
0.268750	1.355204
0.268848	1.348057
0.268945	1.341559
0.269043	1.348085
0.269141	1.370817
0.269238	1.403293
0.269336	1.415823
0.269434	1.417146
0.269531	1.446795
0.269629	1.462717
0.269727	1.441887
0.269824	1.433793
0.269922	1.457725
0.270020	1.469582
0.270117	1.454909
0.270215	1.445007
0.270312	1.436542
0.270410	1.419060
0.270508	1.421992
0.270605	1.429838
0.270703	1.441453
0.270801	1.442236
0.270898	1.437726
0.270996	1.446079
0.271094	1.465162
0.271191	1.480610
0.271289	1.471125
0.271387	1.469999
0.271484	1.474502
0.271582	1.480913
0.271680	1.498217
0.271777	1.515977
0.271875	1.522298
0.271973	1.512062
0.272070	1.496025
0.272168	1.489215
0.272266	1.483804
0.272363	1.478060
0.272461	1.474097
0.272559	1.475714
0.272656	1.482953
0.272754	1.492283
0.272852	1.489786
0.272949	1.477363
0.273047	1.483792
0.273145	1.497889
0.273242	1.504958
0.273340	1.511370
0.273437	1.513054
0.273535	1.491271
0.273633	1.465998
0.273730	1.468925
0.273828	1.470708
0.273926	1.481746
0.274023	1.495064
0.274121	1.507530
0.274219	1.527681
0.274316	1.544530
0.274414	1.540816
0.274512	1.524047
0.274609	1.498634
0.274707	1.477386
0.274805	1.473067
0.274902	1.490032
0.275000	1.508765
0.275098	1.514648
0.275195	1.519821
0.275293	1.512805
0.275391	1.505704
0.275488	1.488945
0.275586	1.464939
0.275684	1.449998
0.275781	1.437659
0.275879	1.436483
0.275977	1.452595
0.276074	1.460051
0.276172	1.448766
0.276270	1.481771
0.276367	1.494740
0.276465	1.437661
0.276562	1.383317
0.276660	1.342056
0.276758	1.339597
0.276855	1.314634
0.276953	1.330348
0.277051	1.402710
0.277148	1.440883
0.277246	1.461258
0.277344	1.457351
0.277441	1.437278
0.277539	1.424560
0.277637	1.422492
0.277734	1.421067
0.277832	1.424995
0.277930	1.425430
0.278027	1.422758
0.278125	1.426032
0.278223	1.437026
0.278320	1.450228
0.278418	1.459774
0.278516	1.458747
0.278613	1.448996
0.278711	1.440138
0.278809	1.446455
0.278906	1.448196
0.279004	1.465331
0.279102	1.481030
0.279199	1.472943
0.279297	1.467426
0.279395	1.462738
0.279492	1.447662
0.279590	1.434756
0.279687	1.420048
0.279785	1.421033
0.279883	1.433673
0.279980	1.432326
0.280078	1.417821
0.280176	1.409783
0.280273	1.417558
0.280371	1.443663
0.280469	1.466068
0.280566	1.472025
0.280664	1.471920
0.280762	1.469960
0.280859	1.458373
0.280957	1.453177
0.281055	1.459614
0.281152	1.464808
0.281250	1.482178
0.281348	1.487909
0.281445	1.494959
0.281543	1.523517
0.281641	1.543257
0.281738	1.548001
0.281836	1.542145
0.281934	1.549447
0.282031	1.554999
0.282129	1.552293
0.282227	1.560661
0.282324	1.539463
0.282422	1.490186
0.282520	1.453306
0.282617	1.511484
0.282715	1.569508
0.282812	1.561464
0.282910	1.555744
0.283008	1.536502
0.283105	1.553192
0.283203	1.558285
0.283301	1.563096
0.283398	1.567589
0.283496	1.565007
0.283594	1.551538
0.283691	1.564623
0.283789	1.558427
0.283887	1.549873
0.283984	1.529425
0.284082	1.541784
0.284180	1.568476
0.284277	1.577630
0.284375	1.536285
0.284473	1.565845
0.284570	1.587860
0.284668	1.560408
0.284766	1.580498
0.284863	1.583942
0.284961	1.593852
0.285059	1.598728
0.285156	1.602001
0.285254	1.593648
0.285352	1.587084
0.285449	1.566480
0.285547	1.539979
0.285645	1.607095
0.285742	1.616113
0.285840	1.605782
0.285937	1.564587
0.286035	1.496243
0.286133	1.436718
0.286230	1.420766
0.286328	1.405623
0.286426	1.392371
0.286523	1.400486
0.286621	1.463187
0.286719	1.508369
0.286816	1.527656
0.286914	1.535618
0.287012	1.526594
0.287109	1.562292
0.287207	1.602319
0.287305	1.624334
0.287402	1.627867
0.287500	1.622702
0.287598	1.643487
0.287695	1.644564
0.287793	1.576035
0.287891	1.530213
0.287988	1.513012
0.288086	1.545293
0.288184	1.543405
0.288281	1.548420
0.288379	1.591110
0.288477	1.567758
0.288574	1.521070
0.288672	1.500774
0.288770	1.480654
0.288867	1.462525
0.288965	1.464468
0.289062	1.472436
0.289160	1.465517
0.289258	1.454442
0.289355	1.461816
0.289453	1.485182
0.289551	1.486598
0.289648	1.480527
0.289746	1.472930
0.289844	1.464068
0.289941	1.460260
0.290039	1.462239
0.290137	1.472300
0.290234	1.486781
0.290332	1.514307
0.290430	1.539756
0.290527	1.523790
0.290625	1.472428
0.290723	1.423986
0.290820	1.425925
0.290918	1.455897
0.291016	1.449342
0.291113	1.432607
0.291211	1.432744
0.291309	1.439825
0.291406	1.443703
0.291504	1.445673
0.291602	1.443344
0.291699	1.437252
0.291797	1.429624
0.291895	1.424657
0.291992	1.421190
0.292090	1.425886
0.292187	1.438787
0.292285	1.448517
0.292383	1.455320
0.292480	1.459006
0.292578	1.460200
0.292676	1.455744
0.292773	1.444802
0.292871	1.430795
0.292969	1.415846
0.293066	1.402864
0.293164	1.393890
0.293262	1.389707
0.293359	1.388001
0.293457	1.387389
0.293555	1.386082
0.293652	1.385609
0.293750	1.389375
0.293848	1.393103
0.293945	1.389840
0.294043	1.378404
0.294141	1.361334
0.294238	1.340592
0.294336	1.318869
0.294434	1.298804
0.294531	1.280973
0.294629	1.264799
0.294727	1.250009
0.294824	1.235957
0.294922	1.222968
0.295020	1.211730
0.295117	1.203358
0.295215	1.198917
0.295312	1.199754
0.295410	1.206534
0.295508	1.218717
0.295605	1.235083
0.295703	1.252730
0.295801	1.269671
0.295898	1.284666
0.295996	1.298207
0.296094	1.311529
0.296191	1.326367
0.296289	1.343122
0.296387	1.359193
0.296484	1.372654
0.296582	1.382265
0.296680	1.387956
0.296777	1.392926
0.296875	1.399096
0.296973	1.408715
0.297070	1.421889
0.297168	1.432791
0.297266	1.438289
0.297363	1.437078
0.297461	1.432395
0.297559	1.429372
0.297656	1.426251
0.297754	1.421400
0.297852	1.410469
0.297949	1.389664
0.298047	1.371611
0.298145	1.368835
0.298242	1.364205
0.298340	1.356234
0.298437	1.354125
0.298535	1.346659
0.298633	1.341337
0.298730	1.344256
0.298828	1.359313
0.298926	1.398357
0.299023	1.438808
0.299121	1.431005
0.299219	1.420419
0.299316	1.424872
0.299414	1.423098
0.299512	1.414277
0.299609	1.422404
0.299707	1.437197
0.299805	1.457141
0.299902	1.473949
0.300000	1.501587
0.300098	1.497011
0.300195	1.480206
0.300293	1.515812
0.300391	1.552909
0.300488	1.572243
0.300586	1.577349
0.300684	1.565518
0.300781	1.555018
0.300879	1.515519
0.300977	1.478617
0.301074	1.473984
0.301172	1.478624
0.301270	1.492666
0.301367	1.518819
0.301465	1.538992
0.301562	1.562724
0.301660	1.561917
0.301758	1.545781
0.301855	1.547811
0.301953	1.516312
0.302051	1.493119
0.302148	1.487658
0.302246	1.484494
0.302344	1.489130
0.302441	1.509748
0.302539	1.527762
0.302637	1.532543
0.302734	1.538664
0.302832	1.538897
0.302930	1.513623
0.303027	1.485463
0.303125	1.500863
0.303223	1.515032
0.303320	1.541539
0.303418	1.550262
0.303516	1.557657
0.303613	1.545786
0.303711	1.537301
0.303809	1.525337
0.303906	1.502898
0.304004	1.494837
0.304102	1.514688
0.304199	1.525659
0.304297	1.513018
0.304395	1.495386
0.304492	1.493025
0.304590	1.481925
0.304687	1.455284
0.304785	1.436081
0.304883	1.417414
0.304980	1.409218
0.305078	1.410424
0.305176	1.420276
0.305273	1.432535
0.305371	1.448598
0.305469	1.453049
0.305566	1.440294
0.305664	1.418855
0.305762	1.400022
0.305859	1.373411
0.305957	1.349935
0.306055	1.345772
0.306152	1.369135
0.306250	1.399155
0.306348	1.418549
0.306445	1.427536
0.306543	1.423627
0.306641	1.407012
0.306738	1.380582
0.306836	1.348947
0.306934	1.313934
0.307031	1.277739
0.307129	1.250955
0.307227	1.248511
0.307324	1.270280
0.307422	1.288933
0.307520	1.294360
0.307617	1.303591
0.307715	1.346249
0.307812	1.388811
0.307910	1.410614
0.308008	1.423716
0.308105	1.426894
0.308203	1.425928
0.308301	1.418597
0.308398	1.411407
0.308496	1.406958
0.308594	1.404544
0.308691	1.401971
0.308789	1.398064
0.308887	1.394838
0.308984	1.396669
0.309082	1.398884
0.309180	1.403066
0.309277	1.406999
0.309375	1.408409
0.309473	1.406155
0.309570	1.407838
0.309668	1.409527
0.309766	1.418216
0.309863	1.434405
0.309961	1.435703
0.310059	1.406739
0.310156	1.396976
0.310254	1.406499
0.310352	1.426722
0.310449	1.457456
0.310547	1.483596
0.310645	1.500181
0.310742	1.504242
0.310840	1.514069
0.310937	1.520604
0.311035	1.497575
0.311133	1.529494
0.311230	1.522761
0.311328	1.483470
0.311426	1.467090
0.311523	1.472373
0.311621	1.470692
0.311719	1.477727
0.311816	1.466291
0.311914	1.430165
0.312012	1.444659
0.312109	1.451300
0.312207	1.469429
0.312305	1.517835
0.312402	1.542088
0.312500	1.545512
0.312598	1.546428
0.312695	1.531767
0.312793	1.532504
0.312891	1.536729
0.312988	1.551375
0.313086	1.572922
0.313184	1.553695
0.313281	1.503538
0.313379	1.482956
0.313477	1.493570
0.313574	1.507597
0.313672	1.508162
0.313770	1.517167
0.313867	1.533471
0.313965	1.517147
0.314062	1.486003
0.314160	1.497703
0.314258	1.525553
0.314355	1.552311
0.314453	1.563515
0.314551	1.541020
0.314648	1.514762
0.314746	1.513185
0.314844	1.503867
0.314941	1.511522
0.315039	1.513639
0.315137	1.500709
0.315234	1.492250
0.315332	1.495108
0.315430	1.502461
0.315527	1.511973
0.315625	1.508905
0.315723	1.484423
0.315820	1.466094
0.315918	1.440494
0.316016	1.415305
0.316113	1.400459
0.316211	1.401830
0.316309	1.411171
0.316406	1.421918
0.316504	1.441244
0.316602	1.482469
0.316699	1.512915
0.316797	1.504541
0.316895	1.496436
0.316992	1.486746
0.317090	1.474123
0.317187	1.434322
0.317285	1.422467
0.317383	1.431306
0.317480	1.455939
0.317578	1.507272
0.317676	1.513647
0.317773	1.492208
0.317871	1.479997
0.317969	1.486515
0.318066	1.489709
0.318164	1.482571
0.318262	1.463345
0.318359	1.448107
0.318457	1.432903
0.318555	1.411962
0.318652	1.391246
0.318750	1.376310
0.318848	1.362702
0.318945	1.355498
0.319043	1.356965
0.319141	1.351113
0.319238	1.364917
0.319336	1.396309
0.319434	1.430706
0.319531	1.467733
0.319629	1.483681
0.319727	1.489592
0.319824	1.466526
0.319922	1.431446
0.320020	1.401034
0.320117	1.387773
0.320215	1.358460
0.320312	1.329215
0.320410	1.396154
0.320508	1.418200
0.320605	1.404961
0.320703	1.395867
0.320801	1.405045
0.320898	1.429826
0.320996	1.453572
0.321094	1.470895
0.321191	1.472576
0.321289	1.463218
0.321387	1.435309
0.321484	1.430897
0.321582	1.438227
0.321680	1.451302
0.321777	1.469753
0.321875	1.475797
0.321973	1.490268
0.322070	1.501221
0.322168	1.508228
0.322266	1.512036
0.322363	1.508072
0.322461	1.495303
0.322559	1.498491
0.322656	1.505592
0.322754	1.501766
0.322852	1.503961
0.322949	1.511946
0.323047	1.496190
0.323145	1.491762
0.323242	1.497849
0.323340	1.519346
0.323437	1.504959
0.323535	1.470436
0.323633	1.427484
0.323730	1.432550
0.323828	1.450734
0.323926	1.409361
0.324023	1.391293
0.324121	1.360017
0.324219	1.346528
0.324316	1.311387
0.324414	1.302655
0.324512	1.350172
0.324609	1.379724
0.324707	1.384191
0.324805	1.417525
0.324902	1.412137
0.325000	1.345255
0.325098	1.299837
0.325195	1.370854
0.325293	1.458475
0.325391	1.485375
0.325488	1.490725
0.325586	1.488390
0.325684	1.496257
0.325781	1.482939
0.325879	1.479107
0.325977	1.476397
0.326074	1.484099
0.326172	1.492394
0.326270	1.522724
0.326367	1.532600
0.326465	1.518267
0.326562	1.488033
0.326660	1.472682
0.326758	1.492407
0.326855	1.491840
0.326953	1.514899
0.327051	1.526111
0.327148	1.557156
0.327246	1.540851
0.327344	1.504839
0.327441	1.490833
0.327539	1.494211
0.327637	1.500122
0.327734	1.488117
0.327832	1.474853
0.327930	1.468360
0.328027	1.464041
0.328125	1.474748
0.328223	1.522470
0.328320	1.529810
0.328418	1.533301
0.328516	1.486223
0.328613	1.453271
0.328711	1.470620
0.328809	1.472860
0.328906	1.466390
0.329004	1.487515
0.329102	1.490671
0.329199	1.484558
0.329297	1.519046
0.329395	1.502879
0.329492	1.477235
0.329590	1.501370
0.329687	1.493987
0.329785	1.510752
0.329883	1.522540
0.329980	1.462844
0.330078	1.433003
0.330176	1.409693
0.330273	1.449307
0.330371	1.441683
0.330469	1.445580
0.330566	1.376947
0.330664	1.455903
0.330762	1.497767
0.330859	1.424569
0.330957	1.424032
0.331055	1.434964
0.331152	1.508959
0.331250	1.508075
0.331348	1.528520
0.331445	1.559069
0.331543	1.571508
0.331641	1.564492
0.331738	1.570898
0.331836	1.547184
0.331934	1.519635
0.332031	1.506704
0.332129	1.492312
0.332227	1.488404
0.332324	1.459099
0.332422	1.458207
0.332520	1.463921
0.332617	1.462306
0.332715	1.480110
0.332812	1.471090
0.332910	1.504334
0.333008	1.525856
0.333105	1.480549
0.333203	1.472949
0.333301	1.478514
0.333398	1.471585
0.333496	1.469216
0.333594	1.481278
0.333691	1.464396
0.333789	1.474221
0.333887	1.491575
0.333984	1.490904
0.334082	1.475582
0.334180	1.453991
0.334277	1.425482
0.334375	1.405476
0.334473	1.392525
0.334570	1.389701
0.334668	1.378349
0.334766	1.357822
0.334863	1.347116
0.334961	1.338444
0.335059	1.329016
0.335156	1.323946
0.335254	1.306577
0.335352	1.291237
0.335449	1.310963
0.335547	1.366986
0.335645	1.403119
0.335742	1.421683
0.335840	1.444221
0.335937	1.493548
0.336035	1.494608
0.336133	1.474423
0.336230	1.507514
0.336328	1.494411
0.336426	1.465088
0.336523	1.443009
0.336621	1.426889
0.336719	1.409445
0.336816	1.403896
0.336914	1.435980
0.337012	1.476884
0.337109	1.538052
0.337207	1.554733
0.337305	1.538184
0.337402	1.514477
0.337500	1.480230
0.337598	1.471047
0.337695	1.424577
0.337793	1.414885
0.337891	1.465108
0.337988	1.451607
0.338086	1.417026
0.338184	1.411273
0.338281	1.415330
0.338379	1.423079
0.338477	1.429490
0.338574	1.458056
0.338672	1.503703
0.338770	1.495645
0.338867	1.437581
0.338965	1.437882
0.339062	1.456324
0.339160	1.478372
0.339258	1.496214
0.339355	1.503649
0.339453	1.496590
0.339551	1.451626
0.339648	1.504073
0.339746	1.555458
0.339844	1.541337
0.339941	1.532906
0.340039	1.520330
0.340137	1.520151
0.340234	1.561281
0.340332	1.592487
0.340430	1.579558
0.340527	1.569120
0.340625	1.547331
0.340723	1.506066
0.340820	1.493381
0.340918	1.520345
0.341016	1.537314
0.341113	1.518528
0.341211	1.503967
0.341309	1.524656
0.341406	1.536290
0.341504	1.514661
0.341602	1.477233
0.341699	1.458370
0.341797	1.453458
0.341895	1.446223
0.341992	1.435268
0.342090	1.422132
0.342187	1.405970
0.342285	1.387348
0.342383	1.371810
0.342480	1.362919
0.342578	1.372089
0.342676	1.408086
0.342773	1.446220
0.342871	1.457423
0.342969	1.452252
0.343066	1.442120
0.343164	1.433034
0.343262	1.418552
0.343359	1.404912
0.343457	1.382508
0.343555	1.366008
0.343652	1.358417
0.343750	1.371286
0.343848	1.385171
0.343945	1.394478
0.344043	1.387295
0.344141	1.377639
0.344238	1.377927
0.344336	1.384479
0.344434	1.402948
0.344531	1.458182
0.344629	1.498616
0.344727	1.512593
0.344824	1.495519
0.344922	1.463058
0.345020	1.375848
0.345117	1.384317
0.345215	1.426737
0.345312	1.411574
0.345410	1.393017
0.345508	1.385360
0.345605	1.431101
0.345703	1.473483
0.345801	1.498935
0.345898	1.510329
0.345996	1.534009
0.346094	1.547361
0.346191	1.564879
0.346289	1.578395
0.346387	1.588577
0.346484	1.595248
0.346582	1.602948
0.346680	1.610217
0.346777	1.619533
0.346875	1.626758
0.346973	1.635658
0.347070	1.640215
0.347168	1.639185
0.347266	1.636550
0.347363	1.616675
0.347461	1.590959
0.347559	1.579169
0.347656	1.562336
0.347754	1.571025
0.347852	1.551661
0.347949	1.510930
0.348047	1.521802
0.348145	1.520466
0.348242	1.496604
0.348340	1.491744
0.348437	1.486873
0.348535	1.484104
0.348633	1.508283
0.348730	1.538494
0.348828	1.538026
0.348926	1.518230
0.349023	1.474290
0.349121	1.440732
0.349219	1.423874
0.349316	1.405485
0.349414	1.378861
0.349512	1.395550
0.349609	1.426921
0.349707	1.425975
0.349805	1.437415
0.349902	1.438424
0.350000	1.458971
0.350098	1.447939
0.350195	1.462987
0.350293	1.470011
0.350391	1.466708
0.350488	1.455075
0.350586	1.425357
0.350684	1.385559
0.350781	1.343885
0.350879	1.316485
0.350977	1.288066
0.351074	1.263190
0.351172	1.261302
0.351270	1.282131
0.351367	1.318826
0.351465	1.397035
0.351562	1.478149
0.351660	1.492017
0.351758	1.537548
0.351855	1.577897
0.351953	1.619875
0.352051	1.607604
0.352148	1.583062
0.352246	1.589435
0.352344	1.600172
0.352441	1.657338
0.352539	1.652816
0.352637	1.590936
0.352734	1.607504
0.352832	1.526140
0.352930	1.478576
0.353027	1.417187
0.353125	1.351129
0.353223	1.351660
0.353320	1.328493
0.353418	1.323161
0.353516	1.372513
0.353613	1.445464
0.353711	1.476502
0.353809	1.485435
0.353906	1.507118
0.354004	1.499159
0.354102	1.504995
0.354199	1.505265
0.354297	1.491953
0.354395	1.459088
0.354492	1.422115
0.354590	1.395084
0.354687	1.410330
0.354785	1.428634
0.354883	1.413391
0.354980	1.391265
0.355078	1.363802
0.355176	1.335601
0.355273	1.327220
0.355371	1.332802
0.355469	1.311943
0.355566	1.280675
0.355664	1.281126
0.355762	1.316329
0.355859	1.337581
0.355957	1.331272
0.356055	1.333836
0.356152	1.336736
0.356250	1.326240
0.356348	1.309336
0.356445	1.289030
0.356543	1.269027
0.356641	1.250649
0.356738	1.234507
0.356836	1.226213
0.356934	1.247660
0.357031	1.292997
0.357129	1.323130
0.357227	1.329254
0.357324	1.318754
0.357422	1.323250
0.357520	1.344283
0.357617	1.361120
0.357715	1.376249
0.357812	1.386897
0.357910	1.392567
0.358008	1.391144
0.358105	1.375990
0.358203	1.348397
0.358301	1.318000
0.358398	1.292154
0.358496	1.273084
0.358594	1.268037
0.358691	1.297205
0.358789	1.351267
0.358887	1.382615
0.358984	1.392326
0.359082	1.399565
0.359180	1.417703
0.359277	1.435147
0.359375	1.448823
0.359473	1.454389
0.359570	1.459212
0.359668	1.476520
0.359766	1.498267
0.359863	1.513623
0.359961	1.527664
0.360059	1.541863
0.360156	1.555974
0.360254	1.574177
0.360352	1.582192
0.360449	1.580466
0.360547	1.580902
0.360645	1.588958
0.360742	1.592783
0.360840	1.598103
0.360937	1.604535
0.361035	1.614182
0.361133	1.619087
0.361230	1.597871
0.361328	1.582075
0.361426	1.556925
0.361523	1.519431
0.361621	1.485844
0.361719	1.464493
0.361816	1.491402
0.361914	1.563456
0.362012	1.565373
0.362109	1.542375
0.362207	1.540603
0.362305	1.579849
0.362402	1.585780
0.362500	1.571043
0.362598	1.530439
0.362695	1.522446
0.362793	1.494691
0.362891	1.472610
0.362988	1.500685
0.363086	1.466146
0.363184	1.469538
0.363281	1.480367
0.363379	1.479392
0.363477	1.452055
0.363574	1.477015
0.363672	1.467912
0.363770	1.422760
0.363867	1.376107
0.363965	1.350785
0.364062	1.373213
0.364160	1.407179
0.364258	1.412856
0.364355	1.422586
0.364453	1.444738
0.364551	1.441406
0.364648	1.447545
0.364746	1.478182
0.364844	1.505169
0.364941	1.476257
0.365039	1.463530
0.365137	1.461888
0.365234	1.420928
0.365332	1.408688
0.365430	1.421432
0.365527	1.448764
0.365625	1.448733
0.365723	1.440218
0.365820	1.428715
0.365918	1.417284
0.366016	1.413446
0.366113	1.414128
0.366211	1.418412
0.366309	1.429225
0.366406	1.433955
0.366504	1.482154
0.366602	1.506360
0.366699	1.502665
0.366797	1.524655
0.366895	1.519143
0.366992	1.512126
0.367090	1.504354
0.367187	1.513665
0.367285	1.478907
0.367383	1.454550
0.367480	1.492178
0.367578	1.535520
0.367676	1.526385
0.367773	1.501156
0.367871	1.471272
0.367969	1.465811
0.368066	1.473619
0.368164	1.472652
0.368262	1.476596
0.368359	1.463854
0.368457	1.471420
0.368555	1.507614
0.368652	1.514233
0.368750	1.500465
0.368848	1.494183
0.368945	1.501329
0.369043	1.470188
0.369141	1.459326
0.369238	1.437101
0.369336	1.423912
0.369434	1.433984
0.369531	1.456914
0.369629	1.477846
0.369727	1.485445
0.369824	1.480082
0.369922	1.472553
0.370020	1.471557
0.370117	1.465256
0.370215	1.436950
0.370312	1.437934
0.370410	1.478672
0.370508	1.500900
0.370605	1.482794
0.370703	1.455734
0.370801	1.471382
0.370898	1.459841
0.370996	1.476401
0.371094	1.471447
0.371191	1.449841
0.371289	1.446003
0.371387	1.458315
0.371484	1.487081
0.371582	1.505254
0.371680	1.504668
0.371777	1.515415
0.371875	1.517922
0.371973	1.528099
0.372070	1.521152
0.372168	1.518659
0.372266	1.522123
0.372363	1.504556
0.372461	1.495256
0.372559	1.467090
0.372656	1.438459
0.372754	1.424303
0.372852	1.429703
0.372949	1.461565
0.373047	1.476533
0.373145	1.489173
0.373242	1.490494
0.373340	1.467256
0.373437	1.447575
0.373535	1.432194
0.373633	1.421636
0.373730	1.420557
0.373828	1.461269
0.373926	1.497735
0.374023	1.498780
0.374121	1.478397
0.374219	1.462544
0.374316	1.468952
0.374414	1.469582
0.374512	1.483122
0.374609	1.503017
0.374707	1.510660
0.374805	1.507444
0.374902	1.506739
0.375000	1.502166
0.375098	1.491375
0.375195	1.479235
0.375293	1.450654
0.375391	1.446663
0.375488	1.448664
0.375586	1.445755
0.375684	1.436625
0.375781	1.430598
0.375879	1.430457
0.375977	1.427001
0.376074	1.423318
0.376172	1.430423
0.376270	1.445554
0.376367	1.455488
0.376465	1.445929
0.376562	1.431908
0.376660	1.411900
0.376758	1.390122
0.376855	1.447996
0.376953	1.484885
0.377051	1.502804
0.377148	1.532151
0.377246	1.564195
0.377344	1.591694
0.377441	1.590080
0.377539	1.612616
0.377637	1.588540
0.377734	1.558183
0.377832	1.522101
0.377930	1.509502
0.378027	1.524627
0.378125	1.517596
0.378223	1.518680
0.378320	1.517228
0.378418	1.492618
0.378516	1.488146
0.378613	1.509371
0.378711	1.531451
0.378809	1.527878
0.378906	1.521150
0.379004	1.516490
0.379102	1.506160
0.379199	1.481309
0.379297	1.441231
0.379395	1.428484
0.379492	1.437101
0.379590	1.419517
0.379687	1.451628
0.379785	1.492791
0.379883	1.497777
0.379980	1.515007
0.380078	1.516583
0.380176	1.526495
0.380273	1.545491
0.380371	1.539808
0.380469	1.554420
0.380566	1.563389
0.380664	1.561992
0.380762	1.534226
0.380859	1.545074
0.380957	1.575859
0.381055	1.569409
0.381152	1.555162
0.381250	1.530221
0.381348	1.534364
0.381445	1.528413
0.381543	1.514075
0.381641	1.500452
0.381738	1.481271
0.381836	1.467269
0.381934	1.457417
0.382031	1.463347
0.382129	1.465397
0.382227	1.456610
0.382324	1.448933
0.382422	1.440944
0.382520	1.435185
0.382617	1.430519
0.382715	1.417741
0.382812	1.397106
0.382910	1.385153
0.383008	1.384555
0.383105	1.373645
0.383203	1.398149
0.383301	1.434900
0.383398	1.448985
0.383496	1.456486
0.383594	1.464752
0.383691	1.481831
0.383789	1.478734
0.383887	1.467533
0.383984	1.459871
0.384082	1.449853
0.384180	1.433322
0.384277	1.408398
0.384375	1.374948
0.384473	1.349618
0.384570	1.344579
0.384668	1.345309
0.384766	1.343809
0.384863	1.342475
0.384961	1.341468
0.385059	1.340740
0.385156	1.339167
0.385254	1.336088
0.385352	1.331551
0.385449	1.326342
0.385547	1.321428
0.385645	1.316724
0.385742	1.312356
0.385840	1.307823
0.385937	1.303268
0.386035	1.298688
0.386133	1.294203
0.386230	1.288471
0.386328	1.279817
0.386426	1.266291
0.386523	1.248192
0.386621	1.231597
0.386719	1.223347
0.386816	1.223184
0.386914	1.225898
0.387012	1.227808
0.387109	1.243530
0.387207	1.274130
0.387305	1.303585
0.387402	1.319959
0.387500	1.329919
0.387598	1.331380
0.387695	1.308681
0.387793	1.286627
0.387891	1.306673
0.387988	1.363096
0.388086	1.397456
0.388184	1.408768
0.388281	1.408616
0.388379	1.402698
0.388477	1.409207
0.388574	1.409283
0.388672	1.403282
0.388770	1.391473
0.388867	1.396302
0.388965	1.414756
0.389062	1.424162
0.389160	1.413962
0.389258	1.408022
0.389355	1.438792
0.389453	1.454656
0.389551	1.471534
0.389648	1.466096
0.389746	1.468061
0.389844	1.478009
0.389941	1.498138
0.390039	1.521549
0.390137	1.539613
0.390234	1.542801
0.390332	1.527337
0.390430	1.545395
0.390527	1.544214
0.390625	1.509149
0.390723	1.490447
0.390820	1.486804
0.390918	1.469873
0.391016	1.461083
0.391113	1.468466
0.391211	1.472289
0.391309	1.468151
0.391406	1.471512
0.391504	1.467184
0.391602	1.448998
0.391699	1.431359
0.391797	1.428014
0.391895	1.425308
0.391992	1.430396
0.392090	1.450532
0.392187	1.466423
0.392285	1.470568
0.392383	1.461568
0.392480	1.456742
0.392578	1.440916
0.392676	1.410304
0.392773	1.388166
0.392871	1.368371
0.392969	1.350947
0.393066	1.329411
0.393164	1.303230
0.393262	1.277128
0.393359	1.277064
0.393457	1.336964
0.393555	1.351853
0.393652	1.348135
0.393750	1.327422
0.393848	1.349009
0.393945	1.446696
0.394043	1.487000
0.394141	1.477367
0.394238	1.456926
0.394336	1.454040
0.394434	1.397511
0.394531	1.343111
0.394629	1.323474
0.394727	1.329434
0.394824	1.321605
0.394922	1.372808
0.395020	1.386620
0.395117	1.410376
0.395215	1.467922
0.395312	1.426348
0.395410	1.418453
0.395508	1.387738
0.395605	1.405561
0.395703	1.404414
0.395801	1.390842
0.395898	1.392211
0.395996	1.442292
0.396094	1.438469
0.396191	1.425210
0.396289	1.466112
0.396387	1.454877
0.396484	1.442555
0.396582	1.418119
0.396680	1.402433
0.396777	1.373772
0.396875	1.347628
0.396973	1.332520
0.397070	1.341256
0.397168	1.394014
0.397266	1.420918
0.397363	1.410022
0.397461	1.421880
0.397559	1.456837
0.397656	1.446821
0.397754	1.403233
0.397852	1.487000
0.397949	1.500257
0.398047	1.491213
0.398145	1.482817
0.398242	1.482318
0.398340	1.476804
0.398437	1.396736
0.398535	1.377656
0.398633	1.507703
0.398730	1.551694
0.398828	1.555614
0.398926	1.565322
0.399023	1.570818
0.399121	1.560863
0.399219	1.545917
0.399316	1.531327
0.399414	1.520007
0.399512	1.516676
0.399609	1.495280
0.399707	1.473006
0.399805	1.469098
0.399902	1.487295
0.400000	1.480777
0.400098	1.460219
0.400195	1.443905
0.400293	1.459816
0.400391	1.442918
0.400488	1.415762
0.400586	1.395730
0.400684	1.417370
0.400781	1.429991
0.400879	1.413515
0.400977	1.403611
0.401074	1.385078
0.401172	1.347080
0.401270	1.327932
0.401367	1.343384
0.401465	1.332103
0.401562	1.310525
0.401660	1.306733
0.401758	1.306761
0.401855	1.308262
0.401953	1.308726
0.402051	1.293141
0.402148	1.267108
0.402246	1.246970
0.402344	1.242505
0.402441	1.275732
0.402539	1.317215
0.402637	1.315729
0.402734	1.320256
0.402832	1.362095
0.402930	1.407351
0.403027	1.426287
0.403125	1.435022
0.403223	1.450081
0.403320	1.461998
0.403418	1.462032
0.403516	1.463650
0.403613	1.483164
0.403711	1.511358
0.403809	1.544580
0.403906	1.573239
0.404004	1.558449
0.404102	1.517607
0.404199	1.490128
0.404297	1.501008
0.404395	1.514831
0.404492	1.499032
0.404590	1.502249
0.404687	1.508356
0.404785	1.516541
0.404883	1.513731
0.404980	1.509264
0.405078	1.533284
0.405176	1.544510
0.405273	1.562820
0.405371	1.554105
0.405469	1.568440
0.405566	1.593896
0.405664	1.600493
0.405762	1.607568
0.405859	1.597692
0.405957	1.610236
0.406055	1.613389
0.406152	1.642472
0.406250	1.624721
0.406348	1.544848
0.406445	1.552327
0.406543	1.567573
0.406641	1.518217
0.406738	1.477301
0.406836	1.510613
0.406934	1.574018
0.407031	1.570490
0.407129	1.570521
0.407227	1.577516
0.407324	1.575050
0.407422	1.553703
0.407520	1.577324
0.407617	1.591285
0.407715	1.554635
0.407812	1.527058
0.407910	1.500677
0.408008	1.505095
0.408105	1.543522
0.408203	1.583353
0.408301	1.579491
0.408398	1.551158
0.408496	1.561227
0.408594	1.559559
0.408691	1.578381
0.408789	1.579052
0.408887	1.535904
0.408984	1.523353
0.409082	1.532110
0.409180	1.557666
0.409277	1.585766
0.409375	1.576083
0.409473	1.549328
0.409570	1.531230
0.409668	1.554032
0.409766	1.553305
0.409863	1.544213
0.409961	1.641025
0.410059	1.659802
0.410156	1.674383
0.410254	1.649281
0.410352	1.634057
0.410449	1.615385
0.410547	1.578636
0.410645	1.572885
0.410742	1.588613
0.410840	1.568559
0.410937	1.547354
0.411035	1.554885
0.411133	1.548746
0.411230	1.509802
0.411328	1.531629
0.411426	1.550719
0.411523	1.529300
0.411621	1.574817
0.411719	1.571910
0.411816	1.561449
0.411914	1.563407
0.412012	1.559909
0.412109	1.531925
0.412207	1.521726
0.412305	1.514243
0.412402	1.492219
0.412500	1.491245
0.412598	1.489485
0.412695	1.511135
0.412793	1.537817
0.412891	1.548411
0.412988	1.568025
0.413086	1.498225
0.413184	1.492540
0.413281	1.524796
0.413379	1.514566
0.413477	1.504731
0.413574	1.495158
0.413672	1.518173
0.413770	1.536018
0.413867	1.540275
0.413965	1.523506
0.414062	1.511946
0.414160	1.497468
0.414258	1.471597
0.414355	1.466096
0.414453	1.485122
0.414551	1.479908
0.414648	1.453936
0.414746	1.430919
0.414844	1.417626
0.414941	1.417147
0.415039	1.424837
0.415137	1.425559
0.415234	1.419663
0.415332	1.408620
0.415430	1.397398
0.415527	1.387617
0.415625	1.380381
0.415723	1.374283
0.415820	1.369439
0.415918	1.365070
0.416016	1.359468
0.416113	1.352348
0.416211	1.344677
0.416309	1.337038
0.416406	1.330943
0.416504	1.326611
0.416602	1.326386
0.416699	1.330798
0.416797	1.342366
0.416895	1.359486
0.416992	1.380019
0.417090	1.393745
0.417187	1.396285
0.417285	1.396322
0.417383	1.415287
0.417480	1.442068
0.417578	1.474833
0.417676	1.502212
0.417773	1.520263
0.417871	1.544926
0.417969	1.583884
0.418066	1.597285
0.418164	1.582106
0.418262	1.568129
0.418359	1.547029
0.418457	1.518502
0.418555	1.476545
0.418652	1.489436
0.418750	1.498259
0.418848	1.481695
0.418945	1.479462
0.419043	1.417756
0.419141	1.434429
0.419238	1.479587
0.419336	1.477734
0.419434	1.467933
0.419531	1.452550
0.419629	1.439052
0.419727	1.428543
0.419824	1.424991
0.419922	1.420084
0.420020	1.413550
0.420117	1.395699
0.420215	1.388117
0.420312	1.407974
0.420410	1.436536
0.420508	1.460355
0.420605	1.444129
0.420703	1.425704
0.420801	1.411621
0.420898	1.375242
0.420996	1.393784
0.421094	1.468756
0.421191	1.525497
0.421289	1.490743
0.421387	1.412364
0.421484	1.382180
0.421582	1.477344
0.421680	1.526778
0.421777	1.538046
0.421875	1.505509
0.421973	1.475514
0.422070	1.497035
0.422168	1.504033
0.422266	1.496640
0.422363	1.508945
0.422461	1.498764
0.422559	1.459788
0.422656	1.459768
0.422754	1.473695
0.422852	1.512980
0.422949	1.525686
0.423047	1.497208
0.423145	1.520036
0.423242	1.528127
0.423340	1.547774
0.423437	1.549037
0.423535	1.499862
0.423633	1.506279
0.423730	1.531656
0.423828	1.520684
0.423926	1.496382
0.424023	1.548794
0.424121	1.568241
0.424219	1.590687
0.424316	1.592896
0.424414	1.582975
0.424512	1.551769
0.424609	1.531146
0.424707	1.527343
0.424805	1.579980
0.424902	1.590949
0.425000	1.581899
0.425098	1.569749
0.425195	1.538270
0.425293	1.523132
0.425391	1.514057
0.425488	1.528592
0.425586	1.528562
0.425684	1.516928
0.425781	1.544191
0.425879	1.578263
0.425977	1.526742
0.426074	1.524000
0.426172	1.535476
0.426270	1.540496
0.426367	1.515527
0.426465	1.460300
0.426562	1.439983
0.426660	1.542292
0.426758	1.579854
0.426855	1.610114
0.426953	1.622340
0.427051	1.607987
0.427148	1.589231
0.427246	1.584371
0.427344	1.549660
0.427441	1.545059
0.427539	1.561688
0.427637	1.580672
0.427734	1.589391
0.427832	1.584800
0.427930	1.596151
0.428027	1.601071
0.428125	1.616203
0.428223	1.635431
0.428320	1.644732
0.428418	1.644883
0.428516	1.642360
0.428613	1.640635
0.428711	1.626628
0.428809	1.622422
0.428906	1.612688
0.429004	1.595636
0.429102	1.603714
0.429199	1.588341
0.429297	1.584069
0.429395	1.590293
0.429492	1.581402
0.429590	1.608337
0.429687	1.607985
0.429785	1.557293
0.429883	1.545557
0.429980	1.528263
0.430078	1.529286
0.430176	1.514957
0.430273	1.460248
0.430371	1.406922
0.430469	1.368805
0.430566	1.346419
0.430664	1.358142
0.430762	1.380575
0.430859	1.396285
0.430957	1.403059
0.431055	1.419696
0.431152	1.413329
0.431250	1.386244
0.431348	1.349953
0.431445	1.317753
0.431543	1.317098
0.431641	1.331318
0.431738	1.350662
0.431836	1.371521
0.431934	1.385089
0.432031	1.390424
0.432129	1.384884
0.432227	1.375175
0.432324	1.384162
0.432422	1.412252
0.432520	1.449822
0.432617	1.467236
0.432715	1.455260
0.432812	1.409502
0.432910	1.372668
0.433008	1.362862
0.433105	1.379367
0.433203	1.383128
0.433301	1.386747
0.433398	1.404966
0.433496	1.408766
0.433594	1.383013
0.433691	1.354440
0.433789	1.354936
0.433887	1.372769
0.433984	1.398257
0.434082	1.439642
0.434180	1.467754
0.434277	1.493732
0.434375	1.506578
0.434473	1.522906
0.434570	1.533258
0.434668	1.520542
0.434766	1.526422
0.434863	1.533980
0.434961	1.535992
0.435059	1.543246
0.435156	1.563472
0.435254	1.544709
0.435352	1.516370
0.435449	1.483394
0.435547	1.510359
0.435645	1.554305
0.435742	1.561929
0.435840	1.569224
0.435937	1.557001
0.436035	1.509405
0.436133	1.500280
0.436230	1.501586
0.436328	1.501634
0.436426	1.521158
0.436523	1.543471
0.436621	1.554582
0.436719	1.559410
0.436816	1.594850
0.436914	1.619383
0.437012	1.600538
0.437109	1.566783
0.437207	1.570341
0.437305	1.507242
0.437402	1.496831
0.437500	1.512058
0.437598	1.518996
0.437695	1.511638
0.437793	1.477195
0.437891	1.458444
0.437988	1.453331
0.438086	1.453046
0.438184	1.479998
0.438281	1.529546
0.438379	1.531742
0.438477	1.532586
0.438574	1.535055
0.438672	1.548985
0.438770	1.535668
0.438867	1.520790
0.438965	1.517987
0.439062	1.537011
0.439160	1.536027
0.439258	1.496009
0.439355	1.443903
0.439453	1.408620
0.439551	1.383564
0.439648	1.355106
0.439746	1.363407
0.439844	1.334431
0.439941	1.294729
0.440039	1.270777
0.440137	1.261969
0.440234	1.275936
0.440332	1.304190
0.440430	1.321622
0.440527	1.354881
0.440625	1.376480
0.440723	1.406867
0.440820	1.441716
0.440918	1.430334
0.441016	1.415261
0.441113	1.399036
0.441211	1.394210
0.441309	1.395094
0.441406	1.382621
0.441504	1.355219
0.441602	1.327086
0.441699	1.302703
0.441797	1.301305
0.441895	1.330235
0.441992	1.344161
0.442090	1.358562
0.442187	1.374117
0.442285	1.356805
0.442383	1.352533
0.442480	1.373736
0.442578	1.410017
0.442676	1.424191
0.442773	1.442760
0.442871	1.446704
0.442969	1.432956
0.443066	1.422952
0.443164	1.417090
0.443262	1.410994
0.443359	1.399795
0.443457	1.393241
0.443555	1.389850
0.443652	1.391196
0.443750	1.419146
0.443848	1.465153
0.443945	1.489207
0.444043	1.500282
0.444141	1.483529
0.444238	1.475205
0.444336	1.498365
0.444434	1.488183
0.444531	1.502556
0.444629	1.543231
0.444727	1.555583
0.444824	1.566620
0.444922	1.570781
0.445020	1.547240
0.445117	1.515843
0.445215	1.497980
0.445312	1.478249
0.445410	1.452734
0.445508	1.469202
0.445605	1.474948
0.445703	1.465308
0.445801	1.461247
0.445898	1.473761
0.445996	1.500458
0.446094	1.520234
0.446191	1.521591
0.446289	1.503237
0.446387	1.491170
0.446484	1.475424
0.446582	1.517974
0.446680	1.556558
0.446777	1.568262
0.446875	1.571363
0.446973	1.567164
0.447070	1.559443
0.447168	1.552345
0.447266	1.512043
0.447363	1.492545
0.447461	1.527864
0.447559	1.514941
0.447656	1.494256
0.447754	1.483479
0.447852	1.476444
0.447949	1.514956
0.448047	1.520420
0.448145	1.501836
0.448242	1.500315
0.448340	1.508371
0.448437	1.512692
0.448535	1.498417
0.448633	1.442856
0.448730	1.457873
0.448828	1.476707
0.448926	1.499510
0.449023	1.544131
0.449121	1.556603
0.449219	1.555579
0.449316	1.546699
0.449414	1.527081
0.449512	1.495533
0.449609	1.487063
0.449707	1.495883
0.449805	1.499497
0.449902	1.507272
0.450000	1.517489
0.450098	1.507437
0.450195	1.490469
0.450293	1.482992
0.450391	1.470893
0.450488	1.456437
0.450586	1.445054
0.450684	1.443209
0.450781	1.438152
0.450879	1.433499
0.450977	1.445306
0.451074	1.450142
0.451172	1.443733
0.451270	1.430133
0.451367	1.444401
0.451465	1.456855
0.451562	1.523172
0.451660	1.557922
0.451758	1.532229
0.451855	1.543593
0.451953	1.539136
0.452051	1.556890
0.452148	1.545927
0.452246	1.522501
0.452344	1.510902
0.452441	1.539991
0.452539	1.581036
0.452637	1.555990
0.452734	1.531178
0.452832	1.537135
0.452930	1.521822
0.453027	1.537960
0.453125	1.560811
0.453223	1.556419
0.453320	1.567044
0.453418	1.575620
0.453516	1.576623
0.453613	1.545227
0.453711	1.517711
0.453809	1.522413
0.453906	1.514743
0.454004	1.486241
0.454102	1.501174
0.454199	1.537680
0.454297	1.543767
0.454395	1.499081
0.454492	1.449071
0.454590	1.466940
0.454687	1.466679
0.454785	1.462453
0.454883	1.466037
0.454980	1.472107
0.455078	1.494300
0.455176	1.494070
0.455273	1.498223
0.455371	1.504320
0.455469	1.493727
0.455566	1.472865
0.455664	1.455289
0.455762	1.453844
0.455859	1.449756
0.455957	1.441668
0.456055	1.431785
0.456152	1.417080
0.456250	1.401672
0.456348	1.384861
0.456445	1.365891
0.456543	1.354156
0.456641	1.361795
0.456738	1.362092
0.456836	1.352529
0.456934	1.336996
0.457031	1.343766
0.457129	1.372553
0.457227	1.412900
0.457324	1.419904
0.457422	1.405630
0.457520	1.409232
0.457617	1.391796
0.457715	1.384403
0.457812	1.368265
0.457910	1.355648
0.458008	1.343893
0.458105	1.351938
0.458203	1.357831
0.458301	1.351217
0.458398	1.344122
0.458496	1.325408
0.458594	1.355127
0.458691	1.421188
0.458789	1.462897
0.458887	1.461878
0.458984	1.458453
0.459082	1.428175
0.459180	1.427849
0.459277	1.431682
0.459375	1.433132
0.459473	1.469189
0.459570	1.496864
0.459668	1.513344
0.459766	1.510543
0.459863	1.506027
0.459961	1.483213
0.460059	1.458689
0.460156	1.425712
0.460254	1.426389
0.460352	1.423702
0.460449	1.430328
0.460547	1.430012
0.460645	1.425652
0.460742	1.401559
0.460840	1.375184
0.460937	1.375252
0.461035	1.364289
0.461133	1.339129
0.461230	1.318406
0.461328	1.317737
0.461426	1.383388
0.461523	1.436473
0.461621	1.433324
0.461719	1.414779
0.461816	1.396301
0.461914	1.392646
0.462012	1.410682
0.462109	1.444851
0.462207	1.473677
0.462305	1.443505
0.462402	1.435057
0.462500	1.465616
0.462598	1.481050
0.462695	1.461450
0.462793	1.464096
0.462891	1.473297
0.462988	1.475893
0.463086	1.485560
0.463184	1.504600
0.463281	1.519258
0.463379	1.523551
0.463477	1.533957
0.463574	1.529026
0.463672	1.531379
0.463770	1.518316
0.463867	1.501633
0.463965	1.493666
0.464062	1.507621
0.464160	1.537518
0.464258	1.558149
0.464355	1.555622
0.464453	1.517578
0.464551	1.479874
0.464648	1.473348
0.464746	1.447807
0.464844	1.414099
0.464941	1.398012
0.465039	1.421798
0.465137	1.419568
0.465234	1.424391
0.465332	1.429200
0.465430	1.457265
0.465527	1.485783
0.465625	1.489069
0.465723	1.471907
0.465820	1.444827
0.465918	1.429169
0.466016	1.415087
0.466113	1.400979
0.466211	1.431304
0.466309	1.474240
0.466406	1.481292
0.466504	1.464956
0.466602	1.490240
0.466699	1.494141
0.466797	1.486008
0.466895	1.468206
0.466992	1.435248
0.467090	1.418251
0.467187	1.423859
0.467285	1.419734
0.467383	1.410323
0.467480	1.422306
0.467578	1.420310
0.467676	1.431838
0.467773	1.456311
0.467871	1.477274
0.467969	1.504309
0.468066	1.508039
0.468164	1.502065
0.468262	1.474247
0.468359	1.436431
0.468457	1.398065
0.468555	1.405610
0.468652	1.424659
0.468750	1.430548
0.468848	1.445070
0.468945	1.431602
0.469043	1.405457
0.469141	1.400137
0.469238	1.391103
0.469336	1.407742
0.469434	1.444089
0.469531	1.430781
0.469629	1.438556
0.469727	1.449206
0.469824	1.412958
0.469922	1.421981
0.470020	1.472153
0.470117	1.443124
0.470215	1.425750
0.470312	1.439651
0.470410	1.443979
0.470508	1.420978
0.470605	1.424094
0.470703	1.430792
0.470801	1.418306
0.470898	1.417654
0.470996	1.426230
0.471094	1.433967
0.471191	1.425509
0.471289	1.458898
0.471387	1.521330
0.471484	1.537248
0.471582	1.524804
0.471680	1.502357
0.471777	1.492930
0.471875	1.473548
0.471973	1.447383
0.472070	1.437151
0.472168	1.438947
0.472266	1.460393
0.472363	1.479997
0.472461	1.439546
0.472559	1.386935
0.472656	1.384176
0.472754	1.424275
0.472852	1.463445
0.472949	1.483523
0.473047	1.467160
0.473145	1.452733
0.473242	1.461987
0.473340	1.492552
0.473437	1.517486
0.473535	1.529594
0.473633	1.537936
0.473730	1.537454
0.473828	1.536952
0.473926	1.541530
0.474023	1.573545
0.474121	1.570046
0.474219	1.571541
0.474316	1.617130
0.474414	1.593446
0.474512	1.602494
0.474609	1.616200
0.474707	1.614848
0.474805	1.632734
0.474902	1.609796
0.475000	1.619395
0.475098	1.560525
0.475195	1.576842
0.475293	1.627219
0.475391	1.615905
0.475488	1.597618
0.475586	1.567326
0.475684	1.563307
0.475781	1.562805
0.475879	1.553218
0.475977	1.506097
0.476074	1.479725
0.476172	1.517637
0.476270	1.532917
0.476367	1.536040
0.476465	1.556167
0.476562	1.560689
0.476660	1.564238
0.476758	1.512172
0.476855	1.479387
0.476953	1.542278
0.477051	1.498567
0.477148	1.472176
0.477246	1.478091
0.477344	1.501282
0.477441	1.504036
0.477539	1.528935
0.477637	1.519659
0.477734	1.502497
0.477832	1.476746
0.477930	1.466058
0.478027	1.477142
0.478125	1.519459
0.478223	1.575110
0.478320	1.546324
0.478418	1.492518
0.478516	1.506965
0.478613	1.534909
0.478711	1.513331
0.478809	1.476265
0.478906	1.449271
0.479004	1.413832
0.479102	1.335680
0.479199	1.329487
0.479297	1.325470
0.479395	1.335588
0.479492	1.325768
0.479590	1.343004
0.479687	1.351476
0.479785	1.356394
0.479883	1.422797
0.479980	1.434711
0.480078	1.405897
0.480176	1.364436
0.480273	1.356732
0.480371	1.340738
0.480469	1.322867
0.480566	1.298558
0.480664	1.284277
0.480762	1.271838
0.480859	1.273011
0.480957	1.289025
0.481055	1.317782
0.481152	1.347157
0.481250	1.386579
0.481348	1.425020
0.481445	1.456127
0.481543	1.476687
0.481641	1.450338
0.481738	1.428053
0.481836	1.458405
0.481934	1.492795
0.482031	1.508835
0.482129	1.500158
0.482227	1.459303
0.482324	1.436273
0.482422	1.452771
0.482520	1.462091
0.482617	1.433945
0.482715	1.436293
0.482812	1.457786
0.482910	1.455799
0.483008	1.479309
0.483105	1.505230
0.483203	1.502187
0.483301	1.486638
0.483398	1.458541
0.483496	1.450154
0.483594	1.447064
0.483691	1.452838
0.483789	1.434768
0.483887	1.403175
0.483984	1.398484
0.484082	1.387123
0.484180	1.377897
0.484277	1.375227
0.484375	1.376184
0.484473	1.382414
0.484570	1.391498
0.484668	1.395258
0.484766	1.390660
0.484863	1.373894
0.484961	1.364944
0.485059	1.348064
0.485156	1.315027
0.485254	1.275335
0.485352	1.310276
0.485449	1.381612
0.485547	1.405248
0.485645	1.407424
0.485742	1.384840
0.485840	1.357526
0.485937	1.337451
0.486035	1.330412
0.486133	1.312800
0.486230	1.289932
0.486328	1.278350
0.486426	1.279650
0.486523	1.279586
0.486621	1.277031
0.486719	1.268887
0.486816	1.306306
0.486914	1.345156
0.487012	1.347170
0.487109	1.375424
0.487207	1.383591
0.487305	1.348122
0.487402	1.350053
0.487500	1.379586
0.487598	1.379316
0.487695	1.326005
0.487793	1.294518
0.487891	1.300819
0.487988	1.360348
0.488086	1.408198
0.488184	1.460276
0.488281	1.482866
0.488379	1.451944
0.488477	1.425391
0.488574	1.382182
0.488672	1.380794
0.488770	1.380601
0.488867	1.390769
0.488965	1.412891
0.489062	1.405466
0.489160	1.409938
0.489258	1.429219
0.489355	1.421027
0.489453	1.392762
0.489551	1.392703
0.489648	1.420631
0.489746	1.435074
0.489844	1.447641
0.489941	1.428891
0.490039	1.423436
0.490137	1.477666
0.490234	1.496005
0.490332	1.494196
0.490430	1.514099
0.490527	1.535653
0.490625	1.552527
0.490723	1.559484
0.490820	1.548936
0.490918	1.552070
0.491016	1.540869
0.491113	1.525376
0.491211	1.523860
0.491309	1.523672
0.491406	1.508779
0.491504	1.496370
0.491602	1.475980
0.491699	1.497269
0.491797	1.533433
0.491895	1.576489
0.491992	1.591490
0.492090	1.570700
0.492187	1.568654
0.492285	1.573700
0.492383	1.557189
0.492480	1.532512
0.492578	1.526205
0.492676	1.545910
0.492773	1.558718
0.492871	1.548770
0.492969	1.530163
0.493066	1.528570
0.493164	1.534940
0.493262	1.558025
0.493359	1.561000
0.493457	1.562142
0.493555	1.550204
0.493652	1.527867
0.493750	1.500014
0.493848	1.479557
0.493945	1.456981
0.494043	1.444566
0.494141	1.439454
0.494238	1.404272
0.494336	1.423135
0.494434	1.410658
0.494531	1.348200
0.494629	1.340392
0.494727	1.372745
0.494824	1.406930
0.494922	1.408054
0.495020	1.391074
0.495117	1.412417
0.495215	1.438341
0.495312	1.469992
0.495410	1.492005
0.495508	1.510939
0.495605	1.531762
0.495703	1.532578
0.495801	1.550678
0.495898	1.582509
0.495996	1.565486
0.496094	1.568624
0.496191	1.587526
0.496289	1.599664
0.496387	1.615702
0.496484	1.613977
0.496582	1.604902
0.496680	1.599323
0.496777	1.599871
0.496875	1.599383
0.496973	1.592592
0.497070	1.584894
0.497168	1.604959
0.497266	1.613013
0.497363	1.610101
0.497461	1.601895
0.497559	1.590564
0.497656	1.586353
0.497754	1.577958
0.497852	1.570051
0.497949	1.532739
0.498047	1.588763
0.498145	1.623137
0.498242	1.612756
0.498340	1.591425
0.498437	1.587772
0.498535	1.600163
0.498633	1.599136
0.498730	1.615451
0.498828	1.614907
0.498926	1.576622
0.499023	1.529509
0.499121	1.518235
0.499219	1.520959
0.499316	1.533135
0.499414	1.528352
0.499512	1.514279
0.499609	1.516680
0.499707	1.533146
0.499805	1.516237
0.499902	1.497023
0.500000	1.511766
0.500098	1.536515
0.500195	1.543245
0.500293	1.538574
0.500391	1.535803
0.500488	1.531230
0.500586	1.492412
0.500684	1.441414
0.500781	1.417462
0.500879	1.411371
0.500977	1.387733
0.501074	1.363210
0.501172	1.360444
0.501270	1.369940
0.501367	1.385665
0.501465	1.389437
0.501562	1.380690
0.501660	1.365767
0.501758	1.339270
0.501855	1.328630
0.501953	1.334300
0.502051	1.324635
0.502148	1.309422
0.502246	1.336004
0.502344	1.404759
0.502441	1.462077
0.502539	1.469612
0.502637	1.461887
0.502734	1.468370
0.502832	1.453417
0.502930	1.442468
0.503027	1.456582
0.503125	1.460944
0.503223	1.461659
0.503320	1.468450
0.503418	1.468085
0.503516	1.469335
0.503613	1.456338
0.503711	1.437959
0.503809	1.383731
0.503906	1.317948
0.504004	1.319093
0.504102	1.317275
0.504199	1.343791
0.504297	1.398885
0.504395	1.446739
0.504492	1.449835
0.504590	1.449262
0.504687	1.425016
0.504785	1.353206
0.504883	1.378611
0.504980	1.442226
0.505078	1.479464
0.505176	1.514405
0.505273	1.510103
0.505371	1.471930
0.505469	1.444279
0.505566	1.471931
0.505664	1.486465
0.505762	1.493796
0.505859	1.507488
0.505957	1.525998
0.506055	1.515593
0.506152	1.497310
0.506250	1.500801
0.506348	1.510431
0.506445	1.515901
0.506543	1.523600
0.506641	1.526093
0.506738	1.520990
0.506836	1.506177
0.506934	1.504638
0.507031	1.522825
0.507129	1.504001
0.507227	1.473120
0.507324	1.478791
0.507422	1.485348
0.507520	1.504143
0.507617	1.527874
0.507715	1.521555
0.507812	1.524263
0.507910	1.529177
0.508008	1.525845
0.508105	1.508856
0.508203	1.511009
0.508301	1.507385
0.508398	1.486947
0.508496	1.513039
0.508594	1.578686
0.508691	1.615872
0.508789	1.617482
0.508887	1.623760
0.508984	1.619193
0.509082	1.621014
0.509180	1.615633
0.509277	1.615586
0.509375	1.608260
0.509473	1.599589
0.509570	1.638416
0.509668	1.633224
0.509766	1.618814
0.509863	1.623671
0.509961	1.612490
0.510059	1.612934
0.510156	1.609268
0.510254	1.625098
0.510352	1.632361
0.510449	1.606591
0.510547	1.593420
0.510645	1.578433
0.510742	1.572712
0.510840	1.557757
0.510937	1.513462
0.511035	1.477881
0.511133	1.473468
0.511230	1.512742
0.511328	1.515744
0.511426	1.515237
0.511523	1.517846
0.511621	1.487412
0.511719	1.511447
0.511816	1.529021
0.511914	1.513556
0.512012	1.492144
0.512109	1.487996
0.512207	1.488351
0.512305	1.500968
0.512402	1.515179
0.512500	1.532663
0.512598	1.525117
0.512695	1.535424
0.512793	1.537706
0.512891	1.490850
0.512988	1.437086
0.513086	1.455619
0.513184	1.427138
0.513281	1.411956
0.513379	1.426597
0.513477	1.401347
0.513574	1.349203
0.513672	1.347334
0.513770	1.396317
0.513867	1.440961
0.513965	1.474124
0.514062	1.453033
0.514160	1.492677
0.514258	1.537382
0.514355	1.535593
0.514453	1.522984
0.514551	1.516944
0.514648	1.507971
0.514746	1.462998
0.514844	1.499377
0.514941	1.533271
0.515039	1.511458
0.515137	1.527695
0.515234	1.553806
0.515332	1.543536
0.515430	1.515326
0.515527	1.522472
0.515625	1.526887
0.515723	1.528739
0.515820	1.521178
0.515918	1.545110
0.516016	1.519085
0.516113	1.507734
0.516211	1.530945
0.516309	1.577722
0.516406	1.619966
0.516504	1.610558
0.516602	1.615887
0.516699	1.662588
0.516797	1.681225
0.516895	1.662289
0.516992	1.643435
0.517090	1.635912
0.517187	1.664938
0.517285	1.659269
0.517383	1.608443
0.517480	1.594628
0.517578	1.574936
0.517676	1.555814
0.517773	1.575209
0.517871	1.568058
0.517969	1.556229
0.518066	1.560439
0.518164	1.601760
0.518262	1.625069
0.518359	1.560841
0.518457	1.555952
0.518555	1.567385
0.518652	1.590729
0.518750	1.598459
0.518848	1.563704
0.518945	1.547118
0.519043	1.555768
0.519141	1.560257
0.519238	1.532370
0.519336	1.500864
0.519434	1.470675
0.519531	1.464202
0.519629	1.460972
0.519727	1.431430
0.519824	1.419478
0.519922	1.430547
0.520020	1.432895
0.520117	1.427378
0.520215	1.428769
0.520312	1.415546
0.520410	1.390966
0.520508	1.372665
0.520605	1.348961
0.520703	1.330797
0.520801	1.328699
0.520898	1.335280
0.520996	1.351097
0.521094	1.372420
0.521191	1.397148
0.521289	1.406527
0.521387	1.394964
0.521484	1.360221
0.521582	1.312982
0.521680	1.286890
0.521777	1.335696
0.521875	1.351946
0.521973	1.337121
0.522070	1.333083
0.522168	1.381407
0.522266	1.443996
0.522363	1.453500
0.522461	1.475023
0.522559	1.479671
0.522656	1.489011
0.522754	1.485082
0.522852	1.484500
0.522949	1.490330
0.523047	1.496703
0.523145	1.505252
0.523242	1.518497
0.523340	1.531339
0.523437	1.554187
0.523535	1.565921
0.523633	1.582072
0.523730	1.589774
0.523828	1.579127
0.523926	1.567868
0.524023	1.592868
0.524121	1.596421
0.524219	1.568869
0.524316	1.550490
0.524414	1.548832
0.524512	1.561104
0.524609	1.577156
0.524707	1.600194
0.524805	1.577703
0.524902	1.598375
0.525000	1.607430
0.525098	1.619807
0.525195	1.612610
0.525293	1.609122
0.525391	1.627506
0.525488	1.623693
0.525586	1.624430
0.525684	1.628796
0.525781	1.607323
0.525879	1.619294
0.525977	1.639822
0.526074	1.646926
0.526172	1.641574
0.526270	1.612543
0.526367	1.549764
0.526465	1.530679
0.526562	1.593948
0.526660	1.563833
0.526758	1.563639
0.526855	1.549738
0.526953	1.535728
0.527051	1.517325
0.527148	1.502017
0.527246	1.539700
0.527344	1.546666
0.527441	1.545190
0.527539	1.489498
0.527637	1.497157
0.527734	1.484221
0.527832	1.482390
0.527930	1.500707
0.528027	1.500336
0.528125	1.540260
0.528223	1.546807
0.528320	1.638321
0.528418	1.596380
0.528516	1.571075
0.528613	1.571982
0.528711	1.572828
0.528809	1.492529
0.528906	1.529429
0.529004	1.577407
0.529102	1.600696
0.529199	1.578486
0.529297	1.551952
0.529395	1.585518
0.529492	1.569597
0.529590	1.559796
0.529687	1.553886
0.529785	1.538735
0.529883	1.505943
0.529980	1.491228
0.530078	1.494765
0.530176	1.495834
0.530273	1.493984
0.530371	1.519986
0.530469	1.524885
0.530566	1.556349
0.530664	1.553548
0.530762	1.524283
0.530859	1.534077
0.530957	1.560395
0.531055	1.581295
0.531152	1.577923
0.531250	1.573836
0.531348	1.565889
0.531445	1.553120
0.531543	1.554138
0.531641	1.554005
0.531738	1.557237
0.531836	1.558362
0.531934	1.551282
0.532031	1.558203
0.532129	1.565572
0.532227	1.531187
0.532324	1.518779
0.532422	1.509623
0.532520	1.504915
0.532617	1.481230
0.532715	1.456382
0.532812	1.469427
0.532910	1.519148
0.533008	1.563715
0.533105	1.566976
0.533203	1.539877
0.533301	1.508751
0.533398	1.492047
0.533496	1.484085
0.533594	1.475565
0.533691	1.450096
0.533789	1.444462
0.533887	1.449641
0.533984	1.437658
0.534082	1.441253
0.534180	1.451437
0.534277	1.453174
0.534375	1.406012
0.534473	1.378727
0.534570	1.410845
0.534668	1.434856
0.534766	1.490909
0.534863	1.528681
0.534961	1.576726
0.535059	1.587339
0.535156	1.558752
0.535254	1.534495
0.535352	1.528345
0.535449	1.502776
0.535547	1.496086
0.535645	1.568370
0.535742	1.559461
0.535840	1.517263
0.535937	1.477099
0.536035	1.487958
0.536133	1.535150
0.536230	1.552191
0.536328	1.544233
0.536426	1.508187
0.536523	1.453310
0.536621	1.434718
0.536719	1.390265
0.536816	1.371214
0.536914	1.374337
0.537012	1.360760
0.537109	1.333977
0.537207	1.308951
0.537305	1.290768
0.537402	1.284393
0.537500	1.285239
0.537598	1.284232
0.537695	1.277067
0.537793	1.268521
0.537891	1.267604
0.537988	1.271390
0.538086	1.279449
0.538184	1.297880
0.538281	1.334844
0.538379	1.364563
0.538477	1.394093
0.538574	1.416341
0.538672	1.433483
0.538770	1.451839
0.538867	1.475234
0.538965	1.516002
0.539062	1.553275
0.539160	1.526862
0.539258	1.541438
0.539355	1.564096
0.539453	1.561832
0.539551	1.538299
0.539648	1.504560
0.539746	1.465120
0.539844	1.524518
0.539941	1.618432
0.540039	1.518626
0.540137	1.528302
0.540234	1.572252
0.540332	1.623934
0.540430	1.622102
0.540527	1.610340
0.540625	1.603327
0.540723	1.584465
0.540820	1.598115
0.540918	1.621628
0.541016	1.612273
0.541113	1.600199
0.541211	1.605915
0.541309	1.596451
0.541406	1.589620
0.541504	1.601377
0.541602	1.584338
0.541699	1.585427
0.541797	1.588972
0.541895	1.578126
0.541992	1.551189
0.542090	1.548337
0.542187	1.561491
0.542285	1.534523
0.542383	1.532092
0.542480	1.515623
0.542578	1.535151
0.542676	1.526898
0.542773	1.504616
0.542871	1.473191
0.542969	1.458988
0.543066	1.467993
0.543164	1.459177
0.543262	1.463794
0.543359	1.494871
0.543457	1.497960
0.543555	1.479023
0.543652	1.489957
0.543750	1.474103
0.543848	1.487423
0.543945	1.482189
0.544043	1.483555
0.544141	1.463242
0.544238	1.467254
0.544336	1.501351
0.544434	1.513236
0.544531	1.525250
0.544629	1.526115
0.544727	1.477556
0.544824	1.435481
0.544922	1.463981
0.545020	1.481395
0.545117	1.481616
0.545215	1.474192
0.545312	1.450581
0.545410	1.432733
0.545508	1.452837
0.545605	1.460271
0.545703	1.476188
0.545801	1.496743
0.545898	1.506598
0.545996	1.491829
0.546094	1.458080
0.546191	1.448609
0.546289	1.433987
0.546387	1.434830
0.546484	1.427210
0.546582	1.421678
0.546680	1.441554
0.546777	1.435692
0.546875	1.426226
0.546973	1.423739
0.547070	1.410131
0.547168	1.406247
0.547266	1.421928
0.547363	1.418051
0.547461	1.428522
0.547559	1.455065
0.547656	1.459532
0.547754	1.441550
0.547852	1.471622
0.547949	1.474017
0.548047	1.478146
0.548145	1.515429
0.548242	1.508120
0.548340	1.508907
0.548437	1.510182
0.548535	1.492007
0.548633	1.469731
0.548730	1.493237
0.548828	1.510055
0.548926	1.502901
0.549023	1.492428
0.549121	1.471599
0.549219	1.464237
0.549316	1.470080
0.549414	1.457251
0.549512	1.461234
0.549609	1.475888
0.549707	1.457188
0.549805	1.429043
0.549902	1.402945
0.550000	1.379338
0.550098	1.355054
0.550195	1.337686
0.550293	1.331103
0.550391	1.332859
0.550488	1.336712
0.550586	1.338658
0.550684	1.333993
0.550781	1.328208
0.550879	1.323814
0.550977	1.322859
0.551074	1.322591
0.551172	1.323762
0.551270	1.325401
0.551367	1.326478
0.551465	1.325760
0.551562	1.340881
0.551660	1.361206
0.551758	1.357631
0.551855	1.356865
0.551953	1.351136
0.552051	1.295673
0.552148	1.290791
0.552246	1.320309
0.552344	1.321204
0.552441	1.317057
0.552539	1.310874
0.552637	1.311159
0.552734	1.317565
0.552832	1.331786
0.552930	1.352843
0.553027	1.370630
0.553125	1.372360
0.553223	1.369210
0.553320	1.363736
0.553418	1.368446
0.553516	1.389478
0.553613	1.421086
0.553711	1.432710
0.553809	1.425343
0.553906	1.415274
0.554004	1.411853
0.554102	1.410652
0.554199	1.413435
0.554297	1.416053
0.554395	1.416706
0.554492	1.418537
0.554590	1.415749
0.554687	1.413238
0.554785	1.416396
0.554883	1.415028
0.554980	1.406881
0.555078	1.401678
0.555176	1.399229
0.555273	1.400854
0.555371	1.405990
0.555469	1.421656
0.555566	1.449883
0.555664	1.460178
0.555762	1.472161
0.555859	1.483885
0.555957	1.450176
0.556055	1.423901
0.556152	1.411818
0.556250	1.406014
0.556348	1.411942
0.556445	1.457721
0.556543	1.474036
0.556641	1.492218
0.556738	1.502159
0.556836	1.511370
0.556934	1.536477
0.557031	1.551278
0.557129	1.555909
0.557227	1.543993
0.557324	1.533699
0.557422	1.519414
0.557520	1.480457
0.557617	1.526759
0.557715	1.554674
0.557812	1.567317
0.557910	1.581338
0.558008	1.578908
0.558105	1.549353
0.558203	1.553125
0.558301	1.570893
0.558398	1.574669
0.558496	1.568637
0.558594	1.549457
0.558691	1.543995
0.558789	1.510573
0.558887	1.480910
0.558984	1.436465
0.559082	1.372413
0.559180	1.348536
0.559277	1.367294
0.559375	1.357931
0.559473	1.377978
0.559570	1.400993
0.559668	1.425826
0.559766	1.447628
0.559863	1.469090
0.559961	1.506032
0.560059	1.510840
0.560156	1.484597
0.560254	1.456619
0.560352	1.441342
0.560449	1.433715
0.560547	1.444584
0.560645	1.456438
0.560742	1.472023
0.560840	1.488853
0.560937	1.497143
0.561035	1.487944
0.561133	1.463766
0.561230	1.455327
0.561328	1.444350
0.561426	1.439196
0.561523	1.464596
0.561621	1.472920
0.561719	1.465160
0.561816	1.445738
0.561914	1.472171
0.562012	1.501871
0.562109	1.510362
0.562207	1.550250
0.562305	1.577472
0.562402	1.572983
0.562500	1.562502
0.562598	1.552155
0.562695	1.579987
0.562793	1.555241
0.562891	1.519611
0.562988	1.509989
0.563086	1.502285
0.563184	1.508238
0.563281	1.512602
0.563379	1.497803
0.563477	1.466266
0.563574	1.456618
0.563672	1.449375
0.563770	1.436479
0.563867	1.424303
0.563965	1.392238
0.564062	1.408992
0.564160	1.480032
0.564258	1.545713
0.564355	1.555879
0.564453	1.543660
0.564551	1.522108
0.564648	1.517508
0.564746	1.551896
0.564844	1.550335
0.564941	1.537722
0.565039	1.555790
0.565137	1.564102
0.565234	1.556462
0.565332	1.549673
0.565430	1.538690
0.565527	1.536762
0.565625	1.534730
0.565723	1.526983
0.565820	1.530243
0.565918	1.521387
0.566016	1.502058
0.566113	1.509430
0.566211	1.518681
0.566309	1.501122
0.566406	1.476254
0.566504	1.484639
0.566602	1.515420
0.566699	1.542752
0.566797	1.578642
0.566895	1.561845
0.566992	1.514421
0.567090	1.512765
0.567187	1.533519
0.567285	1.542714
0.567383	1.528976
0.567480	1.519122
0.567578	1.483550
0.567676	1.415685
0.567773	1.382122
0.567871	1.386869
0.567969	1.435576
0.568066	1.487343
0.568164	1.541082
0.568262	1.551527
0.568359	1.535176
0.568457	1.545191
0.568555	1.535039
0.568652	1.516829
0.568750	1.490561
0.568848	1.477850
0.568945	1.453332
0.569043	1.461321
0.569141	1.472777
0.569238	1.481835
0.569336	1.476849
0.569434	1.481492
0.569531	1.477433
0.569629	1.475003
0.569727	1.502902
0.569824	1.486461
0.569922	1.546683
0.570020	1.555619
0.570117	1.534477
0.570215	1.558778
0.570312	1.584903
0.570410	1.586283
0.570508	1.593592
0.570605	1.602262
0.570703	1.618710
0.570801	1.602271
0.570898	1.588928
0.570996	1.613962
0.571094	1.602659
0.571191	1.600418
0.571289	1.560072
0.571387	1.539940
0.571484	1.559130
0.571582	1.584420
0.571680	1.583755
0.571777	1.615526
0.571875	1.622082
0.571973	1.638046
0.572070	1.670207
0.572168	1.664480
0.572266	1.662049
0.572363	1.659453
0.572461	1.658187
0.572559	1.663965
0.572656	1.633211
0.572754	1.546045
0.572852	1.581801
0.572949	1.567321
0.573047	1.501928
0.573145	1.509541
0.573242	1.548439
0.573340	1.585542
0.573437	1.543862
0.573535	1.633950
0.573633	1.644897
0.573730	1.607821
0.573828	1.585936
0.573926	1.542620
0.574023	1.547740
0.574121	1.555364
0.574219	1.544751
0.574316	1.533773
0.574414	1.509441
0.574512	1.533652
0.574609	1.556120
0.574707	1.525195
0.574805	1.534896
0.574902	1.569845
0.575000	1.586403
0.575098	1.592235
0.575195	1.592902
0.575293	1.558187
0.575391	1.493763
0.575488	1.512934
0.575586	1.536083
0.575684	1.532157
0.575781	1.532458
0.575879	1.525891
0.575977	1.514088
0.576074	1.499873
0.576172	1.469298
0.576270	1.440018
0.576367	1.446040
0.576465	1.458842
0.576562	1.474967
0.576660	1.494151
0.576758	1.499255
0.576855	1.491573
0.576953	1.484564
0.577051	1.477428
0.577148	1.469925
0.577246	1.461595
0.577344	1.450878
0.577441	1.445684
0.577539	1.446385
0.577637	1.450699
0.577734	1.456625
0.577832	1.459172
0.577930	1.448157
0.578027	1.427214
0.578125	1.401548
0.578223	1.404127
0.578320	1.418560
0.578418	1.424844
0.578516	1.438972
0.578613	1.439033
0.578711	1.430778
0.578809	1.432979
0.578906	1.451789
0.579004	1.462221
0.579102	1.462309
0.579199	1.461196
0.579297	1.461559
0.579395	1.457094
0.579492	1.457878
0.579590	1.451818
0.579687	1.436460
0.579785	1.419843
0.579883	1.413816
0.579980	1.420061
0.580078	1.421389
0.580176	1.451326
0.580273	1.466520
0.580371	1.454553
0.580469	1.455314
0.580566	1.446171
0.580664	1.450073
0.580762	1.466475
0.580859	1.474591
0.580957	1.477261
0.581055	1.494351
0.581152	1.510453
0.581250	1.515531
0.581348	1.498244
0.581445	1.485382
0.581543	1.484455
0.581641	1.479061
0.581738	1.487831
0.581836	1.508353
0.581934	1.527954
0.582031	1.526951
0.582129	1.521159
0.582227	1.509698
0.582324	1.487371
0.582422	1.452467
0.582520	1.421712
0.582617	1.409370
0.582715	1.395245
0.582812	1.391891
0.582910	1.384917
0.583008	1.364723
0.583105	1.366461
0.583203	1.382868
0.583301	1.396525
0.583398	1.403838
0.583496	1.406192
0.583594	1.422445
0.583691	1.442771
0.583789	1.446244
0.583887	1.449792
0.583984	1.452322
0.584082	1.456404
0.584180	1.459644
0.584277	1.450037
0.584375	1.428325
0.584473	1.416645
0.584570	1.423158
0.584668	1.432398
0.584766	1.445588
0.584863	1.469505
0.584961	1.491792
0.585059	1.503348
0.585156	1.522852
0.585254	1.509335
0.585352	1.486851
0.585449	1.461330
0.585547	1.426902
0.585645	1.455665
0.585742	1.444141
0.585840	1.449365
0.585937	1.497589
0.586035	1.519473
0.586133	1.468797
0.586230	1.462387
0.586328	1.490538
0.586426	1.502470
0.586523	1.495994
0.586621	1.500545
0.586719	1.510160
0.586816	1.516467
0.586914	1.513135
0.587012	1.513017
0.587109	1.496233
0.587207	1.489574
0.587305	1.501335
0.587402	1.537119
0.587500	1.535808
0.587598	1.506531
0.587695	1.516497
0.587793	1.544662
0.587891	1.511310
0.587988	1.513859
0.588086	1.531990
0.588184	1.540099
0.588281	1.562702
0.588379	1.529123
0.588477	1.526925
0.588574	1.512120
0.588672	1.493751
0.588770	1.519838
0.588867	1.496554
0.588965	1.475339
0.589062	1.514210
0.589160	1.550764
0.589258	1.578292
0.589355	1.597096
0.589453	1.589945
0.589551	1.538323
0.589648	1.485426
0.589746	1.496037
0.589844	1.514732
0.589941	1.489319
0.590039	1.493957
0.590137	1.499509
0.590234	1.500459
0.590332	1.493506
0.590430	1.490332
0.590527	1.556309
0.590625	1.555350
0.590723	1.543373
0.590820	1.549725
0.590918	1.554158
0.591016	1.545586
0.591113	1.541808
0.591211	1.550581
0.591309	1.528315
0.591406	1.527573
0.591504	1.526587
0.591602	1.505944
0.591699	1.500170
0.591797	1.497453
0.591895	1.506692
0.591992	1.513565
0.592090	1.494344
0.592187	1.489091
0.592285	1.466449
0.592383	1.449989
0.592480	1.437367
0.592578	1.423089
0.592676	1.412644
0.592773	1.398579
0.592871	1.391306
0.592969	1.390055
0.593066	1.392964
0.593164	1.385241
0.593262	1.395072
0.593359	1.430179
0.593457	1.443608
0.593555	1.445461
0.593652	1.439107
0.593750	1.426505
0.593848	1.413068
0.593945	1.407073
0.594043	1.403466
0.594141	1.393688
0.594238	1.379134
0.594336	1.387748
0.594434	1.396960
0.594531	1.405374
0.594629	1.421695
0.594727	1.429649
0.594824	1.450337
0.594922	1.483588
0.595020	1.504493
0.595117	1.512748
0.595215	1.512451
0.595312	1.500538
0.595410	1.508043
0.595508	1.510595
0.595605	1.545933
0.595703	1.600505
0.595801	1.599626
0.595898	1.567438
0.595996	1.558919
0.596094	1.563573
0.596191	1.572886
0.596289	1.527726
0.596387	1.487410
0.596484	1.444040
0.596582	1.475293
0.596680	1.507201
0.596777	1.536044
0.596875	1.567484
0.596973	1.551277
0.597070	1.562044
0.597168	1.540444
0.597266	1.537789
0.597363	1.503496
0.597461	1.524263
0.597559	1.529220
0.597656	1.529671
0.597754	1.532494
0.597852	1.531150
0.597949	1.515434
0.598047	1.500558
0.598145	1.487376
0.598242	1.471289
0.598340	1.476284
0.598437	1.488145
0.598535	1.513841
0.598633	1.472582
0.598730	1.463593
0.598828	1.459488
0.598926	1.482321
0.599023	1.496223
0.599121	1.509167
0.599219	1.554815
0.599316	1.525734
0.599414	1.511995
0.599512	1.532678
0.599609	1.557806
0.599707	1.550045
0.599805	1.514610
0.599902	1.491394
0.600000	1.520789
0.600098	1.517372
0.600195	1.500149
0.600293	1.485854
0.600391	1.460890
0.600488	1.477638
0.600586	1.515722
0.600684	1.530795
0.600781	1.503405
0.600879	1.435615
0.600977	1.399334
0.601074	1.393166
0.601172	1.363937
0.601270	1.346229
0.601367	1.339231
0.601465	1.332703
0.601562	1.379261
0.601660	1.484584
0.601758	1.496855
0.601855	1.513944
0.601953	1.599703
0.602051	1.533650
0.602148	1.591727
0.602246	1.611157
0.602344	1.587174
0.602441	1.584449
0.602539	1.599749
0.602637	1.592224
0.602734	1.574365
0.602832	1.599637
0.602930	1.575811
0.603027	1.562076
0.603125	1.557291
0.603223	1.578355
0.603320	1.553275
0.603418	1.570689
0.603516	1.580688
0.603613	1.547766
0.603711	1.568637
0.603809	1.545009
0.603906	1.542466
0.604004	1.545186
0.604102	1.556408
0.604199	1.539079
0.604297	1.505441
0.604395	1.461326
0.604492	1.454334
0.604590	1.442202
0.604687	1.445560
0.604785	1.413127
0.604883	1.421863
0.604980	1.452687
0.605078	1.422885
0.605176	1.407994
0.605273	1.365075
0.605371	1.350514
0.605469	1.352035
0.605566	1.319662
0.605664	1.280100
0.605762	1.252166
0.605859	1.315952
0.605957	1.421258
0.606055	1.458110
0.606152	1.541712
0.606250	1.556682
0.606348	1.557288
0.606445	1.543353
0.606543	1.578062
0.606641	1.599855
0.606738	1.598974
0.606836	1.624678
0.606934	1.606919
0.607031	1.590429
0.607129	1.631088
0.607227	1.652080
0.607324	1.629143
0.607422	1.593551
0.607520	1.581925
0.607617	1.572673
0.607715	1.530669
0.607812	1.525982
0.607910	1.517952
0.608008	1.564111
0.608105	1.550339
0.608203	1.566621
0.608301	1.579017
0.608398	1.565250
0.608496	1.569053
0.608594	1.591080
0.608691	1.591244
0.608789	1.597374
0.608887	1.609916
0.608984	1.602043
0.609082	1.559597
0.609180	1.521475
0.609277	1.507561
0.609375	1.498846
0.609473	1.512155
0.609570	1.505318
0.609668	1.497664
0.609766	1.483518
0.609863	1.492543
0.609961	1.484367
0.610059	1.431940
0.610156	1.459483
0.610254	1.477226
0.610352	1.454184
0.610449	1.427536
0.610547	1.420368
0.610645	1.411587
0.610742	1.412794
0.610840	1.476401
0.610937	1.554396
0.611035	1.508427
0.611133	1.605284
0.611230	1.566774
0.611328	1.549460
0.611426	1.574886
0.611523	1.545045
0.611621	1.539366
0.611719	1.498871
0.611816	1.502575
0.611914	1.531947
0.612012	1.560827
0.612109	1.545245
0.612207	1.525294
0.612305	1.524326
0.612402	1.548436
0.612500	1.568263
0.612598	1.575375
0.612695	1.548417
0.612793	1.524074
0.612891	1.518576
0.612988	1.547728
0.613086	1.578844
0.613184	1.548808
0.613281	1.557096
0.613379	1.569764
0.613477	1.534645
0.613574	1.521975
0.613672	1.520729
0.613770	1.510418
0.613867	1.506064
0.613965	1.503139
0.614062	1.500955
0.614160	1.508060
0.614258	1.491246
0.614355	1.445920
0.614453	1.417301
0.614551	1.448476
0.614648	1.470255
0.614746	1.459075
0.614844	1.449696
0.614941	1.443859
0.615039	1.449368
0.615137	1.450436
0.615234	1.445477
0.615332	1.441556
0.615430	1.485667
0.615527	1.467117
0.615625	1.465380
0.615723	1.462818
0.615820	1.458187
0.615918	1.440447
0.616016	1.439413
0.616113	1.465423
0.616211	1.449797
0.616309	1.432379
0.616406	1.421484
0.616504	1.408520
0.616602	1.398986
0.616699	1.418487
0.616797	1.422938
0.616895	1.422720
0.616992	1.422231
0.617090	1.429432
0.617187	1.436117
0.617285	1.440790
0.617383	1.441727
0.617480	1.458243
0.617578	1.468142
0.617676	1.465993
0.617773	1.493296
0.617871	1.506630
0.617969	1.506614
0.618066	1.496870
0.618164	1.498979
0.618262	1.485794
0.618359	1.488944
0.618457	1.499212
0.618555	1.507416
0.618652	1.496039
0.618750	1.493427
0.618848	1.523602
0.618945	1.548396
0.619043	1.555257
0.619141	1.518484
0.619238	1.527209
0.619336	1.553042
0.619434	1.606552
0.619531	1.616009
0.619629	1.606782
0.619727	1.616816
0.619824	1.623894
0.619922	1.571484
0.620020	1.529905
0.620117	1.593912
0.620215	1.628228
0.620312	1.604573
0.620410	1.594344
0.620508	1.628178
0.620605	1.658561
0.620703	1.631115
0.620801	1.623939
0.620898	1.604791
0.620996	1.632756
0.621094	1.647208
0.621191	1.644112
0.621289	1.654997
0.621387	1.660940
0.621484	1.636424
0.621582	1.641944
0.621680	1.640484
0.621777	1.676137
0.621875	1.604670
0.621973	1.618746
0.622070	1.661321
0.622168	1.645256
0.622266	1.622005
0.622363	1.642632
0.622461	1.671120
0.622559	1.663619
0.622656	1.611369
0.622754	1.550371
0.622852	1.564934
0.622949	1.572737
0.623047	1.587716
0.623145	1.569618
0.623242	1.577832
0.623340	1.594097
0.623437	1.629037
0.623535	1.643228
0.623633	1.645798
0.623730	1.642020
0.623828	1.642924
0.623926	1.622200
0.624023	1.622896
0.624121	1.624894
0.624219	1.637149
0.624316	1.639567
0.624414	1.638227
0.624512	1.618423
0.624609	1.577843
0.624707	1.562542
0.624805	1.601486
0.624902	1.614150
0.625000	1.619263
0.625098	1.609915
0.625195	1.607273
0.625293	1.596006
0.625391	1.599619
0.625488	1.596486
0.625586	1.587093
0.625684	1.614292
0.625781	1.627560
0.625879	1.626661
0.625977	1.591979
0.626074	1.548466
0.626172	1.527764
0.626270	1.530306
0.626367	1.541052
0.626465	1.531350
0.626562	1.547756
0.626660	1.553403
0.626758	1.570554
0.626855	1.567296
0.626953	1.569693
0.627051	1.560060
0.627148	1.542877
0.627246	1.519537
0.627344	1.519806
0.627441	1.522479
0.627539	1.514473
0.627637	1.522397
0.627734	1.509277
0.627832	1.481478
0.627930	1.444473
0.628027	1.422613
0.628125	1.446209
0.628223	1.476863
0.628320	1.466232
0.628418	1.444791
0.628516	1.432355
0.628613	1.417379
0.628711	1.401326
0.628809	1.380532
0.628906	1.363525
0.629004	1.357217
0.629102	1.364377
0.629199	1.381340
0.629297	1.396199
0.629395	1.404881
0.629492	1.419095
0.629590	1.439788
0.629687	1.454708
0.629785	1.455977
0.629883	1.465625
0.629980	1.471838
0.630078	1.473184
0.630176	1.468380
0.630273	1.461595
0.630371	1.455015
0.630469	1.473822
0.630566	1.478211
0.630664	1.470920
0.630762	1.469180
0.630859	1.470445
0.630957	1.463051
0.631055	1.460897
0.631152	1.476887
0.631250	1.512512
0.631348	1.525188
0.631445	1.580330
0.631543	1.616974
0.631641	1.582531
0.631738	1.604940
0.631836	1.570284
0.631934	1.579140
0.632031	1.584005
0.632129	1.594258
0.632227	1.599230
0.632324	1.613336
0.632422	1.618578
0.632520	1.611214
0.632617	1.590187
0.632715	1.578043
0.632812	1.586833
0.632910	1.599707
0.633008	1.621476
0.633105	1.613070
0.633203	1.618187
0.633301	1.624155
0.633398	1.604793
0.633496	1.612129
0.633594	1.618433
0.633691	1.630614
0.633789	1.605137
0.633887	1.612770
0.633984	1.596953
0.634082	1.574295
0.634180	1.606796
0.634277	1.611482
0.634375	1.584548
0.634473	1.582495
0.634570	1.599121
0.634668	1.580332
0.634766	1.547740
0.634863	1.493215
0.634961	1.504534
0.635059	1.498107
0.635156	1.485703
0.635254	1.469242
0.635352	1.425077
0.635449	1.428849
0.635547	1.450139
0.635645	1.459269
0.635742	1.438972
0.635840	1.433125
0.635937	1.423182
0.636035	1.418451
0.636133	1.433039
0.636230	1.432034
0.636328	1.472065
0.636426	1.507774
0.636523	1.525062
0.636621	1.547211
0.636719	1.559318
0.636816	1.543261
0.636914	1.561963
0.637012	1.524997
0.637109	1.504337
0.637207	1.508706
0.637305	1.456054
0.637402	1.522708
0.637500	1.577669
0.637598	1.631001
0.637695	1.629225
0.637793	1.604388
0.637891	1.622424
0.637988	1.611689
0.638086	1.652919
0.638184	1.706033
0.638281	1.682216
0.638379	1.694581
0.638477	1.675002
0.638574	1.665077
0.638672	1.667013
0.638770	1.646446
0.638867	1.612900
0.638965	1.625546
0.639062	1.616719
0.639160	1.613812
0.639258	1.608417
0.639355	1.592268
0.639453	1.573361
0.639551	1.554665
0.639648	1.530722
0.639746	1.517142
0.639844	1.499277
0.639941	1.474074
0.640039	1.476985
0.640137	1.530970
0.640234	1.544264
0.640332	1.519719
0.640430	1.507832
0.640527	1.508126
0.640625	1.500911
0.640723	1.490796
0.640820	1.477377
0.640918	1.461460
0.641016	1.445690
0.641113	1.428615
0.641211	1.410557
0.641309	1.388678
0.641406	1.363881
0.641504	1.337537
0.641602	1.315155
0.641699	1.300121
0.641797	1.297183
0.641895	1.302885
0.641992	1.312951
0.642090	1.322881
0.642187	1.344352
0.642285	1.371389
0.642383	1.398047
0.642480	1.424537
0.642578	1.454799
0.642676	1.472777
0.642773	1.464212
0.642871	1.454478
0.642969	1.444101
0.643066	1.440886
0.643164	1.449382
0.643262	1.468524
0.643359	1.497172
0.643457	1.530637
0.643555	1.539059
0.643652	1.542207
0.643750	1.542791
0.643848	1.572242
0.643945	1.579202
0.644043	1.575370
0.644141	1.584203
0.644238	1.593909
0.644336	1.605368
0.644434	1.615438
0.644531	1.628428
0.644629	1.640837
0.644727	1.647036
0.644824	1.648968
0.644922	1.667581
0.645020	1.664413
0.645117	1.649343
0.645215	1.638123
0.645312	1.648119
0.645410	1.663605
0.645508	1.643984
0.645605	1.546047
0.645703	1.552998
0.645801	1.564409
0.645898	1.537755
0.645996	1.473424
0.646094	1.403778
0.646191	1.387699
0.646289	1.372416
0.646387	1.357409
0.646484	1.352799
0.646582	1.353466
0.646680	1.351002
0.646777	1.332290
0.646875	1.311743
0.646973	1.296128
0.647070	1.287433
0.647168	1.286626
0.647266	1.299444
0.647363	1.313048
0.647461	1.317262
0.647559	1.308663
0.647656	1.293493
0.647754	1.284719
0.647852	1.283518
0.647949	1.284525
0.648047	1.284061
0.648145	1.280285
0.648242	1.278055
0.648340	1.281661
0.648437	1.290107
0.648535	1.309782
0.648633	1.330522
0.648730	1.333792
0.648828	1.334536
0.648926	1.341943
0.649023	1.343307
0.649121	1.337117
0.649219	1.328380
0.649316	1.346147
0.649414	1.385669
0.649512	1.398739
0.649609	1.395446
0.649707	1.404276
0.649805	1.407009
0.649902	1.386767
0.650000	1.379973
0.650098	1.391384
0.650195	1.418210
0.650293	1.429131
0.650391	1.421686
0.650488	1.389571
0.650586	1.384863
0.650684	1.398525
0.650781	1.419062
0.650879	1.479878
0.650977	1.551610
0.651074	1.584887
0.651172	1.599075
0.651270	1.583725
0.651367	1.566742
0.651465	1.547280
0.651562	1.559121
0.651660	1.557315
0.651758	1.556447
0.651855	1.473042
0.651953	1.461609
0.652051	1.454954
0.652148	1.503461
0.652246	1.466656
0.652344	1.441954
0.652441	1.460667
0.652539	1.438387
0.652637	1.427571
0.652734	1.400277
0.652832	1.417508
0.652930	1.409568
0.653027	1.415347
0.653125	1.401988
0.653223	1.380633
0.653320	1.392586
0.653418	1.420811
0.653516	1.419914
0.653613	1.438573
0.653711	1.472785
0.653809	1.509098
0.653906	1.498820
0.654004	1.485040
0.654102	1.457860
0.654199	1.419776
0.654297	1.390493
0.654395	1.397644
0.654492	1.408993
0.654590	1.403333
0.654687	1.376918
0.654785	1.345111
0.654883	1.310454
0.654980	1.278483
0.655078	1.252339
0.655176	1.237995
0.655273	1.233900
0.655371	1.232361
0.655469	1.233960
0.655566	1.240559
0.655664	1.248229
0.655762	1.252202
0.655859	1.250625
0.655957	1.250797
0.656055	1.284990
0.656152	1.341202
0.656250	1.383913
0.656348	1.406281
0.656445	1.405672
0.656543	1.434884
0.656641	1.470769
0.656738	1.499929
0.656836	1.499280
0.656934	1.469568
0.657031	1.433336
0.657129	1.401112
0.657227	1.425409
0.657324	1.437585
0.657422	1.427955
0.657520	1.450151
0.657617	1.469073
0.657715	1.481728
0.657812	1.473667
0.657910	1.468644
0.658008	1.450116
0.658105	1.449885
0.658203	1.465949
0.658301	1.513645
0.658398	1.540314
0.658496	1.533118
0.658594	1.544040
0.658691	1.518905
0.658789	1.538442
0.658887	1.571441
0.658984	1.560225
0.659082	1.547204
0.659180	1.502371
0.659277	1.524211
0.659375	1.532259
0.659473	1.524518
0.659570	1.531880
0.659668	1.523626
0.659766	1.524602
0.659863	1.524409
0.659961	1.548589
0.660059	1.535058
0.660156	1.505964
0.660254	1.515846
0.660352	1.520910
0.660449	1.513247
0.660547	1.518244
0.660645	1.520541
0.660742	1.513842
0.660840	1.484966
0.660937	1.471810
0.661035	1.424128
0.661133	1.407135
0.661230	1.432978
0.661328	1.425673
0.661426	1.396329
0.661523	1.377069
0.661621	1.365360
0.661719	1.419927
0.661816	1.434930
0.661914	1.426334
0.662012	1.444910
0.662109	1.399404
0.662207	1.381290
0.662305	1.389319
0.662402	1.373128
0.662500	1.354376
0.662598	1.376953
0.662695	1.420383
0.662793	1.457062
0.662891	1.477959
0.662988	1.484536
0.663086	1.434473
0.663184	1.443927
0.663281	1.504643
0.663379	1.531883
0.663477	1.541108
0.663574	1.561040
0.663672	1.578272
0.663770	1.571062
0.663867	1.584120
0.663965	1.580293
0.664062	1.549292
0.664160	1.563808
0.664258	1.572017
0.664355	1.556220
0.664453	1.552973
0.664551	1.542277
0.664648	1.533029
0.664746	1.526162
0.664844	1.524393
0.664941	1.505616
0.665039	1.491292
0.665137	1.466429
0.665234	1.462962
0.665332	1.488008
0.665430	1.512585
0.665527	1.508721
0.665625	1.496999
0.665723	1.475415
0.665820	1.486081
0.665918	1.496111
0.666016	1.484484
0.666113	1.464488
0.666211	1.442955
0.666309	1.425580
0.666406	1.408479
0.666504	1.393009
0.666602	1.380053
0.666699	1.369825
0.666797	1.359536
0.666895	1.349510
0.666992	1.336189
0.667090	1.319977
0.667187	1.302714
0.667285	1.288520
0.667383	1.277072
0.667480	1.271458
0.667578	1.270980
0.667676	1.277616
0.667773	1.289593
0.667871	1.316290
0.667969	1.341781
0.668066	1.363963
0.668164	1.406693
0.668262	1.427520
0.668359	1.420679
0.668457	1.391451
0.668555	1.365719
0.668652	1.342638
0.668750	1.344484
0.668848	1.339093
0.668945	1.359191
0.669043	1.362922
0.669141	1.349397
0.669238	1.371330
0.669336	1.401419
0.669434	1.405186
0.669531	1.368824
0.669629	1.341309
0.669727	1.355604
0.669824	1.381384
0.669922	1.395580
0.670020	1.403413
0.670117	1.401989
0.670215	1.398828
0.670312	1.395199
0.670410	1.394312
0.670508	1.392455
0.670605	1.396724
0.670703	1.414279
0.670801	1.441384
0.670898	1.463726
0.670996	1.480591
0.671094	1.469732
0.671191	1.437336
0.671289	1.414754
0.671387	1.416653
0.671484	1.428632
0.671582	1.444816
0.671680	1.458101
0.671777	1.457866
0.671875	1.443922
0.671973	1.424630
0.672070	1.415813
0.672168	1.460680
0.672266	1.502943
0.672363	1.489361
0.672461	1.480851
0.672559	1.471634
0.672656	1.475664
0.672754	1.464558
0.672852	1.400884
0.672949	1.451886
0.673047	1.512058
0.673145	1.530300
0.673242	1.558217
0.673340	1.558859
0.673437	1.566438
0.673535	1.560099
0.673633	1.553027
0.673730	1.553433
0.673828	1.551828
0.673926	1.561752
0.674023	1.579286
0.674121	1.574268
0.674219	1.560408
0.674316	1.533614
0.674414	1.547611
0.674512	1.556558
0.674609	1.536529
0.674707	1.519965
0.674805	1.509110
0.674902	1.493901
0.675000	1.503566
0.675098	1.514033
0.675195	1.528678
0.675293	1.546762
0.675391	1.536747
0.675488	1.527823
0.675586	1.530140
0.675684	1.526448
0.675781	1.508006
0.675879	1.499164
0.675977	1.501243
0.676074	1.498900
0.676172	1.502826
0.676270	1.523627
0.676367	1.495914
0.676465	1.468856
0.676562	1.478620
0.676660	1.506531
0.676758	1.478019
0.676855	1.436526
0.676953	1.411105
0.677051	1.379976
0.677148	1.334056
0.677246	1.317049
0.677344	1.337769
0.677441	1.350644
0.677539	1.344065
0.677637	1.315769
0.677734	1.315797
0.677832	1.329470
0.677930	1.314550
0.678027	1.285340
0.678125	1.252742
0.678223	1.256989
0.678320	1.322888
0.678418	1.389974
0.678516	1.458825
0.678613	1.490236
0.678711	1.482050
0.678809	1.478278
0.678906	1.448593
0.679004	1.483741
0.679102	1.500345
0.679199	1.501400
0.679297	1.492105
0.679395	1.488574
0.679492	1.488058
0.679590	1.469199
0.679687	1.469120
0.679785	1.463325
0.679883	1.394244
0.679980	1.373044
0.680078	1.407630
0.680176	1.413732
0.680273	1.417383
0.680371	1.489279
0.680469	1.493623
0.680566	1.438322
0.680664	1.403360
0.680762	1.401955
0.680859	1.390907
0.680957	1.412859
0.681055	1.438324
0.681152	1.417600
0.681250	1.470272
0.681348	1.514369
0.681445	1.524293
0.681543	1.598835
0.681641	1.620117
0.681738	1.576472
0.681836	1.531297
0.681934	1.528047
0.682031	1.542609
0.682129	1.516467
0.682227	1.479153
0.682324	1.459327
0.682422	1.463867
0.682520	1.427002
0.682617	1.449672
0.682715	1.431616
0.682812	1.500649
0.682910	1.572874
0.683008	1.586129
0.683105	1.578455
0.683203	1.582320
0.683301	1.624297
0.683398	1.637951
0.683496	1.609827
0.683594	1.568234
0.683691	1.543427
0.683789	1.510864
0.683887	1.478772
0.683984	1.458365
0.684082	1.447792
0.684180	1.472668
0.684277	1.503475
0.684375	1.521690
0.684473	1.509476
0.684570	1.479311
0.684668	1.426448
0.684766	1.393937
0.684863	1.402155
0.684961	1.388204
0.685059	1.390263
0.685156	1.426816
0.685254	1.445550
0.685352	1.464084
0.685449	1.460593
0.685547	1.458797
0.685645	1.504231
0.685742	1.466211
0.685840	1.431584
0.685937	1.432655
0.686035	1.487037
0.686133	1.494361
0.686230	1.512328
0.686328	1.546590
0.686426	1.518055
0.686523	1.509252
0.686621	1.512404
0.686719	1.527303
0.686816	1.596066
0.686914	1.609021
0.687012	1.622019
0.687109	1.612131
0.687207	1.630324
0.687305	1.643518
0.687402	1.649559
0.687500	1.653811
0.687598	1.644378
0.687695	1.648380
0.687793	1.623941
0.687891	1.608431
0.687988	1.607628
0.688086	1.613556
0.688184	1.604441
0.688281	1.616567
0.688379	1.620272
0.688477	1.567945
0.688574	1.547307
0.688672	1.529990
0.688770	1.559745
0.688867	1.556984
0.688965	1.539123
0.689062	1.531905
0.689160	1.515410
0.689258	1.491375
0.689355	1.500920
0.689453	1.511719
0.689551	1.569559
0.689648	1.552439
0.689746	1.566083
0.689844	1.586131
0.689941	1.511899
0.690039	1.499527
0.690137	1.472273
0.690234	1.453149
0.690332	1.436862
0.690430	1.441369
0.690527	1.446195
0.690625	1.404008
0.690723	1.346451
0.690820	1.312646
0.690918	1.297977
0.691016	1.295532
0.691113	1.300753
0.691211	1.302035
0.691309	1.306745
0.691406	1.306463
0.691504	1.295273
0.691602	1.281939
0.691699	1.279864
0.691797	1.291796
0.691895	1.317181
0.691992	1.332321
0.692090	1.324097
0.692187	1.301498
0.692285	1.280087
0.692383	1.274819
0.692480	1.275584
0.692578	1.263918
0.692676	1.304681
0.692773	1.355419
0.692871	1.347160
0.692969	1.356799
0.693066	1.399975
0.693164	1.403560
0.693262	1.400022
0.693359	1.399373
0.693457	1.387218
0.693555	1.393173
0.693652	1.428071
0.693750	1.382331
0.693848	1.373718
0.693945	1.376236
0.694043	1.341189
0.694141	1.295165
0.694238	1.307274
0.694336	1.368263
0.694434	1.379962
0.694531	1.368086
0.694629	1.345787
0.694727	1.367222
0.694824	1.398048
0.694922	1.412207
0.695020	1.409879
0.695117	1.404266
0.695215	1.421418
0.695312	1.426425
0.695410	1.411543
0.695508	1.397658
0.695605	1.408164
0.695703	1.430615
0.695801	1.437535
0.695898	1.438624
0.695996	1.430323
0.696094	1.421009
0.696191	1.407908
0.696289	1.424360
0.696387	1.446499
0.696484	1.450685
0.696582	1.442480
0.696680	1.448620
0.696777	1.470476
0.696875	1.468790
0.696973	1.451376
0.697070	1.479997
0.697168	1.490749
0.697266	1.509741
0.697363	1.524254
0.697461	1.520485
0.697559	1.503191
0.697656	1.466576
0.697754	1.501567
0.697852	1.514187
0.697949	1.435039
0.698047	1.434492
0.698145	1.469293
0.698242	1.467907
0.698340	1.462246
0.698437	1.517371
0.698535	1.527451
0.698633	1.547205
0.698730	1.578196
0.698828	1.592715
0.698926	1.607913
0.699023	1.597056
0.699121	1.635609
0.699219	1.618865
0.699316	1.627185
0.699414	1.632645
0.699512	1.585862
0.699609	1.514814
0.699707	1.482715
0.699805	1.492371
0.699902	1.557477
0.700000	1.533617
0.700098	1.521772
0.700195	1.451590
0.700293	1.476073
0.700391	1.473570
0.700488	1.481475
0.700586	1.471696
0.700684	1.466774
0.700781	1.464870
0.700879	1.463643
0.700977	1.470504
0.701074	1.450023
0.701172	1.460563
0.701270	1.469291
0.701367	1.467783
0.701465	1.471014
0.701562	1.450070
0.701660	1.422353
0.701758	1.460731
0.701855	1.490784
0.701953	1.472564
0.702051	1.448447
0.702148	1.417625
0.702246	1.417877
0.702344	1.420656
0.702441	1.426900
0.702539	1.463690
0.702637	1.454524
0.702734	1.438035
0.702832	1.420422
0.702930	1.472644
0.703027	1.494633
0.703125	1.478652
0.703223	1.451317
0.703320	1.438393
0.703418	1.421490
0.703516	1.376192
0.703613	1.358471
0.703711	1.358788
0.703809	1.311306
0.703906	1.299185
0.704004	1.286945
0.704102	1.274368
0.704199	1.290993
0.704297	1.320155
0.704395	1.281170
0.704492	1.318328
0.704590	1.370263
0.704687	1.406582
0.704785	1.546882
0.704883	1.609491
0.704980	1.582592
0.705078	1.572479
0.705176	1.546766
0.705273	1.510905
0.705371	1.465443
0.705469	1.447081
0.705566	1.414272
0.705664	1.368822
0.705762	1.329108
0.705859	1.307257
0.705957	1.335930
0.706055	1.373381
0.706152	1.370794
0.706250	1.348000
0.706348	1.351151
0.706445	1.381703
0.706543	1.405445
0.706641	1.402993
0.706738	1.411609
0.706836	1.409262
0.706934	1.393922
0.707031	1.401852
0.707129	1.407985
0.707227	1.434390
0.707324	1.447994
0.707422	1.459023
0.707520	1.481122
0.707617	1.485820
0.707715	1.482579
0.707812	1.482269
0.707910	1.476943
0.708008	1.501625
0.708105	1.507419
0.708203	1.474614
0.708301	1.484108
0.708398	1.513493
0.708496	1.517281
0.708594	1.517429
0.708691	1.507997
0.708789	1.481428
0.708887	1.471594
0.708984	1.462422
0.709082	1.424350
0.709180	1.384709
0.709277	1.369879
0.709375	1.391491
0.709473	1.376873
0.709570	1.335047
0.709668	1.307984
0.709766	1.506819
0.709863	1.596900
0.709961	1.537559
0.710059	1.554108
0.710156	1.518442
0.710254	1.514907
0.710352	1.479516
0.710449	1.480101
0.710547	1.487965
0.710645	1.525257
0.710742	1.492473
0.710840	1.458844
0.710937	1.419876
0.711035	1.467052
0.711133	1.547096
0.711230	1.562803
0.711328	1.539778
0.711426	1.564456
0.711523	1.578253
0.711621	1.640270
0.711719	1.699834
0.711816	1.677324
0.711914	1.671952
0.712012	1.638996
0.712109	1.644322
0.712207	1.637515
0.712305	1.613519
0.712402	1.614328
0.712500	1.617980
0.712598	1.619787
0.712695	1.614876
0.712793	1.617763
0.712891	1.617415
0.712988	1.618779
0.713086	1.619806
0.713184	1.630848
0.713281	1.629143
0.713379	1.634496
0.713477	1.607611
0.713574	1.578066
0.713672	1.601175
0.713770	1.616636
0.713867	1.587379
0.713965	1.596887
0.714062	1.631192
0.714160	1.593889
0.714258	1.585150
0.714355	1.584739
0.714453	1.564959
0.714551	1.562564
0.714648	1.534029
0.714746	1.523498
0.714844	1.524115
0.714941	1.489204
0.715039	1.464990
0.715137	1.453171
0.715234	1.464893
0.715332	1.487432
0.715430	1.488630
0.715527	1.489909
0.715625	1.522142
0.715723	1.550561
0.715820	1.532942
0.715918	1.495955
0.716016	1.461060
0.716113	1.437443
0.716211	1.426159
0.716309	1.422815
0.716406	1.410941
0.716504	1.384941
0.716602	1.342629
0.716699	1.313054
0.716797	1.325401
0.716895	1.339395
0.716992	1.350314
0.717090	1.366554
0.717187	1.372618
0.717285	1.386861
0.717383	1.442494
0.717480	1.466631
0.717578	1.473369
0.717676	1.507204
0.717773	1.525965
0.717871	1.537000
0.717969	1.526718
0.718066	1.511666
0.718164	1.497514
0.718262	1.483645
0.718359	1.480129
0.718457	1.487120
0.718555	1.505950
0.718652	1.517504
0.718750	1.507549
0.718848	1.504973
0.718945	1.512000
0.719043	1.504973
0.719141	1.525561
0.719238	1.541185
0.719336	1.562817
0.719434	1.578637
0.719531	1.572658
0.719629	1.575039
0.719727	1.581965
0.719824	1.578274
0.719922	1.576938
0.720020	1.589924
0.720117	1.602502
0.720215	1.606566
0.720312	1.576443
0.720410	1.548406
0.720508	1.532354
0.720605	1.549775
0.720703	1.566692
0.720801	1.496300
0.720898	1.444172
0.720996	1.418878
0.721094	1.452397
0.721191	1.499877
0.721289	1.513098
0.721387	1.511327
0.721484	1.535366
0.721582	1.520951
0.721680	1.489874
0.721777	1.471743
0.721875	1.524043
0.721973	1.553001
0.722070	1.468302
0.722168	1.501993
0.722266	1.537896
0.722363	1.518737
0.722461	1.535187
0.722559	1.509087
0.722656	1.514426
0.722754	1.529519
0.722852	1.527243
0.722949	1.543021
0.723047	1.523824
0.723145	1.469985
0.723242	1.430304
0.723340	1.427869
0.723437	1.413321
0.723535	1.381736
0.723633	1.351891
0.723730	1.335796
0.723828	1.330229
0.723926	1.316415
0.724023	1.319578
0.724121	1.337359
0.724219	1.355691
0.724316	1.360180
0.724414	1.390479
0.724512	1.411649
0.724609	1.397669
0.724707	1.366819
0.724805	1.336527
0.724902	1.341926
0.725000	1.388358
0.725098	1.444280
0.725195	1.511265
0.725293	1.542863
0.725391	1.539427
0.725488	1.520528
0.725586	1.539471
0.725684	1.565157
0.725781	1.575847
0.725879	1.586404
0.725977	1.596766
0.726074	1.607538
0.726172	1.615839
0.726270	1.623190
0.726367	1.625971
0.726465	1.619967
0.726562	1.616155
0.726660	1.617534
0.726758	1.620938
0.726855	1.621853
0.726953	1.621487
0.727051	1.621148
0.727148	1.626154
0.727246	1.631228
0.727344	1.638188
0.727441	1.641267
0.727539	1.636728
0.727637	1.641120
0.727734	1.633378
0.727832	1.622288
0.727930	1.617007
0.728027	1.626437
0.728125	1.639980
0.728223	1.632685
0.728320	1.613505
0.728418	1.611858
0.728516	1.628643
0.728613	1.643128
0.728711	1.624291
0.728809	1.584508
0.728906	1.581540
0.729004	1.584015
0.729102	1.585409
0.729199	1.551051
0.729297	1.510994
0.729395	1.526632
0.729492	1.527473
0.729590	1.527197
0.729687	1.515951
0.729785	1.490032
0.729883	1.449175
0.729980	1.423929
0.730078	1.430975
0.730176	1.456267
0.730273	1.438593
0.730371	1.381542
0.730469	1.329487
0.730566	1.305037
0.730664	1.309601
0.730762	1.336624
0.730859	1.355412
0.730957	1.368589
0.731055	1.381872
0.731152	1.373650
0.731250	1.350526
0.731348	1.359925
0.731445	1.383358
0.731543	1.371703
0.731641	1.382454
0.731738	1.424680
0.731836	1.445001
0.731934	1.436419
0.732031	1.410096
0.732129	1.396747
0.732227	1.410297
0.732324	1.423763
0.732422	1.435265
0.732520	1.438473
0.732617	1.445398
0.732715	1.454774
0.732812	1.478399
0.732910	1.509937
0.733008	1.582037
0.733105	1.590969
0.733203	1.627832
0.733301	1.584444
0.733398	1.559232
0.733496	1.563268
0.733594	1.580817
0.733691	1.575421
0.733789	1.551296
0.733887	1.544839
0.733984	1.532662
0.734082	1.499942
0.734180	1.512142
0.734277	1.541282
0.734375	1.574431
0.734473	1.602527
0.734570	1.579718
0.734668	1.568104
0.734766	1.570441
0.734863	1.584128
0.734961	1.600707
0.735059	1.607891
0.735156	1.628914
0.735254	1.627118
0.735352	1.630830
0.735449	1.646464
0.735547	1.634027
0.735645	1.612088
0.735742	1.614303
0.735840	1.610713
0.735937	1.617670
0.736035	1.593123
0.736133	1.549454
0.736230	1.543142
0.736328	1.572764
0.736426	1.563902
0.736523	1.522698
0.736621	1.535935
0.736719	1.529979
0.736816	1.511108
0.736914	1.482122
0.737012	1.460164
0.737109	1.480148
0.737207	1.485566
0.737305	1.482667
0.737402	1.500729
0.737500	1.513377
0.737598	1.525834
0.737695	1.491320
0.737793	1.442176
0.737891	1.417382
0.737988	1.423231
0.738086	1.433493
0.738184	1.438640
0.738281	1.439605
0.738379	1.447719
0.738477	1.454830
0.738574	1.472326
0.738672	1.461210
0.738770	1.430222
0.738867	1.395635
0.738965	1.386026
0.739062	1.393069
0.739160	1.379418
0.739258	1.359736
0.739355	1.369428
0.739453	1.389694
0.739551	1.384962
0.739648	1.365618
0.739746	1.358383
0.739844	1.361851
0.739941	1.350456
0.740039	1.321782
0.740137	1.283153
0.740234	1.250991
0.740332	1.241445
0.740430	1.244420
0.740527	1.258725
0.740625	1.288370
0.740723	1.316747
0.740820	1.330228
0.740918	1.332003
0.741016	1.329279
0.741113	1.326946
0.741211	1.326709
0.741309	1.305459
0.741406	1.277079
0.741504	1.302615
0.741602	1.336991
0.741699	1.394648
0.741797	1.424084
0.741895	1.435334
0.741992	1.500407
0.742090	1.478372
0.742187	1.474929
0.742285	1.465776
0.742383	1.473600
0.742480	1.489157
0.742578	1.504587
0.742676	1.513838
0.742773	1.526755
0.742871	1.538402
0.742969	1.555947
0.743066	1.565712
0.743164	1.567656
0.743262	1.597014
0.743359	1.598897
0.743457	1.577936
0.743555	1.575096
0.743652	1.571329
0.743750	1.572485
0.743848	1.565862
0.743945	1.568005
0.744043	1.563557
0.744141	1.575270
0.744238	1.574574
0.744336	1.534019
0.744434	1.531211
0.744531	1.510393
0.744629	1.503395
0.744727	1.487031
0.744824	1.489605
0.744922	1.467850
0.745020	1.433576
0.745117	1.452720
0.745215	1.465868
0.745312	1.472521
0.745410	1.478529
0.745508	1.439369
0.745605	1.420429
0.745703	1.412024
0.745801	1.398225
0.745898	1.418582
0.745996	1.425011
0.746094	1.431148
0.746191	1.433561
0.746289	1.419595
0.746387	1.391569
0.746484	1.376774
0.746582	1.377654
0.746680	1.389069
0.746777	1.410001
0.746875	1.421527
0.746973	1.434438
0.747070	1.444142
0.747168	1.454603
0.747266	1.486377
0.747363	1.498876
0.747461	1.511184
0.747559	1.524415
0.747656	1.557531
0.747754	1.557067
0.747852	1.548962
0.747949	1.550849
0.748047	1.553119
0.748145	1.534628
0.748242	1.543994
0.748340	1.548977
0.748437	1.602847
0.748535	1.625837
0.748633	1.617514
0.748730	1.624680
0.748828	1.640322
0.748926	1.634836
0.749023	1.637730
0.749121	1.629580
0.749219	1.607618
0.749316	1.605306
0.749414	1.592942
0.749512	1.590238
0.749609	1.590701
0.749707	1.586947
0.749805	1.593032
0.749902	1.592435
0.750000	1.575433
0.750098	1.551962
0.750195	1.523766
0.750293	1.520018
0.750391	1.505972
0.750488	1.508379
0.750586	1.506833
0.750684	1.500386
0.750781	1.509354
0.750879	1.537464
0.750977	1.548695
0.751074	1.528863
0.751172	1.536246
0.751270	1.546545
0.751367	1.566241
0.751465	1.521878
0.751562	1.510150
0.751660	1.518006
0.751758	1.519987
0.751855	1.511337
0.751953	1.496526
0.752051	1.507853
0.752148	1.528125
0.752246	1.535811
0.752344	1.525176
0.752441	1.529138
0.752539	1.542982
0.752637	1.553683
0.752734	1.509813
0.752832	1.498539
0.752930	1.530388
0.753027	1.530940
0.753125	1.519100
0.753223	1.505727
0.753320	1.497667
0.753418	1.477206
0.753516	1.453735
0.753613	1.454935
0.753711	1.437568
0.753809	1.395343
0.753906	1.366904
0.754004	1.359019
0.754102	1.346213
0.754199	1.330733
0.754297	1.314255
0.754395	1.313304
0.754492	1.321816
0.754590	1.328677
0.754687	1.316060
0.754785	1.313302
0.754883	1.346787
0.754980	1.376754
0.755078	1.419422
0.755176	1.448048
0.755273	1.461815
0.755371	1.474006
0.755469	1.487783
0.755566	1.490078
0.755664	1.488268
0.755762	1.486601
0.755859	1.502976
0.755957	1.540436
0.756055	1.550508
0.756152	1.543977
0.756250	1.544100
0.756348	1.549732
0.756445	1.556650
0.756543	1.563288
0.756641	1.569087
0.756738	1.575189
0.756836	1.580534
0.756934	1.585505
0.757031	1.590099
0.757129	1.594900
0.757227	1.598885
0.757324	1.602598
0.757422	1.605631
0.757520	1.608980
0.757617	1.612456
0.757715	1.616841
0.757812	1.619197
0.757910	1.621155
0.758008	1.620482
0.758105	1.621143
0.758203	1.620144
0.758301	1.619865
0.758398	1.627625
0.758496	1.646018
0.758594	1.633543
0.758691	1.641685
0.758789	1.657509
0.758887	1.649030
0.758984	1.647895
0.759082	1.650563
0.759180	1.646652
0.759277	1.646818
0.759375	1.646115
0.759473	1.660414
0.759570	1.655962
0.759668	1.636626
0.759766	1.633461
0.759863	1.596561
0.759961	1.581199
0.760059	1.578502
0.760156	1.569909
0.760254	1.530220
0.760352	1.489783
0.760449	1.485337
0.760547	1.465468
0.760645	1.444781
0.760742	1.438149
0.760840	1.426436
0.760937	1.419006
0.761035	1.404311
0.761133	1.387322
0.761230	1.358361
0.761328	1.330890
0.761426	1.303556
0.761523	1.303272
0.761621	1.329303
0.761719	1.363117
0.761816	1.401463
0.761914	1.411035
0.762012	1.412607
0.762109	1.412648
0.762207	1.409350
0.762305	1.416682
0.762402	1.414666
0.762500	1.403133
0.762598	1.393328
0.762695	1.403110
0.762793	1.409484
0.762891	1.416053
0.762988	1.435875
0.763086	1.451200
0.763184	1.463313
0.763281	1.466457
0.763379	1.458879
0.763477	1.463768
0.763574	1.481085
0.763672	1.478549
0.763770	1.459288
0.763867	1.448229
0.763965	1.450316
0.764062	1.454162
0.764160	1.459087
0.764258	1.452078
0.764355	1.459011
0.764453	1.482883
0.764551	1.526084
0.764648	1.551151
0.764746	1.526461
0.764844	1.511428
0.764941	1.492037
0.765039	1.505116
0.765137	1.502873
0.765234	1.496404
0.765332	1.526117
0.765430	1.486120
0.765527	1.450578
0.765625	1.409251
0.765723	1.335142
0.765820	1.353134
0.765918	1.387647
0.766016	1.388390
0.766113	1.354942
0.766211	1.334789
0.766309	1.405112
0.766406	1.478478
0.766504	1.538997
0.766602	1.555184
0.766699	1.556155
0.766797	1.564588
0.766895	1.560990
0.766992	1.509069
0.767090	1.486793
0.767187	1.512248
0.767285	1.511187
0.767383	1.517895
0.767480	1.515876
0.767578	1.510123
0.767676	1.497395
0.767773	1.514650
0.767871	1.526721
0.767969	1.524165
0.768066	1.513793
0.768164	1.504289
0.768262	1.475875
0.768359	1.478506
0.768457	1.456983
0.768555	1.442822
0.768652	1.431338
0.768750	1.463152
0.768848	1.494200
0.768945	1.503133
0.769043	1.476030
0.769141	1.451177
0.769238	1.497959
0.769336	1.518037
0.769434	1.539153
0.769531	1.522505
0.769629	1.527081
0.769727	1.534763
0.769824	1.545329
0.769922	1.541839
0.770020	1.563093
0.770117	1.585014
0.770215	1.580964
0.770312	1.539146
0.770410	1.512741
0.770508	1.529173
0.770605	1.551766
0.770703	1.552208
0.770801	1.529831
0.770898	1.522224
0.770996	1.561721
0.771094	1.539586
0.771191	1.484440
0.771289	1.435457
0.771387	1.377617
0.771484	1.362066
0.771582	1.370632
0.771680	1.402029
0.771777	1.410241
0.771875	1.427211
0.771973	1.414657
0.772070	1.515297
0.772168	1.562694
0.772266	1.592062
0.772363	1.562754
0.772461	1.533220
0.772559	1.510149
0.772656	1.475579
0.772754	1.465153
0.772852	1.425977
0.772949	1.355041
0.773047	1.435666
0.773145	1.550348
0.773242	1.550215
0.773340	1.501108
0.773437	1.418501
0.773535	1.380965
0.773633	1.434678
0.773730	1.518073
0.773828	1.493431
0.773926	1.556149
0.774023	1.571045
0.774121	1.434031
0.774219	1.375980
0.774316	1.444282
0.774414	1.373778
0.774512	1.436315
0.774609	1.520518
0.774707	1.503370
0.774805	1.460005
0.774902	1.431346
0.775000	1.454485
0.775098	1.460501
0.775195	1.442457
0.775293	1.446092
0.775391	1.446142
0.775488	1.459212
0.775586	1.482395
0.775684	1.516727
0.775781	1.520898
0.775879	1.508735
0.775977	1.518925
0.776074	1.545295
0.776172	1.536379
0.776270	1.530627
0.776367	1.609822
0.776465	1.614480
0.776562	1.597677
0.776660	1.597460
0.776758	1.595423
0.776855	1.584912
0.776953	1.599243
0.777051	1.567791
0.777148	1.555436
0.777246	1.531488
0.777344	1.577747
0.777441	1.663579
0.777539	1.638527
0.777637	1.613935
0.777734	1.593583
0.777832	1.625307
0.777930	1.624313
0.778027	1.657139
0.778125	1.665722
0.778223	1.666337
0.778320	1.662327
0.778418	1.675973
0.778516	1.669501
0.778613	1.681705
0.778711	1.664231
0.778809	1.612927
0.778906	1.597824
0.779004	1.609942
0.779102	1.599900
0.779199	1.580253
0.779297	1.587981
0.779395	1.618415
0.779492	1.617376
0.779590	1.608678
0.779687	1.623425
0.779785	1.620405
0.779883	1.607464
0.779980	1.604316
0.780078	1.593619
0.780176	1.593792
0.780273	1.584008
0.780371	1.578895
0.780469	1.565356
0.780566	1.563132
0.780664	1.561153
0.780762	1.564822
0.780859	1.560838
0.780957	1.549678
0.781055	1.534867
0.781152	1.541119
0.781250	1.581996
0.781348	1.561051
0.781445	1.532745
0.781543	1.539887
0.781641	1.526582
0.781738	1.562537
0.781836	1.579593
0.781934	1.580880
0.782031	1.570640
0.782129	1.546883
0.782227	1.534656
0.782324	1.552480
0.782422	1.569425
0.782520	1.539527
0.782617	1.525777
0.782715	1.513743
0.782812	1.493973
0.782910	1.491793
0.783008	1.461099
0.783105	1.431238
0.783203	1.446046
0.783301	1.485812
0.783398	1.468610
0.783496	1.427899
0.783594	1.447886
0.783691	1.467070
0.783789	1.438964
0.783887	1.413722
0.783984	1.397447
0.784082	1.359935
0.784180	1.394423
0.784277	1.495260
0.784375	1.463371
0.784473	1.461133
0.784570	1.505482
0.784668	1.504340
0.784766	1.484188
0.784863	1.470108
0.784961	1.467914
0.785059	1.473435
0.785156	1.488691
0.785254	1.482048
0.785352	1.475649
0.785449	1.458574
0.785547	1.434789
0.785645	1.408151
0.785742	1.402166
0.785840	1.391748
0.785937	1.402987
0.786035	1.410419
0.786133	1.398292
0.786230	1.350193
0.786328	1.371682
0.786426	1.384819
0.786523	1.410534
0.786621	1.479640
0.786719	1.559024
0.786816	1.629257
0.786914	1.606978
0.787012	1.562776
0.787109	1.588921
0.787207	1.612497
0.787305	1.574117
0.787402	1.536257
0.787500	1.559007
0.787598	1.581402
0.787695	1.569047
0.787793	1.556850
0.787891	1.536476
0.787988	1.598222
0.788086	1.560990
0.788184	1.521229
0.788281	1.616185
0.788379	1.604206
0.788477	1.627403
0.788574	1.574402
0.788672	1.522966
0.788770	1.545630
0.788867	1.548788
0.788965	1.584884
0.789062	1.574892
0.789160	1.536481
0.789258	1.508469
0.789355	1.532651
0.789453	1.510736
0.789551	1.462447
0.789648	1.475146
0.789746	1.526245
0.789844	1.567448
0.789941	1.557977
0.790039	1.519983
0.790137	1.517173
0.790234	1.518645
0.790332	1.527351
0.790430	1.510576
0.790527	1.479537
0.790625	1.453024
0.790723	1.415235
0.790820	1.403517
0.790918	1.395205
0.791016	1.403555
0.791113	1.391278
0.791211	1.371131
0.791309	1.312267
0.791406	1.406569
0.791504	1.497135
0.791602	1.456950
0.791699	1.430640
0.791797	1.396130
0.791895	1.385279
0.791992	1.457806
0.792090	1.468790
0.792187	1.446053
0.792285	1.489714
0.792383	1.531488
0.792480	1.512307
0.792578	1.523590
0.792676	1.536867
0.792773	1.548331
0.792871	1.548262
0.792969	1.523514
0.793066	1.469903
0.793164	1.412102
0.793262	1.380706
0.793359	1.349997
0.793457	1.376142
0.793555	1.469571
0.793652	1.486684
0.793750	1.477032
0.793848	1.464472
0.793945	1.457091
0.794043	1.495803
0.794141	1.492601
0.794238	1.477103
0.794336	1.462930
0.794434	1.452435
0.794531	1.432724
0.794629	1.409466
0.794727	1.410274
0.794824	1.396751
0.794922	1.378173
0.795020	1.370489
0.795117	1.363892
0.795215	1.353191
0.795312	1.333258
0.795410	1.345081
0.795508	1.362626
0.795605	1.348194
0.795703	1.325280
0.795801	1.300166
0.795898	1.308578
0.795996	1.321349
0.796094	1.330345
0.796191	1.335147
0.796289	1.356548
0.796387	1.385487
0.796484	1.400458
0.796582	1.414888
0.796680	1.408830
0.796777	1.382409
0.796875	1.374035
0.796973	1.376326
0.797070	1.381853
0.797168	1.401975
0.797266	1.432095
0.797363	1.440264
0.797461	1.449866
0.797559	1.447776
0.797656	1.438472
0.797754	1.437519
0.797852	1.453775
0.797949	1.472440
0.798047	1.475652
0.798145	1.477836
0.798242	1.481219
0.798340	1.504301
0.798437	1.483336
0.798535	1.472131
0.798633	1.474125
0.798730	1.457153
0.798828	1.472519
0.798926	1.463852
0.799023	1.424309
0.799121	1.427247
0.799219	1.508781
0.799316	1.564461
0.799414	1.549022
0.799512	1.573675
0.799609	1.567687
0.799707	1.575030
0.799805	1.581875
0.799902	1.624792
0.800000	1.629361
0.800098	1.601150
0.800195	1.620188
0.800293	1.609487
0.800391	1.591816
0.800488	1.549685
0.800586	1.546043
0.800684	1.590623
0.800781	1.614506
0.800879	1.592161
0.800977	1.536166
0.801074	1.554680
0.801172	1.557609
0.801270	1.565702
0.801367	1.563052
0.801465	1.540291
0.801562	1.505989
0.801660	1.479060
0.801758	1.469593
0.801855	1.508832
0.801953	1.476963
0.802051	1.457702
0.802148	1.434138
0.802246	1.472391
0.802344	1.457522
0.802441	1.341882
0.802539	1.293113
0.802637	1.300115
0.802734	1.311225
0.802832	1.339844
0.802930	1.327357
0.803027	1.483891
0.803125	1.513931
0.803223	1.476464
0.803320	1.450767
0.803418	1.496033
0.803516	1.537276
0.803613	1.470734
0.803711	1.478898
0.803809	1.479571
0.803906	1.471389
0.804004	1.425858
0.804102	1.420677
0.804199	1.458650
0.804297	1.443180
0.804395	1.413811
0.804492	1.412514
0.804590	1.487219
0.804687	1.466630
0.804785	1.456304
0.804883	1.505293
0.804980	1.516960
0.805078	1.543791
0.805176	1.529758
0.805273	1.524979
0.805371	1.471271
0.805469	1.496812
0.805566	1.519188
0.805664	1.452403
0.805762	1.423109
0.805859	1.424469
0.805957	1.498510
0.806055	1.478985
0.806152	1.463427
0.806250	1.419991
0.806348	1.362922
0.806445	1.322288
0.806543	1.317430
0.806641	1.396081
0.806738	1.471865
0.806836	1.439940
0.806934	1.455167
0.807031	1.510262
0.807129	1.547026
0.807227	1.567831
0.807324	1.540660
0.807422	1.533812
0.807520	1.530321
0.807617	1.562732
0.807715	1.580354
0.807812	1.555243
0.807910	1.549011
0.808008	1.552454
0.808105	1.572939
0.808203	1.590665
0.808301	1.593922
0.808398	1.594943
0.808496	1.591724
0.808594	1.577209
0.808691	1.552156
0.808789	1.512295
0.808887	1.521641
0.808984	1.541916
0.809082	1.538616
0.809180	1.525474
0.809277	1.488614
0.809375	1.474806
0.809473	1.473062
0.809570	1.470479
0.809668	1.465355
0.809766	1.496183
0.809863	1.450345
0.809961	1.413431
0.810059	1.429046
0.810156	1.412998
0.810254	1.459411
0.810352	1.467234
0.810449	1.442382
0.810547	1.427930
0.810645	1.421944
0.810742	1.419267
0.810840	1.410318
0.810937	1.393859
0.811035	1.370300
0.811133	1.365086
0.811230	1.377066
0.811328	1.403888
0.811426	1.450848
0.811523	1.466501
0.811621	1.458062
0.811719	1.475049
0.811816	1.464909
0.811914	1.425733
0.812012	1.393203
0.812109	1.375876
0.812207	1.365051
0.812305	1.351705
0.812402	1.340481
0.812500	1.338370
0.812598	1.337515
0.812695	1.326133
0.812793	1.325101
0.812891	1.324366
0.812988	1.298362
0.813086	1.285451
0.813184	1.280973
0.813281	1.287998
0.813379	1.299789
0.813477	1.278987
0.813574	1.274467
0.813672	1.278789
0.813770	1.359816
0.813867	1.419352
0.813965	1.399026
0.814062	1.395401
0.814160	1.434748
0.814258	1.429064
0.814355	1.365442
0.814453	1.335476
0.814551	1.324206
0.814648	1.316126
0.814746	1.333934
0.814844	1.360087
0.814941	1.381748
0.815039	1.384851
0.815137	1.382702
0.815234	1.396839
0.815332	1.430812
0.815430	1.469299
0.815527	1.512469
0.815625	1.541431
0.815723	1.520309
0.815820	1.511295
0.815918	1.491398
0.816016	1.500668
0.816113	1.514561
0.816211	1.535968
0.816309	1.550019
0.816406	1.552212
0.816504	1.551462
0.816602	1.559568
0.816699	1.570518
0.816797	1.585963
0.816895	1.587489
0.816992	1.579075
0.817090	1.582452
0.817187	1.570769
0.817285	1.575923
0.817383	1.578015
0.817480	1.574087
0.817578	1.558247
0.817676	1.547825
0.817773	1.549551
0.817871	1.561363
0.817969	1.562555
0.818066	1.573704
0.818164	1.566124
0.818262	1.569139
0.818359	1.587807
0.818457	1.596084
0.818555	1.584169
0.818652	1.596636
0.818750	1.600627
0.818848	1.609886
0.818945	1.633914
0.819043	1.626714
0.819141	1.609744
0.819238	1.607274
0.819336	1.613554
0.819434	1.591986
0.819531	1.557790
0.819629	1.578164
0.819727	1.587466
0.819824	1.592294
0.819922	1.601474
0.820020	1.590582
0.820117	1.567239
0.820215	1.568465
0.820312	1.554500
0.820410	1.510706
0.820508	1.567363
0.820605	1.654910
0.820703	1.622688
0.820801	1.576471
0.820898	1.525243
0.820996	1.514961
0.821094	1.628652
0.821191	1.626890
0.821289	1.589351
0.821387	1.655110
0.821484	1.625003
0.821582	1.575056
0.821680	1.558391
0.821777	1.558480
0.821875	1.640154
0.821973	1.597682
0.822070	1.628110
0.822168	1.604619
0.822266	1.544133
0.822363	1.594604
0.822461	1.632457
0.822559	1.623850
0.822656	1.700768
0.822754	1.727780
0.822852	1.677710
0.822949	1.667975
0.823047	1.684142
0.823145	1.692100
0.823242	1.671995
0.823340	1.675751
0.823437	1.684820
0.823535	1.704940
0.823633	1.665147
0.823730	1.657886
0.823828	1.605480
0.823926	1.574231
0.824023	1.576050
0.824121	1.625631
0.824219	1.630484
0.824316	1.623591
0.824414	1.602939
0.824512	1.526796
0.824609	1.507054
0.824707	1.560405
0.824805	1.575554
0.824902	1.612942
0.825000	1.593147
0.825098	1.532886
0.825195	1.447009
0.825293	1.418168
0.825391	1.432988
0.825488	1.455588
0.825586	1.415612
0.825684	1.478010
0.825781	1.521510
0.825879	1.577536
0.825977	1.605516
0.826074	1.594614
0.826172	1.570543
0.826270	1.604327
0.826367	1.632026
0.826465	1.614520
0.826562	1.598613
0.826660	1.562714
0.826758	1.555337
0.826855	1.508269
0.826953	1.515943
0.827051	1.541480
0.827148	1.546146
0.827246	1.515323
0.827344	1.497514
0.827441	1.506899
0.827539	1.519747
0.827637	1.533161
0.827734	1.530191
0.827832	1.512195
0.827930	1.536189
0.828027	1.578289
0.828125	1.538674
0.828223	1.542033
0.828320	1.547491
0.828418	1.534347
0.828516	1.593216
0.828613	1.589330
0.828711	1.571999
0.828809	1.579792
0.828906	1.571206
0.829004	1.563932
0.829102	1.546703
0.829199	1.512225
0.829297	1.494731
0.829395	1.496490
0.829492	1.514023
0.829590	1.537494
0.829687	1.532445
0.829785	1.555754
0.829883	1.564033
0.829980	1.577717
0.830078	1.569804
0.830176	1.559043
0.830273	1.533319
0.830371	1.487803
0.830469	1.473305
0.830566	1.496424
0.830664	1.506683
0.830762	1.506166
0.830859	1.510909
0.830957	1.500330
0.831055	1.488500
0.831152	1.476984
0.831250	1.454595
0.831348	1.427921
0.831445	1.413082
0.831543	1.413639
0.831641	1.421741
0.831738	1.401912
0.831836	1.353026
0.831934	1.313095
0.832031	1.292984
0.832129	1.287604
0.832227	1.317406
0.832324	1.346863
0.832422	1.344914
0.832520	1.338138
0.832617	1.362125
0.832715	1.375654
0.832812	1.361432
0.832910	1.326640
0.833008	1.302430
0.833105	1.307675
0.833203	1.326799
0.833301	1.342278
0.833398	1.351423
0.833496	1.357906
0.833594	1.357404
0.833691	1.358003
0.833789	1.378564
0.833887	1.406517
0.833984	1.428851
0.834082	1.434600
0.834180	1.428786
0.834277	1.419541
0.834375	1.399239
0.834473	1.386858
0.834570	1.402420
0.834668	1.425356
0.834766	1.446216
0.834863	1.452871
0.834961	1.461053
0.835059	1.470258
0.835156	1.467408
0.835254	1.448356
0.835352	1.452537
0.835449	1.454257
0.835547	1.429504
0.835645	1.412517
0.835742	1.410616
0.835840	1.419961
0.835937	1.427384
0.836035	1.429632
0.836133	1.418014
0.836230	1.406394
0.836328	1.406770
0.836426	1.414148
0.836523	1.417705
0.836621	1.414299
0.836719	1.410572
0.836816	1.403698
0.836914	1.380823
0.837012	1.392996
0.837109	1.423380
0.837207	1.450939
0.837305	1.474708
0.837402	1.489919
0.837500	1.506202
0.837598	1.492478
0.837695	1.485714
0.837793	1.462682
0.837891	1.437211
0.837988	1.437633
0.838086	1.494732
0.838184	1.556179
0.838281	1.544923
0.838379	1.565519
0.838477	1.596956
0.838574	1.590354
0.838672	1.557900
0.838770	1.537876
0.838867	1.491810
0.838965	1.469474
0.839062	1.527623
0.839160	1.568763
0.839258	1.542769
0.839355	1.512158
0.839453	1.487485
0.839551	1.482794
0.839648	1.458815
0.839746	1.427579
0.839844	1.400423
0.839941	1.382185
0.840039	1.369405
0.840137	1.381809
0.840234	1.417564
0.840332	1.442396
0.840430	1.455732
0.840527	1.467970
0.840625	1.487101
0.840723	1.488929
0.840820	1.481868
0.840918	1.441979
0.841016	1.422519
0.841113	1.440494
0.841211	1.444113
0.841309	1.497162
0.841406	1.517454
0.841504	1.508475
0.841602	1.495161
0.841699	1.485309
0.841797	1.454611
0.841895	1.418480
0.841992	1.422758
0.842090	1.448502
0.842187	1.493362
0.842285	1.532914
0.842383	1.558897
0.842480	1.601743
0.842578	1.630338
0.842676	1.593222
0.842773	1.582948
0.842871	1.593305
0.842969	1.574714
0.843066	1.578841
0.843164	1.580470
0.843262	1.575856
0.843359	1.562002
0.843457	1.554792
0.843555	1.544389
0.843652	1.521511
0.843750	1.505559
0.843848	1.501506
0.843945	1.508733
0.844043	1.561029
0.844141	1.565895
0.844238	1.541138
0.844336	1.535980
0.844434	1.525090
0.844531	1.506758
0.844629	1.476477
0.844727	1.451914
0.844824	1.453697
0.844922	1.481190
0.845020	1.494214
0.845117	1.491880
0.845215	1.484077
0.845312	1.476554
0.845410	1.468627
0.845508	1.459028
0.845605	1.454920
0.845703	1.430025
0.845801	1.366801
0.845898	1.334213
0.845996	1.459560
0.846094	1.465006
0.846191	1.459311
0.846289	1.500974
0.846387	1.507288
0.846484	1.506563
0.846582	1.517975
0.846680	1.538347
0.846777	1.542772
0.846875	1.543059
0.846973	1.523939
0.847070	1.516902
0.847168	1.514697
0.847266	1.504967
0.847363	1.488828
0.847461	1.483849
0.847559	1.487063
0.847656	1.502257
0.847754	1.506161
0.847852	1.514905
0.847949	1.517997
0.848047	1.530282
0.848145	1.500397
0.848242	1.510760
0.848340	1.502326
0.848437	1.509722
0.848535	1.519517
0.848633	1.462786
0.848730	1.440801
0.848828	1.451641
0.848926	1.458988
0.849023	1.445248
0.849121	1.427025
0.849219	1.408549
0.849316	1.413151
0.849414	1.429308
0.849512	1.435569
0.849609	1.423532
0.849707	1.424344
0.849805	1.414468
0.849902	1.394903
0.850000	1.379828
0.850098	1.355320
0.850195	1.325331
0.850293	1.301046
0.850391	1.290093
0.850488	1.302354
0.850586	1.349050
0.850684	1.402128
0.850781	1.435384
0.850879	1.422356
0.850977	1.413991
0.851074	1.406590
0.851172	1.428036
0.851270	1.444243
0.851367	1.439653
0.851465	1.435902
0.851562	1.471469
0.851660	1.513045
0.851758	1.499430
0.851855	1.460847
0.851953	1.469861
0.852051	1.530347
0.852148	1.544791
0.852246	1.528853
0.852344	1.517868
0.852441	1.507215
0.852539	1.497516
0.852637	1.480429
0.852734	1.480939
0.852832	1.429027
0.852930	1.458853
0.853027	1.481684
0.853125	1.449407
0.853223	1.456475
0.853320	1.412334
0.853418	1.387151
0.853516	1.367053
0.853613	1.382241
0.853711	1.428645
0.853809	1.472620
0.853906	1.485672
0.854004	1.493637
0.854102	1.491195
0.854199	1.489124
0.854297	1.478865
0.854395	1.472647
0.854492	1.455753
0.854590	1.443671
0.854687	1.428057
0.854785	1.414564
0.854883	1.422282
0.854980	1.427785
0.855078	1.417139
0.855176	1.449108
0.855273	1.477314
0.855371	1.444055
0.855469	1.419757
0.855566	1.446760
0.855664	1.443340
0.855762	1.421999
0.855859	1.390136
0.855957	1.381862
0.856055	1.372784
0.856152	1.382965
0.856250	1.436712
0.856348	1.499540
0.856445	1.505762
0.856543	1.448347
0.856641	1.455178
0.856738	1.498579
0.856836	1.502537
0.856934	1.517072
0.857031	1.511295
0.857129	1.482508
0.857227	1.447192
0.857324	1.485370
0.857422	1.527681
0.857520	1.542398
0.857617	1.533171
0.857715	1.542000
0.857812	1.525278
0.857910	1.532687
0.858008	1.518440
0.858105	1.517161
0.858203	1.543603
0.858301	1.531060
0.858398	1.506526
0.858496	1.503092
0.858594	1.535127
0.858691	1.490175
0.858789	1.447602
0.858887	1.432899
0.858984	1.451492
0.859082	1.464206
0.859180	1.459403
0.859277	1.456088
0.859375	1.457859
0.859473	1.466066
0.859570	1.475761
0.859668	1.476163
0.859766	1.477552
0.859863	1.472530
0.859961	1.455930
0.860059	1.430933
0.860156	1.400135
0.860254	1.375987
0.860352	1.366441
0.860449	1.352602
0.860547	1.339049
0.860645	1.343719
0.860742	1.355790
0.860840	1.370117
0.860937	1.378890
0.861035	1.376234
0.861133	1.359021
0.861230	1.336005
0.861328	1.313729
0.861426	1.294670
0.861523	1.277805
0.861621	1.263434
0.861719	1.254589
0.861816	1.256952
0.861914	1.267885
0.862012	1.277513
0.862109	1.285955
0.862207	1.311653
0.862305	1.361737
0.862402	1.403212
0.862500	1.371630
0.862598	1.309574
0.862695	1.281767
0.862793	1.265105
0.862891	1.252769
0.862988	1.295907
0.863086	1.354431
0.863184	1.377498
0.863281	1.375023
0.863379	1.352585
0.863477	1.340742
0.863574	1.351068
0.863672	1.366458
0.863770	1.372795
0.863867	1.378224
0.863965	1.381127
0.864062	1.392772
0.864160	1.405930
0.864258	1.404916
0.864355	1.404320
0.864453	1.423012
0.864551	1.429025
0.864648	1.416898
0.864746	1.398407
0.864844	1.383411
0.864941	1.366812
0.865039	1.368391
0.865137	1.382609
0.865234	1.401121
0.865332	1.418136
0.865430	1.425051
0.865527	1.417711
0.865625	1.398015
0.865723	1.384955
0.865820	1.375959
0.865918	1.361712
0.866016	1.348843
0.866113	1.325726
0.866211	1.297085
0.866309	1.272491
0.866406	1.255367
0.866504	1.244663
0.866602	1.242461
0.866699	1.247672
0.866797	1.257109
0.866895	1.265940
0.866992	1.273136
0.867090	1.286381
0.867187	1.308365
0.867285	1.332093
0.867383	1.347782
0.867480	1.353818
0.867578	1.356634
0.867676	1.356327
0.867773	1.350565
0.867871	1.343242
0.867969	1.339641
0.868066	1.332129
0.868164	1.312086
0.868262	1.291225
0.868359	1.279863
0.868457	1.308169
0.868555	1.364854
0.868652	1.400841
0.868750	1.402627
0.868848	1.384690
0.868945	1.367792
0.869043	1.360481
0.869141	1.373545
0.869238	1.417362
0.869336	1.457302
0.869434	1.463015
0.869531	1.457569
0.869629	1.448636
0.869727	1.416840
0.869824	1.389427
0.869922	1.381108
0.870020	1.381947
0.870117	1.399361
0.870215	1.427220
0.870312	1.430125
0.870410	1.429459
0.870508	1.418541
0.870605	1.394526
0.870703	1.380111
0.870801	1.424120
0.870898	1.480001
0.870996	1.516281
0.871094	1.535140
0.871191	1.505367
0.871289	1.469231
0.871387	1.447632
0.871484	1.444175
0.871582	1.454260
0.871680	1.446966
0.871777	1.428468
0.871875	1.398152
0.871973	1.370733
0.872070	1.359612
0.872168	1.358811
0.872266	1.353697
0.872363	1.355819
0.872461	1.387367
0.872559	1.450685
0.872656	1.501783
0.872754	1.512098
0.872852	1.515207
0.872949	1.524585
0.873047	1.547768
0.873145	1.565355
0.873242	1.596805
0.873340	1.607592
0.873437	1.596071
0.873535	1.580876
0.873633	1.526142
0.873730	1.478601
0.873828	1.510943
0.873926	1.548629
0.874023	1.546603
0.874121	1.541531
0.874219	1.545295
0.874316	1.514930
0.874414	1.492187
0.874512	1.494458
0.874609	1.478012
0.874707	1.469817
0.874805	1.446130
0.874902	1.443356
0.875000	1.457466
0.875098	1.484252
0.875195	1.499424
0.875293	1.512975
0.875391	1.521275
0.875488	1.527527
0.875586	1.521743
0.875684	1.525739
0.875781	1.535677
0.875879	1.523947
0.875977	1.517838
0.876074	1.503493
0.876172	1.466040
0.876270	1.410461
0.876367	1.351395
0.876465	1.320004
0.876562	1.342746
0.876660	1.383403
0.876758	1.416509
0.876855	1.441749
0.876953	1.439885
0.877051	1.420957
0.877148	1.399422
0.877246	1.386198
0.877344	1.377655
0.877441	1.370150
0.877539	1.364943
0.877637	1.420872
0.877734	1.466350
0.877832	1.466204
0.877930	1.455938
0.878027	1.437319
0.878125	1.427372
0.878223	1.450512
0.878320	1.463918
0.878418	1.462426
0.878516	1.461681
0.878613	1.442234
0.878711	1.413886
0.878809	1.374416
0.878906	1.334297
0.879004	1.311459
0.879102	1.291527
0.879199	1.278495
0.879297	1.276185
0.879395	1.300748
0.879492	1.329561
0.879590	1.348464
0.879687	1.383066
0.879785	1.420829
0.879883	1.435706
0.879980	1.409346
0.880078	1.385823
0.880176	1.383922
0.880273	1.432831
0.880371	1.472329
0.880469	1.488700
0.880566	1.505056
0.880664	1.503206
0.880762	1.492675
0.880859	1.476618
0.880957	1.487877
0.881055	1.508318
0.881152	1.498729
0.881250	1.477289
0.881348	1.469972
0.881445	1.475589
0.881543	1.475408
0.881641	1.469363
0.881738	1.463801
0.881836	1.464519
0.881934	1.481909
0.882031	1.489260
0.882129	1.474011
0.882227	1.454629
0.882324	1.454312
0.882422	1.450325
0.882520	1.459429
0.882617	1.471982
0.882715	1.462576
0.882812	1.457961
0.882910	1.477216
0.883008	1.489951
0.883105	1.483586
0.883203	1.476004
0.883301	1.475290
0.883398	1.481891
0.883496	1.507583
0.883594	1.512015
0.883691	1.484952
0.883789	1.487197
0.883887	1.500944
0.883984	1.516068
0.884082	1.518180
0.884180	1.529179
0.884277	1.534491
0.884375	1.524201
0.884473	1.505784
0.884570	1.507009
0.884668	1.528777
0.884766	1.547058
0.884863	1.520417
0.884961	1.485483
0.885059	1.507827
0.885156	1.554723
0.885254	1.559031
0.885352	1.616269
0.885449	1.662908
0.885547	1.647075
0.885645	1.657177
0.885742	1.660897
0.885840	1.646911
0.885937	1.610747
0.886035	1.620449
0.886133	1.638748
0.886230	1.608450
0.886328	1.537342
0.886426	1.494934
0.886523	1.475210
0.886621	1.479711
0.886719	1.494192
0.886816	1.474429
0.886914	1.508381
0.887012	1.564941
0.887109	1.562996
0.887207	1.566590
0.887305	1.539382
0.887402	1.523881
0.887500	1.581064
0.887598	1.600483
0.887695	1.583278
0.887793	1.580174
0.887891	1.575702
0.887988	1.590786
0.888086	1.584189
0.888184	1.562542
0.888281	1.540920
0.888379	1.532387
0.888477	1.529419
0.888574	1.536514
0.888672	1.551341
0.888770	1.548349
0.888867	1.539109
0.888965	1.531917
0.889062	1.538948
0.889160	1.530977
0.889258	1.502840
0.889355	1.498179
0.889453	1.506691
0.889551	1.495030
0.889648	1.456896
0.889746	1.433884
0.889844	1.438216
0.889941	1.460861
0.890039	1.481065
0.890137	1.485071
0.890234	1.473687
0.890332	1.455452
0.890430	1.447491
0.890527	1.452321
0.890625	1.473156
0.890723	1.470846
0.890820	1.463298
0.890918	1.456661
0.891016	1.447145
0.891113	1.445135
0.891211	1.436965
0.891309	1.422512
0.891406	1.430395
0.891504	1.433535
0.891602	1.445237
0.891699	1.453534
0.891797	1.463972
0.891895	1.469274
0.891992	1.464413
0.892090	1.454004
0.892187	1.443717
0.892285	1.431454
0.892383	1.421962
0.892480	1.420260
0.892578	1.433801
0.892676	1.443349
0.892773	1.453005
0.892871	1.481183
0.892969	1.499838
0.893066	1.527611
0.893164	1.542797
0.893262	1.541654
0.893359	1.540904
0.893457	1.529260
0.893555	1.524240
0.893652	1.528704
0.893750	1.526922
0.893848	1.515325
0.893945	1.513355
0.894043	1.516577
0.894141	1.509626
0.894238	1.504749
0.894336	1.499512
0.894434	1.495486
0.894531	1.495842
0.894629	1.494183
0.894727	1.488922
0.894824	1.481466
0.894922	1.471769
0.895020	1.472998
0.895117	1.479894
0.895215	1.486494
0.895312	1.485028
0.895410	1.475141
0.895508	1.465805
0.895605	1.461068
0.895703	1.462065
0.895801	1.468298
0.895898	1.487946
0.895996	1.513648
0.896094	1.519888
0.896191	1.509251
0.896289	1.512211
0.896387	1.511641
0.896484	1.496222
0.896582	1.490578
0.896680	1.507203
0.896777	1.511808
0.896875	1.509997
0.896973	1.502379
0.897070	1.495843
0.897168	1.485929
0.897266	1.479922
0.897363	1.468361
0.897461	1.459263
0.897559	1.485884
0.897656	1.515934
0.897754	1.510258
0.897852	1.499975
0.897949	1.480127
0.898047	1.456846
0.898145	1.446072
0.898242	1.436880
0.898340	1.439288
0.898437	1.436861
0.898535	1.433565
0.898633	1.433870
0.898730	1.450100
0.898828	1.461645
0.898926	1.462720
0.899023	1.483093
0.899121	1.488493
0.899219	1.508329
0.899316	1.536966
0.899414	1.548978
0.899512	1.577814
0.899609	1.572912
0.899707	1.553256
0.899805	1.559019
0.899902	1.579870
0.900000	1.591657
0.900098	1.544051
0.900195	1.525596
0.900293	1.559024
0.900391	1.554650
0.900488	1.547246
0.900586	1.533829
0.900684	1.501375
0.900781	1.481073
0.900879	1.519604
0.900977	1.564438
0.901074	1.593493
0.901172	1.571582
0.901270	1.509986
0.901367	1.533255
0.901465	1.553731
0.901562	1.585128
0.901660	1.552201
0.901758	1.536038
0.901855	1.557960
0.901953	1.512150
0.902051	1.492499
0.902148	1.484971
0.902246	1.482930
0.902344	1.488241
0.902441	1.513878
0.902539	1.564885
0.902637	1.569423
0.902734	1.554784
0.902832	1.551426
0.902930	1.538301
0.903027	1.559210
0.903125	1.539468
0.903223	1.570788
0.903320	1.616994
0.903418	1.599548
0.903516	1.622817
0.903613	1.583642
0.903711	1.596130
0.903809	1.573895
0.903906	1.571242
0.904004	1.625468
0.904102	1.618159
0.904199	1.620042
0.904297	1.625712
0.904395	1.614931
0.904492	1.617452
0.904590	1.626512
0.904687	1.609993
0.904785	1.578373
0.904883	1.549607
0.904980	1.555471
0.905078	1.534838
0.905176	1.522763
0.905273	1.574600
0.905371	1.584557
0.905469	1.553457
0.905566	1.517923
0.905664	1.510886
0.905762	1.510864
0.905859	1.515581
0.905957	1.526778
0.906055	1.529883
0.906152	1.520786
0.906250	1.500342
0.906348	1.505445
0.906445	1.514506
0.906543	1.519341
0.906641	1.546684
0.906738	1.549400
0.906836	1.561977
0.906934	1.564683
0.907031	1.562061
0.907129	1.577111
0.907227	1.596063
0.907324	1.578039
0.907422	1.527545
0.907520	1.523989
0.907617	1.524904
0.907715	1.536465
0.907812	1.534779
0.907910	1.523936
0.908008	1.511887
0.908105	1.503848
0.908203	1.483978
0.908301	1.469940
0.908398	1.464992
0.908496	1.454250
0.908594	1.449705
0.908691	1.448093
0.908789	1.453532
0.908887	1.466204
0.908984	1.476337
0.909082	1.475050
0.909180	1.475019
0.909277	1.466929
0.909375	1.463079
0.909473	1.465176
0.909570	1.472552
0.909668	1.484883
0.909766	1.489336
0.909863	1.477605
0.909961	1.460455
0.910059	1.443896
0.910156	1.428947
0.910254	1.412825
0.910352	1.399116
0.910449	1.391280
0.910547	1.389061
0.910645	1.384699
0.910742	1.372070
0.910840	1.371516
0.910937	1.391542
0.911035	1.397666
0.911133	1.392295
0.911230	1.382202
0.911328	1.363290
0.911426	1.347554
0.911523	1.341726
0.911621	1.338992
0.911719	1.341829
0.911816	1.352547
0.911914	1.361314
0.912012	1.364419
0.912109	1.363576
0.912207	1.361444
0.912305	1.361186
0.912402	1.362210
0.912500	1.364169
0.912598	1.369613
0.912695	1.376269
0.912793	1.379139
0.912891	1.380612
0.912988	1.384682
0.913086	1.390772
0.913184	1.397769
0.913281	1.405294
0.913379	1.409755
0.913477	1.412622
0.913574	1.416331
0.913672	1.422818
0.913770	1.425550
0.913867	1.423519
0.913965	1.417484
0.914062	1.408960
0.914160	1.406474
0.914258	1.411496
0.914355	1.418527
0.914453	1.437984
0.914551	1.457012
0.914648	1.466300
0.914746	1.474841
0.914844	1.475445
0.914941	1.466321
0.915039	1.450170
0.915137	1.429176
0.915234	1.412271
0.915332	1.396035
0.915430	1.392755
0.915527	1.397712
0.915625	1.396474
0.915723	1.396249
0.915820	1.403110
0.915918	1.402468
0.916016	1.422827
0.916113	1.451483
0.916211	1.444661
0.916309	1.445254
0.916406	1.478254
0.916504	1.490842
0.916602	1.493051
0.916699	1.488713
0.916797	1.471455
0.916895	1.476031
0.916992	1.483297
0.917090	1.450818
0.917187	1.426223
0.917285	1.419758
0.917383	1.425371
0.917480	1.433347
0.917578	1.424576
0.917676	1.426663
0.917773	1.437721
0.917871	1.461288
0.917969	1.500889
0.918066	1.504262
0.918164	1.510772
0.918262	1.510313
0.918359	1.506896
0.918457	1.506284
0.918555	1.494428
0.918652	1.485624
0.918750	1.480484
0.918848	1.478740
0.918945	1.486500
0.919043	1.489589
0.919141	1.487524
0.919238	1.481505
0.919336	1.486469
0.919434	1.480218
0.919531	1.464222
0.919629	1.450796
0.919727	1.437363
0.919824	1.419465
0.919922	1.410845
0.920020	1.425297
0.920117	1.437406
0.920215	1.430898
0.920312	1.420076
0.920410	1.408656
0.920508	1.403553
0.920605	1.415566
0.920703	1.428480
0.920801	1.430256
0.920898	1.422647
0.920996	1.417390
0.921094	1.407939
0.921191	1.383183
0.921289	1.357258
0.921387	1.331364
0.921484	1.304627
0.921582	1.280575
0.921680	1.272062
0.921777	1.305681
0.921875	1.368983
0.921973	1.397671
0.922070	1.399210
0.922168	1.412715
0.922266	1.441369
0.922363	1.454242
0.922461	1.454227
0.922559	1.451025
0.922656	1.445344
0.922754	1.441112
0.922852	1.424552
0.922949	1.389784
0.923047	1.395233
0.923145	1.435886
0.923242	1.453619
0.923340	1.461050
0.923437	1.455865
0.923535	1.453102
0.923633	1.436473
0.923730	1.451244
0.923828	1.442052
0.923926	1.425016
0.924023	1.435143
0.924121	1.437381
0.924219	1.442327
0.924316	1.442432
0.924414	1.432245
0.924512	1.409436
0.924609	1.393350
0.924707	1.388577
0.924805	1.391522
0.924902	1.393771
0.925000	1.397299
0.925098	1.410577
0.925195	1.427647
0.925293	1.434031
0.925391	1.433533
0.925488	1.427223
0.925586	1.418302
0.925684	1.411532
0.925781	1.408197
0.925879	1.401796
0.925977	1.395880
0.926074	1.404535
0.926172	1.437022
0.926270	1.468836
0.926367	1.463785
0.926465	1.454622
0.926562	1.471831
0.926660	1.471752
0.926758	1.494992
0.926855	1.491483
0.926953	1.467629
0.927051	1.487844
0.927148	1.507954
0.927246	1.506621
0.927344	1.522292
0.927441	1.541299
0.927539	1.540484
0.927637	1.510675
0.927734	1.461060
0.927832	1.431466
0.927930	1.454117
0.928027	1.499017
0.928125	1.523168
0.928223	1.536000
0.928320	1.534182
0.928418	1.534507
0.928516	1.519864
0.928613	1.490720
0.928711	1.486709
0.928809	1.513830
0.928906	1.536123
0.929004	1.543742
0.929102	1.541662
0.929199	1.511173
0.929297	1.468961
0.929395	1.437714
0.929492	1.395265
0.929590	1.353282
0.929687	1.353715
0.929785	1.418342
0.929883	1.445310
0.929980	1.483686
0.930078	1.465203
0.930176	1.528103
0.930273	1.566330
0.930371	1.563681
0.930469	1.581604
0.930566	1.559938
0.930664	1.532925
0.930762	1.487848
0.930859	1.484461
0.930957	1.487072
0.931055	1.455485
0.931152	1.401362
0.931250	1.358756
0.931348	1.328711
0.931445	1.306834
0.931543	1.296134
0.931641	1.300879
0.931738	1.305125
0.931836	1.335180
0.931934	1.371026
0.932031	1.414560
0.932129	1.431002
0.932227	1.420257
0.932324	1.435636
0.932422	1.435202
0.932520	1.411510
0.932617	1.386786
0.932715	1.369959
0.932812	1.366299
0.932910	1.359775
0.933008	1.371200
0.933105	1.354498
0.933203	1.339452
0.933301	1.355796
0.933398	1.414953
0.933496	1.484317
0.933594	1.496718
0.933691	1.469258
0.933789	1.499939
0.933887	1.509378
0.933984	1.512242
0.934082	1.538992
0.934180	1.555944
0.934277	1.562311
0.934375	1.545908
0.934473	1.539956
0.934570	1.591443
0.934668	1.607596
0.934766	1.578338
0.934863	1.564549
0.934961	1.602688
0.935059	1.596153
0.935156	1.567501
0.935254	1.559131
0.935352	1.544033
0.935449	1.562467
0.935547	1.550301
0.935645	1.616554
0.935742	1.618912
0.935840	1.574710
0.935937	1.568452
0.936035	1.537073
0.936133	1.512896
0.936230	1.530907
0.936328	1.546979
0.936426	1.544853
0.936523	1.525809
0.936621	1.535984
0.936719	1.538982
0.936816	1.548506
0.936914	1.564266
0.937012	1.582412
0.937109	1.576398
0.937207	1.609988
0.937305	1.624451
0.937402	1.576020
0.937500	1.540747
0.937598	1.518881
0.937695	1.522717
0.937793	1.525325
0.937891	1.489052
0.937988	1.486607
0.938086	1.540956
0.938184	1.569013
0.938281	1.541320
0.938379	1.567717
0.938477	1.559972
0.938574	1.581677
0.938672	1.574996
0.938770	1.540666
0.938867	1.518778
0.938965	1.528750
0.939062	1.572716
0.939160	1.588372
0.939258	1.571321
0.939355	1.530230
0.939453	1.511140
0.939551	1.499418
0.939648	1.490323
0.939746	1.500917
0.939844	1.496326
0.939941	1.514070
0.940039	1.530553
0.940137	1.527647
0.940234	1.514745
0.940332	1.523503
0.940430	1.521801
0.940527	1.505611
0.940625	1.504065
0.940723	1.498015
0.940820	1.480221
0.940918	1.470784
0.941016	1.484963
0.941113	1.480486
0.941211	1.499296
0.941309	1.519271
0.941406	1.519661
0.941504	1.512566
0.941602	1.497157
0.941699	1.486648
0.941797	1.494594
0.941895	1.497421
0.941992	1.478380
0.942090	1.430070
0.942187	1.408785
0.942285	1.406647
0.942383	1.381139
0.942480	1.353824
0.942578	1.333073
0.942676	1.334207
0.942773	1.355426
0.942871	1.361679
0.942969	1.349005
0.943066	1.345926
0.943164	1.339387
0.943262	1.341720
0.943359	1.360695
0.943457	1.397277
0.943555	1.426514
0.943652	1.434293
0.943750	1.434016
0.943848	1.435201
0.943945	1.451104
0.944043	1.479293
0.944141	1.505056
0.944238	1.509748
0.944336	1.487501
0.944434	1.478242
0.944531	1.474528
0.944629	1.476279
0.944727	1.485898
0.944824	1.492524
0.944922	1.515268
0.945020	1.535105
0.945117	1.525020
0.945215	1.519861
0.945312	1.541109
0.945410	1.555955
0.945508	1.569672
0.945605	1.581203
0.945703	1.593892
0.945801	1.603529
0.945898	1.613448
0.945996	1.621487
0.946094	1.637471
0.946191	1.644292
0.946289	1.645672
0.946387	1.644599
0.946484	1.651067
0.946582	1.639553
0.946680	1.626553
0.946777	1.598973
0.946875	1.559451
0.946973	1.565999
0.947070	1.535801
0.947168	1.512433
0.947266	1.532304
0.947363	1.567426
0.947461	1.548414
0.947559	1.546650
0.947656	1.535496
0.947754	1.505287
0.947852	1.487634
0.947949	1.486407
0.948047	1.475033
0.948145	1.461547
0.948242	1.464576
0.948340	1.441301
0.948437	1.416038
0.948535	1.406844
0.948633	1.419480
0.948730	1.399352
0.948828	1.385108
0.948926	1.379323
0.949023	1.365497
0.949121	1.351030
0.949219	1.359064
0.949316	1.385313
0.949414	1.424418
0.949512	1.452741
0.949609	1.447170
0.949707	1.429078
0.949805	1.435281
0.949902	1.446450
0.950000	1.445756
0.950098	1.449613
0.950195	1.423572
0.950293	1.418743
0.950391	1.420906
0.950488	1.433660
0.950586	1.411289
0.950684	1.381551
0.950781	1.351651
0.950879	1.336829
0.950977	1.324807
0.951074	1.384756
0.951172	1.439832
0.951270	1.448264
0.951367	1.427641
0.951465	1.415522
0.951562	1.385192
0.951660	1.330921
0.951758	1.293918
0.951855	1.297119
0.951953	1.349882
0.952051	1.386453
0.952148	1.410850
0.952246	1.412594
0.952344	1.384117
0.952441	1.357868
0.952539	1.371795
0.952637	1.354703
0.952734	1.373388
0.952832	1.444394
0.952930	1.444573
0.953027	1.425657
0.953125	1.420873
0.953223	1.454829
0.953320	1.475628
0.953418	1.456724
0.953516	1.468588
0.953613	1.498268
0.953711	1.482445
0.953809	1.487325
0.953906	1.498852
0.954004	1.537209
0.954102	1.520646
0.954199	1.506352
0.954297	1.501827
0.954395	1.478549
0.954492	1.456439
0.954590	1.459131
0.954687	1.481474
0.954785	1.492879
0.954883	1.508095
0.954980	1.504345
0.955078	1.498184
0.955176	1.498777
0.955273	1.495398
0.955371	1.488836
0.955469	1.488221
0.955566	1.483679
0.955664	1.468002
0.955762	1.451436
0.955859	1.427387
0.955957	1.410639
0.956055	1.410685
0.956152	1.405578
0.956250	1.381716
0.956348	1.334546
0.956445	1.293196
0.956543	1.306453
0.956641	1.347776
0.956738	1.358796
0.956836	1.355010
0.956934	1.331816
0.957031	1.305864
0.957129	1.292370
0.957227	1.286268
0.957324	1.275636
0.957422	1.291495
0.957520	1.356574
0.957617	1.422657
0.957715	1.476985
0.957812	1.500073
0.957910	1.513388
0.958008	1.499530
0.958105	1.465839
0.958203	1.394645
0.958301	1.371799
0.958398	1.407106
0.958496	1.403627
0.958594	1.380498
0.958691	1.388477
0.958789	1.422414
0.958887	1.449782
0.958984	1.470819
0.959082	1.484868
0.959180	1.478949
0.959277	1.399487
0.959375	1.385544
0.959473	1.386836
0.959570	1.352125
0.959668	1.333973
0.959766	1.331876
0.959863	1.368155
0.959961	1.481087
0.960059	1.530319
0.960156	1.514461
0.960254	1.479762
0.960352	1.465204
0.960449	1.476220
0.960547	1.416590
0.960645	1.342145
0.960742	1.380684
0.960840	1.438864
0.960937	1.468873
0.961035	1.491681
0.961133	1.465757
0.961230	1.467423
0.961328	1.481849
0.961426	1.484968
0.961523	1.493628
0.961621	1.502738
0.961719	1.464637
0.961816	1.453061
0.961914	1.442274
0.962012	1.430066
0.962109	1.493097
0.962207	1.490646
0.962305	1.524393
0.962402	1.583067
0.962500	1.571315
0.962598	1.481181
0.962695	1.457559
0.962793	1.451172
0.962891	1.441623
0.962988	1.502331
0.963086	1.579507
0.963184	1.579412
0.963281	1.520249
0.963379	1.544623
0.963477	1.533377
0.963574	1.527535
0.963672	1.537984
0.963770	1.548139
0.963867	1.548658
0.963965	1.520685
0.964062	1.473090
0.964160	1.441281
0.964258	1.553501
0.964355	1.577253
0.964453	1.591503
0.964551	1.585450
0.964648	1.606563
0.964746	1.582233
0.964844	1.532077
0.964941	1.528706
0.965039	1.575561
0.965137	1.596783
0.965234	1.530759
0.965332	1.492468
0.965430	1.482494
0.965527	1.509959
0.965625	1.524364
0.965723	1.529878
0.965820	1.559093
0.965918	1.571715
0.966016	1.539403
0.966113	1.519263
0.966211	1.487472
0.966309	1.451589
0.966406	1.427491
0.966504	1.429751
0.966602	1.474941
0.966699	1.494064
0.966797	1.515573
0.966895	1.524379
0.966992	1.545050
0.967090	1.543029
0.967187	1.513685
0.967285	1.516088
0.967383	1.499150
0.967480	1.490065
0.967578	1.497420
0.967676	1.427162
0.967773	1.381704
0.967871	1.406907
0.967969	1.416831
0.968066	1.441242
0.968164	1.474232
0.968262	1.464020
0.968359	1.457719
0.968457	1.494863
0.968555	1.522847
0.968652	1.493865
0.968750	1.450033
0.968848	1.426318
0.968945	1.433912
0.969043	1.444675
0.969141	1.453214
0.969238	1.468914
0.969336	1.475507
0.969434	1.493227
0.969531	1.509687
0.969629	1.509278
0.969727	1.487080
0.969824	1.473909
0.969922	1.477692
0.970020	1.475002
0.970117	1.449329
0.970215	1.457210
0.970312	1.498409
0.970410	1.502105
0.970508	1.493254
0.970605	1.465769
0.970703	1.439224
0.970801	1.432544
0.970898	1.405891
0.970996	1.409611
0.971094	1.432666
0.971191	1.422158
0.971289	1.396439
0.971387	1.396189
0.971484	1.416538
0.971582	1.458560
0.971680	1.468385
0.971777	1.464620
0.971875	1.468662
0.971973	1.462418
0.972070	1.467017
0.972168	1.537491
0.972266	1.565467
0.972363	1.568675
0.972461	1.587396
0.972559	1.586333
0.972656	1.576255
0.972754	1.561588
0.972852	1.532452
0.972949	1.506143
0.973047	1.491366
0.973145	1.477919
0.973242	1.453208
0.973340	1.524727
0.973437	1.596796
0.973535	1.588688
0.973633	1.591821
0.973730	1.564584
0.973828	1.546396
0.973926	1.522968
0.974023	1.532658
0.974121	1.523280
0.974219	1.475092
0.974316	1.472886
0.974414	1.501964
0.974512	1.515875
0.974609	1.552089
0.974707	1.525452
0.974805	1.567576
0.974902	1.612502
0.975000	1.623230
0.975098	1.609465
0.975195	1.601126
0.975293	1.527643
0.975391	1.517995
0.975488	1.509531
0.975586	1.504154
0.975684	1.512929
0.975781	1.513422
0.975879	1.553152
0.975977	1.556885
0.976074	1.572770
0.976172	1.581086
0.976270	1.571411
0.976367	1.567060
0.976465	1.552049

