LabVIEW Measurement	
Writer_Version	2
Reader_Version	2
Separator	Tab
Decimal_Separator	.
Multi_Headings	Yes
X_Columns	One
Time_Pref	Absolute
Operator	W-Tunnel
Date	1904/01/01
Time	01:00:00
***End_of_Header***	
	
Channels	1	
Samples	10000	
Date	2024/05/17	
Time	18:19:47.9600002562495153207	
Y_Unit_Label	Volts	
X_Dimension	Time	
X0	0.0000000000000000E+0	
Delta_X	9.765625E-5	
***End_of_Header***		
X_Value	Voltage	Comment
0.000000	1.596457
9.765625E-5	1.591803
0.000195	1.546403
0.000293	1.547305
0.000391	1.603849
0.000488	1.634361
0.000586	1.623660
0.000684	1.623776
0.000781	1.624116
0.000879	1.624782
0.000977	1.624018
0.001074	1.623231
0.001172	1.622078
0.001270	1.619865
0.001367	1.617161
0.001465	1.609357
0.001562	1.595375
0.001660	1.562729
0.001758	1.525107
0.001855	1.547346
0.001953	1.558214
0.002051	1.572129
0.002148	1.590893
0.002246	1.590824
0.002344	1.586340
0.002441	1.559589
0.002539	1.503865
0.002637	1.543408
0.002734	1.571663
0.002832	1.577069
0.002930	1.591569
0.003027	1.606554
0.003125	1.615391
0.003223	1.617569
0.003320	1.617753
0.003418	1.619646
0.003516	1.619679
0.003613	1.620565
0.003711	1.617412
0.003809	1.613932
0.003906	1.576891
0.004004	1.542584
0.004102	1.584408
0.004199	1.608982
0.004297	1.596862
0.004395	1.592517
0.004492	1.591552
0.004590	1.588208
0.004687	1.578154
0.004785	1.558710
0.004883	1.517677
0.004980	1.490153
0.005078	1.530869
0.005176	1.550312
0.005273	1.557642
0.005371	1.565314
0.005469	1.600809
0.005566	1.613964
0.005664	1.617496
0.005762	1.620968
0.005859	1.624147
0.005957	1.627521
0.006055	1.633529
0.006152	1.643563
0.006250	1.651859
0.006348	1.633192
0.006445	1.616610
0.006543	1.601332
0.006641	1.587549
0.006738	1.605987
0.006836	1.609346
0.006934	1.606058
0.007031	1.598013
0.007129	1.586007
0.007227	1.564960
0.007324	1.544316
0.007422	1.584312
0.007520	1.599842
0.007617	1.603502
0.007715	1.615763
0.007812	1.615222
0.007910	1.619992
0.008008	1.617977
0.008105	1.620066
0.008203	1.617232
0.008301	1.618600
0.008398	1.613711
0.008496	1.612927
0.008594	1.601897
0.008691	1.599734
0.008789	1.575402
0.008887	1.552768
0.008984	1.567468
0.009082	1.592263
0.009180	1.606677
0.009277	1.596400
0.009375	1.594924
0.009473	1.578558
0.009570	1.561249
0.009668	1.537362
0.009766	1.522660
0.009863	1.530665
0.009961	1.566034
0.010059	1.601071
0.010156	1.615028
0.010254	1.616226
0.010352	1.617418
0.010449	1.615619
0.010547	1.618025
0.010645	1.616563
0.010742	1.618168
0.010840	1.614591
0.010937	1.616727
0.011035	1.594994
0.011133	1.577192
0.011230	1.612493
0.011328	1.606305
0.011426	1.587726
0.011523	1.575969
0.011621	1.552251
0.011719	1.551434
0.011816	1.562105
0.011914	1.549075
0.012012	1.533635
0.012109	1.529645
0.012207	1.553795
0.012305	1.573599
0.012402	1.585123
0.012500	1.598759
0.012598	1.608397
0.012695	1.612519
0.012793	1.615653
0.012891	1.616300
0.012988	1.617985
0.013086	1.617364
0.013184	1.618853
0.013281	1.614499
0.013379	1.603304
0.013477	1.559224
0.013574	1.573360
0.013672	1.611983
0.013770	1.620681
0.013867	1.627313
0.013965	1.622923
0.014062	1.620522
0.014160	1.612582
0.014258	1.609557
0.014355	1.593115
0.014453	1.571991
0.014551	1.583426
0.014648	1.610564
0.014746	1.634285
0.014844	1.615901
0.014941	1.618953
0.015039	1.626805
0.015137	1.624249
0.015234	1.623860
0.015332	1.621974
0.015430	1.622989
0.015527	1.622088
0.015625	1.623599
0.015723	1.621816
0.015820	1.622260
0.015918	1.612006
0.016016	1.610433
0.016113	1.591667
0.016211	1.569977
0.016309	1.571993
0.016406	1.595066
0.016504	1.594388
0.016602	1.582958
0.016699	1.562142
0.016797	1.531350
0.016895	1.523548
0.016992	1.525027
0.017090	1.538595
0.017187	1.561680
0.017285	1.580981
0.017383	1.598433
0.017480	1.609522
0.017578	1.614564
0.017676	1.617257
0.017773	1.619663
0.017871	1.621071
0.017969	1.623622
0.018066	1.623630
0.018164	1.627204
0.018262	1.610559
0.018359	1.590019
0.018457	1.591444
0.018555	1.593768
0.018652	1.626741
0.018750	1.630996
0.018848	1.609632
0.018945	1.582653
0.019043	1.567190
0.019141	1.553611
0.019238	1.528311
0.019336	1.523932
0.019434	1.544912
0.019531	1.544809
0.019629	1.528775
0.019727	1.558458
0.019824	1.581933
0.019922	1.597455
0.020020	1.606645
0.020117	1.612999
0.020215	1.617846
0.020312	1.622033
0.020410	1.626743
0.020508	1.630878
0.020605	1.622190
0.020703	1.604823
0.020801	1.580664
0.020898	1.577155
0.020996	1.593839
0.021094	1.601390
0.021191	1.607049
0.021289	1.611066
0.021387	1.606617
0.021484	1.564146
0.021582	1.515352
0.021680	1.567808
0.021777	1.632006
0.021875	1.640620
0.021973	1.638458
0.022070	1.629387
0.022168	1.623180
0.022266	1.620846
0.022363	1.621914
0.022461	1.622813
0.022559	1.624823
0.022656	1.626321
0.022754	1.629390
0.022852	1.632969
0.022949	1.639915
0.023047	1.648430
0.023145	1.651310
0.023242	1.633921
0.023340	1.615726
0.023437	1.597752
0.023535	1.600073
0.023633	1.607217
0.023730	1.612896
0.023828	1.579552
0.023926	1.577895
0.024023	1.591414
0.024121	1.615584
0.024219	1.626000
0.024316	1.628159
0.024414	1.634584
0.024512	1.632744
0.024609	1.628998
0.024707	1.623920
0.024805	1.622912
0.024902	1.621681
0.025000	1.621714
0.025098	1.621122
0.025195	1.620773
0.025293	1.620125
0.025391	1.616857
0.025488	1.604397
0.025586	1.592706
0.025684	1.620885
0.025781	1.639566
0.025879	1.634767
0.025977	1.638584
0.026074	1.623998
0.026172	1.605132
0.026270	1.599382
0.026367	1.596928
0.026465	1.596104
0.026562	1.599140
0.026660	1.545423
0.026758	1.510797
0.026855	1.542227
0.026953	1.577180
0.027051	1.617312
0.027148	1.615067
0.027246	1.618491
0.027344	1.619922
0.027441	1.624108
0.027539	1.627038
0.027637	1.632332
0.027734	1.636353
0.027832	1.631002
0.027930	1.599761
0.028027	1.605500
0.028125	1.627436
0.028223	1.628937
0.028320	1.622785
0.028418	1.605951
0.028516	1.599547
0.028613	1.589178
0.028711	1.570039
0.028809	1.552882
0.028906	1.580576
0.029004	1.623094
0.029102	1.592910
0.029199	1.613008
0.029297	1.631821
0.029395	1.620989
0.029492	1.618048
0.029590	1.619109
0.029687	1.620848
0.029785	1.621416
0.029883	1.624016
0.029980	1.624433
0.030078	1.628698
0.030176	1.609297
0.030273	1.615447
0.030371	1.629891
0.030469	1.631494
0.030566	1.629832
0.030664	1.616098
0.030762	1.604129
0.030859	1.595273
0.030957	1.587086
0.031055	1.568294
0.031152	1.545262
0.031250	1.535780
0.031348	1.583270
0.031445	1.617310
0.031543	1.638073
0.031641	1.626476
0.031738	1.618411
0.031836	1.620812
0.031934	1.620818
0.032031	1.623084
0.032129	1.623771
0.032227	1.625864
0.032324	1.627550
0.032422	1.630701
0.032520	1.632824
0.032617	1.630265
0.032715	1.623053
0.032812	1.615874
0.032910	1.599584
0.033008	1.606160
0.033105	1.608540
0.033203	1.603941
0.033301	1.596835
0.033398	1.567330
0.033496	1.550678
0.033594	1.588050
0.033691	1.596151
0.033789	1.591957
0.033887	1.570566
0.033984	1.593107
0.034082	1.629227
0.034180	1.622950
0.034277	1.621970
0.034375	1.620736
0.034473	1.621520
0.034570	1.621656
0.034668	1.623102
0.034766	1.624493
0.034863	1.627278
0.034961	1.629496
0.035059	1.628928
0.035156	1.638770
0.035254	1.617082
0.035352	1.586377
0.035449	1.581168
0.035547	1.579102
0.035645	1.592422
0.035742	1.595114
0.035840	1.582091
0.035937	1.544313
0.036035	1.508358
0.036133	1.513668
0.036230	1.534559
0.036328	1.563137
0.036426	1.599473
0.036523	1.609580
0.036621	1.615856
0.036719	1.616534
0.036816	1.619068
0.036914	1.619686
0.037012	1.622700
0.037109	1.624249
0.037207	1.627815
0.037305	1.626969
0.037402	1.621188
0.037500	1.588810
0.037598	1.564426
0.037695	1.577014
0.037793	1.601073
0.037891	1.608525
0.037988	1.607224
0.038086	1.602800
0.038184	1.588990
0.038281	1.565978
0.038379	1.559366
0.038477	1.556481
0.038574	1.567016
0.038672	1.610107
0.038770	1.627039
0.038867	1.627409
0.038965	1.627079
0.039062	1.625345
0.039160	1.624720
0.039258	1.623598
0.039355	1.623917
0.039453	1.624098
0.039551	1.627981
0.039648	1.632819
0.039746	1.616586
0.039844	1.602803
0.039941	1.600504
0.040039	1.617963
0.040137	1.618788
0.040234	1.616267
0.040332	1.610987
0.040430	1.606783
0.040527	1.598315
0.040625	1.601460
0.040723	1.581357
0.040820	1.571782
0.040918	1.579152
0.041016	1.567318
0.041113	1.582459
0.041211	1.608343
0.041309	1.611939
0.041406	1.615627
0.041504	1.618092
0.041602	1.621150
0.041699	1.622888
0.041797	1.625433
0.041895	1.625054
0.041992	1.623165
0.042090	1.599935
0.042187	1.574793
0.042285	1.602403
0.042383	1.637317
0.042480	1.622860
0.042578	1.614508
0.042676	1.603304
0.042773	1.599436
0.042871	1.583666
0.042969	1.539940
0.043066	1.512817
0.043164	1.531889
0.043262	1.574688
0.043359	1.611172
0.043457	1.639331
0.043555	1.622337
0.043652	1.618039
0.043750	1.604962
0.043848	1.607834
0.043945	1.613896
0.044043	1.617925
0.044141	1.620839
0.044238	1.625138
0.044336	1.632689
0.044434	1.643600
0.044531	1.638038
0.044629	1.604860
0.044727	1.586481
0.044824	1.616537
0.044922	1.634597
0.045020	1.633160
0.045117	1.611880
0.045215	1.580056
0.045312	1.548421
0.045410	1.496977
0.045508	1.496866
0.045605	1.550260
0.045703	1.573988
0.045801	1.598617
0.045898	1.610468
0.045996	1.616065
0.046094	1.617197
0.046191	1.618038
0.046289	1.616891
0.046387	1.616524
0.046484	1.614325
0.046582	1.612357
0.046680	1.607118
0.046777	1.600235
0.046875	1.581300
0.046973	1.549064
0.047070	1.550094
0.047168	1.573361
0.047266	1.573274
0.047363	1.574827
0.047461	1.585919
0.047559	1.585225
0.047656	1.583381
0.047754	1.584845
0.047852	1.545715
0.047949	1.513263
0.048047	1.507839
0.048145	1.521492
0.048242	1.546256
0.048340	1.570052
0.048437	1.589340
0.048535	1.599174
0.048633	1.608792
0.048730	1.612053
0.048828	1.616601
0.048926	1.616661
0.049023	1.620849
0.049121	1.619050
0.049219	1.629446
0.049316	1.617302
0.049414	1.588627
0.049512	1.585457
0.049609	1.585983
0.049707	1.607853
0.049805	1.613694
0.049902	1.602302
0.050000	1.598549
0.050098	1.583301
0.050195	1.552544
0.050293	1.513114
0.050391	1.546616
0.050488	1.599586
0.050586	1.617090
0.050684	1.637469
0.050781	1.642410
0.050879	1.639011
0.050977	1.628859
0.051074	1.616279
0.051172	1.612997
0.051270	1.615796
0.051367	1.612434
0.051465	1.611449
0.051562	1.597563
0.051660	1.578289
0.051758	1.520821
0.051855	1.548757
0.051953	1.605913
0.052051	1.620568
0.052148	1.622934
0.052246	1.608829
0.052344	1.600949
0.052441	1.587883
0.052539	1.587251
0.052637	1.545397
0.052734	1.557399
0.052832	1.596978
0.052930	1.624690
0.053027	1.630318
0.053125	1.627555
0.053223	1.625997
0.053320	1.624113
0.053418	1.622860
0.053516	1.621464
0.053613	1.620653
0.053711	1.619536
0.053809	1.617994
0.053906	1.615849
0.054004	1.612486
0.054102	1.607146
0.054199	1.595034
0.054297	1.588513
0.054395	1.568887
0.054492	1.586930
0.054590	1.612601
0.054687	1.598741
0.054785	1.587781
0.054883	1.580047
0.054980	1.568891
0.055078	1.559637
0.055176	1.531722
0.055273	1.530304
0.055371	1.583028
0.055469	1.608662
0.055566	1.619778
0.055664	1.622813
0.055762	1.615731
0.055859	1.617557
0.055957	1.618275
0.056055	1.621402
0.056152	1.622709
0.056250	1.629104
0.056348	1.631635
0.056445	1.638688
0.056543	1.617297
0.056641	1.603541
0.056738	1.620477
0.056836	1.619591
0.056934	1.612379
0.057031	1.604472
0.057129	1.598419
0.057227	1.567524
0.057324	1.540328
0.057422	1.534955
0.057520	1.551667
0.057617	1.560796
0.057715	1.572315
0.057812	1.595285
0.057910	1.609181
0.058008	1.608126
0.058105	1.609843
0.058203	1.628900
0.058301	1.621258
0.058398	1.621175
0.058496	1.621070
0.058594	1.624458
0.058691	1.626079
0.058789	1.630712
0.058887	1.634688
0.058984	1.641398
0.059082	1.633399
0.059180	1.632807
0.059277	1.619847
0.059375	1.610497
0.059473	1.610505
0.059570	1.603523
0.059668	1.595368
0.059766	1.580260
0.059863	1.548623
0.059961	1.518881
0.060059	1.547647
0.060156	1.625878
0.060254	1.640247
0.060352	1.625473
0.060449	1.620660
0.060547	1.620009
0.060645	1.621276
0.060742	1.621960
0.060840	1.623142
0.060937	1.624080
0.061035	1.625940
0.061133	1.627718
0.061230	1.626325
0.061328	1.616548
0.061426	1.596928
0.061523	1.590237
0.061621	1.604279
0.061719	1.597171
0.061816	1.568457
0.061914	1.573522
0.062012	1.582349
0.062109	1.574021
0.062207	1.544903
0.062305	1.506317
0.062402	1.526518
0.062500	1.580697
0.062598	1.617006
0.062695	1.620607
0.062793	1.624368
0.062891	1.624081
0.062988	1.624477
0.063086	1.624074
0.063184	1.624530
0.063281	1.624576
0.063379	1.625454
0.063477	1.624962
0.063574	1.623950
0.063672	1.619860
0.063770	1.615952
0.063867	1.605945
0.063965	1.588230
0.064062	1.580819
0.064160	1.591956
0.064258	1.592176
0.064355	1.597662
0.064453	1.581554
0.064551	1.585568
0.064648	1.580800
0.064746	1.587113
0.064844	1.601046
0.064941	1.595285
0.065039	1.590581
0.065137	1.588600
0.065234	1.613087
0.065332	1.615326
0.065430	1.618201
0.065527	1.619724
0.065625	1.621301
0.065723	1.624144
0.065820	1.625753
0.065918	1.630754
0.066016	1.619388
0.066113	1.604854
0.066211	1.563200
0.066309	1.557735
0.066406	1.592447
0.066504	1.617947
0.066602	1.624576
0.066699	1.607424
0.066797	1.600041
0.066895	1.584226
0.066992	1.568061
0.067090	1.557117
0.067187	1.560494
0.067285	1.582991
0.067383	1.600621
0.067480	1.596143
0.067578	1.606837
0.067676	1.608683
0.067773	1.615468
0.067871	1.616162
0.067969	1.620285
0.068066	1.622055
0.068164	1.631699
0.068262	1.643501
0.068359	1.667751
0.068457	1.660299
0.068555	1.647951
0.068652	1.640831
0.068750	1.637900
0.068848	1.619844
0.068945	1.609882
0.069043	1.602213
0.069141	1.592026
0.069238	1.576401
0.069336	1.549595
0.069434	1.524547
0.069531	1.545833
0.069629	1.556135
0.069727	1.587637
0.069824	1.603597
0.069922	1.580168
0.070020	1.587594
0.070117	1.603412
0.070215	1.612582
0.070312	1.615876
0.070410	1.619447
0.070508	1.622312
0.070605	1.624449
0.070703	1.626198
0.070801	1.622486
0.070898	1.614785
0.070996	1.597186
0.071094	1.593610
0.071191	1.590299
0.071289	1.599075
0.071387	1.602444
0.071484	1.593052
0.071582	1.592440
0.071680	1.599986
0.071777	1.557046
0.071875	1.566413
0.071973	1.606785
0.072070	1.627749
0.072168	1.631979
0.072266	1.629775
0.072363	1.630545
0.072461	1.629316
0.072559	1.628310
0.072656	1.626005
0.072754	1.625693
0.072852	1.626436
0.072949	1.628097
0.073047	1.629653
0.073145	1.627538
0.073242	1.622636
0.073340	1.612390
0.073437	1.625047
0.073535	1.630566
0.073633	1.603114
0.073730	1.596372
0.073828	1.601281
0.073926	1.590252
0.074023	1.573120
0.074121	1.553740
0.074219	1.548782
0.074316	1.557312
0.074414	1.577164
0.074512	1.595410
0.074609	1.611000
0.074707	1.615974
0.074805	1.617877
0.074902	1.620885
0.075000	1.622542
0.075098	1.624771
0.075195	1.627492
0.075293	1.631440
0.075391	1.637340
0.075488	1.643385
0.075586	1.633792
0.075684	1.593496
0.075781	1.598410
0.075879	1.608517
0.075977	1.608822
0.076074	1.605560
0.076172	1.600315
0.076270	1.593945
0.076367	1.586506
0.076465	1.574990
0.076562	1.555614
0.076660	1.545358
0.076758	1.588996
0.076855	1.596883
0.076953	1.575686
0.077051	1.554655
0.077148	1.596001
0.077246	1.613125
0.077344	1.596472
0.077441	1.609473
0.077539	1.612680
0.077637	1.615378
0.077734	1.613348
0.077832	1.609481
0.077930	1.595107
0.078027	1.592876
0.078125	1.587391
0.078223	1.584568
0.078320	1.585709
0.078418	1.562458
0.078516	1.561918
0.078613	1.582397
0.078711	1.572231
0.078809	1.552071
0.078906	1.516210
0.079004	1.495125
0.079102	1.520645
0.079199	1.551984
0.079297	1.579031
0.079395	1.610630
0.079492	1.612633
0.079590	1.614015
0.079687	1.615803
0.079785	1.618396
0.079883	1.619183
0.079980	1.623237
0.080078	1.625668
0.080176	1.640337
0.080273	1.653386
0.080371	1.653107
0.080469	1.663186
0.080566	1.667710
0.080664	1.639149
0.080762	1.609098
0.080859	1.604627
0.080957	1.591952
0.081055	1.585010
0.081152	1.571914
0.081250	1.556760
0.081348	1.512527
0.081445	1.494518
0.081543	1.532992
0.081641	1.575681
0.081738	1.622493
0.081836	1.627052
0.081934	1.616280
0.082031	1.618963
0.082129	1.617512
0.082227	1.620222
0.082324	1.620758
0.082422	1.623472
0.082520	1.622689
0.082617	1.620955
0.082715	1.604984
0.082812	1.573848
0.082910	1.565135
0.083008	1.589031
0.083105	1.598066
0.083203	1.600819
0.083301	1.604462
0.083398	1.595691
0.083496	1.592079
0.083594	1.571104
0.083691	1.563363
0.083789	1.595511
0.083887	1.605493
0.083984	1.627941
0.084082	1.623563
0.084180	1.601169
0.084277	1.623990
0.084375	1.622833
0.084473	1.622181
0.084570	1.621405
0.084668	1.622437
0.084766	1.621994
0.084863	1.621903
0.084961	1.614413
0.085059	1.615938
0.085156	1.613516
0.085254	1.602158
0.085352	1.600766
0.085449	1.602557
0.085547	1.606253
0.085645	1.606176
0.085742	1.603788
0.085840	1.597198
0.085937	1.582326
0.086035	1.589297
0.086133	1.603825
0.086230	1.572561
0.086328	1.573143
0.086426	1.561797
0.086523	1.570502
0.086621	1.602988
0.086719	1.609898
0.086816	1.616587
0.086914	1.618319
0.087012	1.623477
0.087109	1.626380
0.087207	1.636361
0.087305	1.639169
0.087402	1.630865
0.087500	1.603323
0.087598	1.570782
0.087695	1.598153
0.087793	1.616816
0.087891	1.612637
0.087988	1.613235
0.088086	1.607200
0.088184	1.600826
0.088281	1.582818
0.088379	1.559586
0.088477	1.528928
0.088574	1.535047
0.088672	1.554658
0.088770	1.585786
0.088867	1.602609
0.088965	1.599115
0.089062	1.610746
0.089160	1.602940
0.089258	1.604646
0.089355	1.619478
0.089453	1.624097
0.089551	1.629920
0.089648	1.636519
0.089746	1.646506
0.089844	1.646731
0.089941	1.644309
0.090039	1.622309
0.090137	1.604713
0.090234	1.577540
0.090332	1.596785
0.090430	1.609460
0.090527	1.612376
0.090625	1.627998
0.090723	1.595360
0.090820	1.561384
0.090918	1.573095
0.091016	1.586604
0.091113	1.614981
0.091211	1.627732
0.091309	1.621473
0.091406	1.620259
0.091504	1.620403
0.091602	1.620542
0.091699	1.622121
0.091797	1.620933
0.091895	1.624027
0.091992	1.621392
0.092090	1.635241
0.092187	1.626262
0.092285	1.623893
0.092383	1.658849
0.092480	1.638974
0.092578	1.629287
0.092676	1.615111
0.092773	1.606485
0.092871	1.589128
0.092969	1.567646
0.093066	1.545368
0.093164	1.557411
0.093262	1.584457
0.093359	1.599574
0.093457	1.618171
0.093555	1.618444
0.093652	1.618579
0.093750	1.619879
0.093848	1.620501
0.093945	1.620687
0.094043	1.620569
0.094141	1.619644
0.094238	1.618630
0.094336	1.615222
0.094434	1.612251
0.094531	1.605924
0.094629	1.587109
0.094727	1.560980
0.094824	1.541042
0.094922	1.553446
0.095020	1.582788
0.095117	1.600621
0.095215	1.600423
0.095312	1.594706
0.095410	1.582245
0.095508	1.540932
0.095605	1.509443
0.095703	1.574455
0.095801	1.624617
0.095898	1.631612
0.095996	1.636634
0.096094	1.636799
0.096191	1.627598
0.096289	1.624228
0.096387	1.622562
0.096484	1.622603
0.096582	1.623239
0.096680	1.623927
0.096777	1.625557
0.096875	1.625509
0.096973	1.625265
0.097070	1.609502
0.097168	1.590498
0.097266	1.581842
0.097363	1.581822
0.097461	1.561608
0.097559	1.573952
0.097656	1.597189
0.097754	1.598884
0.097852	1.591837
0.097949	1.587511
0.098047	1.622306
0.098145	1.632178
0.098242	1.609084
0.098340	1.591987
0.098437	1.580327
0.098535	1.579801
0.098633	1.599503
0.098730	1.611046
0.098828	1.615826
0.098926	1.620055
0.099023	1.626992
0.099121	1.633491
0.099219	1.652247
0.099316	1.648921
0.099414	1.620866
0.099512	1.632687
0.099609	1.623980
0.099707	1.619920
0.099805	1.615281
0.099902	1.611861
0.100000	1.603843
0.100098	1.604985
0.100195	1.598200
0.100293	1.579906
0.100391	1.581988
0.100488	1.621284
0.100586	1.595844
0.100684	1.574200
0.100781	1.616933
0.100879	1.614225
0.100977	1.623408
0.101074	1.623752
0.101172	1.625724
0.101270	1.624652
0.101367	1.625987
0.101465	1.626892
0.101562	1.629023
0.101660	1.629340
0.101758	1.621029
0.101855	1.607434
0.101953	1.603686
0.102051	1.612501
0.102148	1.620292
0.102246	1.621905
0.102344	1.619760
0.102441	1.612712
0.102539	1.597876
0.102637	1.572366
0.102734	1.536928
0.102832	1.518382
0.102930	1.530479
0.103027	1.551733
0.103125	1.573551
0.103223	1.588650
0.103320	1.601928
0.103418	1.610976
0.103516	1.617023
0.103613	1.618293
0.103711	1.619909
0.103809	1.620949
0.103906	1.626421
0.104004	1.631166
0.104102	1.616226
0.104199	1.577635
0.104297	1.562613
0.104395	1.596029
0.104492	1.592406
0.104590	1.598484
0.104687	1.603330
0.104785	1.598853
0.104883	1.588204
0.104980	1.567427
0.105078	1.549730
0.105176	1.591912
0.105273	1.584571
0.105371	1.579451
0.105469	1.593019
0.105566	1.614575
0.105664	1.623189
0.105762	1.622220
0.105859	1.622534
0.105957	1.622373
0.106055	1.622907
0.106152	1.623425
0.106250	1.624004
0.106348	1.624784
0.106445	1.624029
0.106543	1.623400
0.106641	1.620185
0.106738	1.620674
0.106836	1.626583
0.106934	1.617695
0.107031	1.608917
0.107129	1.610205
0.107227	1.598703
0.107324	1.598301
0.107422	1.591018
0.107520	1.527084
0.107617	1.534355
0.107715	1.539315
0.107812	1.552592
0.107910	1.592494
0.108008	1.626962
0.108105	1.619065
0.108203	1.618664
0.108301	1.621418
0.108398	1.623087
0.108496	1.625935
0.108594	1.628821
0.108691	1.635191
0.108789	1.648555
0.108887	1.664454
0.108984	1.637366
0.109082	1.623222
0.109180	1.616295
0.109277	1.608274
0.109375	1.601317
0.109473	1.597629
0.109570	1.593347
0.109668	1.592029
0.109766	1.590850
0.109863	1.553558
0.109961	1.537304
0.110059	1.551374
0.110156	1.594941
0.110254	1.609770
0.110352	1.624916
0.110449	1.621840
0.110547	1.620887
0.110645	1.619212
0.110742	1.619715
0.110840	1.619117
0.110937	1.619598
0.111035	1.619188
0.111133	1.618852
0.111230	1.617506
0.111328	1.614280
0.111426	1.606718
0.111523	1.613709
0.111621	1.633438
0.111719	1.627220
0.111816	1.579502
0.111914	1.557980
0.112012	1.570165
0.112109	1.585991
0.112207	1.584948
0.112305	1.575288
0.112402	1.563347
0.112500	1.570940
0.112598	1.560858
0.112695	1.538063
0.112793	1.513485
0.112891	1.512580
0.112988	1.572180
0.113086	1.598894
0.113184	1.609406
0.113281	1.614682
0.113379	1.618855
0.113477	1.622067
0.113574	1.625297
0.113672	1.628546
0.113770	1.630522
0.113867	1.620623
0.113965	1.609383
0.114062	1.619720
0.114160	1.610638
0.114258	1.629318
0.114355	1.614666
0.114453	1.593512
0.114551	1.589311
0.114648	1.565859
0.114746	1.516588
0.114844	1.510187
0.114941	1.551847
0.115039	1.582009
0.115137	1.602861
0.115234	1.591794
0.115332	1.592914
0.115430	1.600920
0.115527	1.585529
0.115625	1.609358
0.115723	1.618928
0.115820	1.615820
0.115918	1.621883
0.116016	1.620197
0.116113	1.622533
0.116211	1.602604
0.116309	1.572539
0.116406	1.577497
0.116504	1.592472
0.116602	1.621900
0.116699	1.615981
0.116797	1.614741
0.116895	1.604147
0.116992	1.601566
0.117090	1.593897
0.117187	1.584963
0.117285	1.582614
0.117383	1.618994
0.117480	1.637449
0.117578	1.628304
0.117676	1.627972
0.117773	1.625562
0.117871	1.627439
0.117969	1.625179
0.118066	1.627347
0.118164	1.624963
0.118262	1.628606
0.118359	1.626546
0.118457	1.634455
0.118555	1.626504
0.118652	1.630931
0.118750	1.617705
0.118848	1.621537
0.118945	1.621183
0.119043	1.581449
0.119141	1.554651
0.119238	1.536160
0.119336	1.578897
0.119434	1.580805
0.119531	1.564217
0.119629	1.555453
0.119727	1.575906
0.119824	1.593012
0.119922	1.613077
0.120020	1.612993
0.120117	1.592809
0.120215	1.592653
0.120312	1.613062
0.120410	1.614319
0.120508	1.620042
0.120605	1.624213
0.120703	1.634143
0.120801	1.646051
0.120898	1.656327
0.120996	1.651030
0.121094	1.635867
0.121191	1.615796
0.121289	1.611704
0.121387	1.612665
0.121484	1.604886
0.121582	1.598759
0.121680	1.586067
0.121777	1.559274
0.121875	1.514459
0.121973	1.515446
0.122070	1.569705
0.122168	1.605234
0.122266	1.611660
0.122363	1.620380
0.122461	1.622760
0.122559	1.622737
0.122656	1.622679
0.122754	1.623320
0.122852	1.624937
0.122949	1.626973
0.123047	1.629867
0.123145	1.631664
0.123242	1.630770
0.123340	1.615741
0.123437	1.597286
0.123535	1.588736
0.123633	1.619945
0.123730	1.632978
0.123828	1.618963
0.123926	1.603969
0.124023	1.592653
0.124121	1.576476
0.124219	1.568525
0.124316	1.555003
0.124414	1.544113
0.124512	1.605342
0.124609	1.639834
0.124707	1.622508
0.124805	1.617824
0.124902	1.619951
0.125000	1.620870
0.125098	1.621822
0.125195	1.622584
0.125293	1.623727
0.125391	1.624995
0.125488	1.626685
0.125586	1.628247
0.125684	1.628581
0.125781	1.612159
0.125879	1.610563
0.125977	1.614734
0.126074	1.603690
0.126172	1.609093
0.126270	1.603555
0.126367	1.602773
0.126465	1.592561
0.126562	1.582962
0.126660	1.536890
0.126758	1.533313
0.126855	1.572777
0.126953	1.593285
0.127051	1.600444
0.127148	1.571947
0.127246	1.561401
0.127344	1.588400
0.127441	1.612883
0.127539	1.612478
0.127637	1.617652
0.127734	1.617290
0.127832	1.621176
0.127930	1.619841
0.128027	1.599633
0.128125	1.563355
0.128223	1.576425
0.128320	1.567918
0.128418	1.582707
0.128516	1.586071
0.128613	1.577209
0.128711	1.587474
0.128809	1.610542
0.128906	1.588687
0.129004	1.550186
0.129102	1.561422
0.129199	1.567298
0.129297	1.576493
0.129395	1.574147
0.129492	1.598845
0.129590	1.617116
0.129687	1.617060
0.129785	1.617878
0.129883	1.618027
0.129980	1.618409
0.130078	1.617901
0.130176	1.616279
0.130273	1.612810
0.130371	1.604906
0.130469	1.584075
0.130566	1.559700
0.130664	1.577763
0.130762	1.586570
0.130859	1.598286
0.130957	1.604771
0.131055	1.601606
0.131152	1.597344
0.131250	1.582520
0.131348	1.572082
0.131445	1.560228
0.131543	1.578916
0.131641	1.574432
0.131738	1.563921
0.131836	1.572471
0.131934	1.601729
0.132031	1.611298
0.132129	1.614915
0.132227	1.618811
0.132324	1.619871
0.132422	1.624651
0.132520	1.627062
0.132617	1.648994
0.132715	1.664382
0.132812	1.645634
0.132910	1.634874
0.133008	1.608032
0.133105	1.609514
0.133203	1.622026
0.133301	1.617037
0.133398	1.613407
0.133496	1.611866
0.133594	1.592726
0.133691	1.568086
0.133789	1.566537
0.133887	1.543472
0.133984	1.542915
0.134082	1.574904
0.134180	1.596250
0.134277	1.614543
0.134375	1.615367
0.134473	1.620150
0.134570	1.616928
0.134668	1.618370
0.134766	1.619865
0.134863	1.620918
0.134961	1.622566
0.135059	1.621912
0.135156	1.619888
0.135254	1.607793
0.135352	1.632106
0.135449	1.613195
0.135547	1.608196
0.135645	1.631184
0.135742	1.617622
0.135840	1.613267
0.135937	1.605689
0.136035	1.615325
0.136133	1.566438
0.136230	1.549789
0.136328	1.603132
0.136426	1.630244
0.136523	1.639187
0.136621	1.635164
0.136719	1.635451
0.136816	1.632475
0.136914	1.628389
0.137012	1.625135
0.137109	1.623040
0.137207	1.622738
0.137305	1.622530
0.137402	1.623654
0.137500	1.629464
0.137598	1.647324
0.137695	1.633715
0.137793	1.602593
0.137891	1.595324
0.137988	1.598459
0.138086	1.594676
0.138184	1.577753
0.138281	1.568967
0.138379	1.562634
0.138477	1.547826
0.138574	1.523958
0.138672	1.524618
0.138770	1.546949
0.138867	1.581784
0.138965	1.626447
0.139062	1.629294
0.139160	1.618878
0.139258	1.617146
0.139355	1.617654
0.139453	1.619671
0.139551	1.621943
0.139648	1.625178
0.139746	1.633798
0.139844	1.641024
0.139941	1.634968
0.140039	1.611418
0.140137	1.629975
0.140234	1.634367
0.140332	1.628064
0.140430	1.625591
0.140527	1.620446
0.140625	1.611711
0.140723	1.600978
0.140820	1.589423
0.140918	1.574504
0.141016	1.556077
0.141113	1.547423
0.141211	1.562785
0.141309	1.593500
0.141406	1.609314
0.141504	1.617450
0.141602	1.617323
0.141699	1.619860
0.141797	1.617954
0.141895	1.619498
0.141992	1.615623
0.142090	1.618151
0.142187	1.608867
0.142285	1.626175
0.142383	1.608807
0.142480	1.611016
0.142578	1.605392
0.142676	1.598141
0.142773	1.617404
0.142871	1.620295
0.142969	1.619297
0.143066	1.609798
0.143164	1.597118
0.143262	1.571527
0.143359	1.582293
0.143457	1.589611
0.143555	1.603164
0.143652	1.583298
0.143750	1.582959
0.143848	1.620172
0.143945	1.631782
0.144043	1.618909
0.144141	1.617653
0.144238	1.617918
0.144336	1.619091
0.144434	1.619286
0.144531	1.620359
0.144629	1.621589
0.144727	1.629530
0.144824	1.621043
0.144922	1.626291
0.145020	1.619370
0.145117	1.620836
0.145215	1.631096
0.145312	1.629571
0.145410	1.604130
0.145508	1.586385
0.145605	1.574416
0.145703	1.556813
0.145801	1.551833
0.145898	1.547348
0.145996	1.559801
0.146094	1.589841
0.146191	1.616091
0.146289	1.625470
0.146387	1.611029
0.146484	1.614834
0.146582	1.617202
0.146680	1.620580
0.146777	1.622531
0.146875	1.624673
0.146973	1.626521
0.147070	1.629709
0.147168	1.637897
0.147266	1.647404
0.147363	1.628286
0.147461	1.592336
0.147559	1.598204
0.147656	1.613533
0.147754	1.596428
0.147852	1.576399
0.147949	1.567025
0.148047	1.557959
0.148145	1.534345
0.148242	1.505312
0.148340	1.499614
0.148437	1.515336
0.148535	1.539291
0.148633	1.560691
0.148730	1.585318
0.148828	1.605718
0.148926	1.613584
0.149023	1.614873
0.149121	1.620701
0.149219	1.625630
0.149316	1.638848
0.149414	1.646388
0.149512	1.655316
0.149609	1.648033
0.149707	1.628673
0.149805	1.622584
0.149902	1.593685
0.150000	1.602505
0.150098	1.602164
0.150195	1.605410
0.150293	1.604522
0.150391	1.607022
0.150488	1.591897
0.150586	1.537353
0.150684	1.573854
0.150781	1.647620
0.150879	1.639944
0.150977	1.634911
0.151074	1.633338
0.151172	1.634980
0.151270	1.630075
0.151367	1.629907
0.151465	1.628270
0.151562	1.634463
0.151660	1.637958
0.151758	1.649520
0.151855	1.632838
0.151953	1.620873
0.152051	1.602894
0.152148	1.593734
0.152246	1.607859
0.152344	1.612874
0.152441	1.613140
0.152539	1.610563
0.152637	1.589059
0.152734	1.567083
0.152832	1.605916
0.152930	1.612249
0.153027	1.586897
0.153125	1.620907
0.153223	1.637546
0.153320	1.618425
0.153418	1.622995
0.153516	1.625186
0.153613	1.626550
0.153711	1.624039
0.153809	1.624335
0.153906	1.622444
0.154004	1.622916
0.154102	1.621024
0.154199	1.620611
0.154297	1.614887
0.154395	1.609743
0.154492	1.589194
0.154590	1.545207
0.154687	1.543546
0.154785	1.568501
0.154883	1.590615
0.154980	1.597226
0.155078	1.593441
0.155176	1.586734
0.155273	1.564739
0.155371	1.546849
0.155469	1.541467
0.155566	1.565496
0.155664	1.607003
0.155762	1.614924
0.155859	1.619468
0.155957	1.621254
0.156055	1.622253
0.156152	1.622653
0.156250	1.622728
0.156348	1.622966
0.156445	1.622600
0.156543	1.622299
0.156641	1.618907
0.156738	1.613861
0.156836	1.596417
0.156934	1.587220
0.157031	1.589477
0.157129	1.571581
0.157227	1.574926
0.157324	1.576493
0.157422	1.564218
0.157520	1.527424
0.157617	1.503694
0.157715	1.502154
0.157812	1.489691
0.157910	1.473242
0.158008	1.490088
0.158105	1.523867
0.158203	1.551638
0.158301	1.566385
0.158398	1.578006
0.158496	1.602876
0.158594	1.611827
0.158691	1.619659
0.158789	1.623254
0.158887	1.628645
0.158984	1.631332
0.159082	1.636489
0.159180	1.637198
0.159277	1.636877
0.159375	1.619596
0.159473	1.642502
0.159570	1.638484
0.159668	1.610796
0.159766	1.607192
0.159863	1.602382
0.159961	1.595974
0.160059	1.588803
0.160156	1.584119
0.160254	1.597457
0.160352	1.604724
0.160449	1.611227
0.160547	1.625237
0.160645	1.625684
0.160742	1.626368
0.160840	1.625098
0.160937	1.625128
0.161035	1.623886
0.161133	1.624055
0.161230	1.624688
0.161328	1.627137
0.161426	1.630481
0.161523	1.633211
0.161621	1.634308
0.161719	1.630180
0.161816	1.605042
0.161914	1.606547
0.162012	1.610530
0.162109	1.596229
0.162207	1.594031
0.162305	1.599301
0.162402	1.592929
0.162500	1.581755
0.162598	1.565751
0.162695	1.564941
0.162793	1.607437
0.162891	1.633082
0.162988	1.634420
0.163086	1.634354
0.163184	1.627904
0.163281	1.626425
0.163379	1.623370
0.163477	1.625728
0.163574	1.623770
0.163672	1.626575
0.163770	1.611603
0.163867	1.591244
0.163965	1.585329
0.164062	1.600567
0.164160	1.626804
0.164258	1.621390
0.164355	1.620319
0.164453	1.613555
0.164551	1.609971
0.164648	1.604001
0.164746	1.599382
0.164844	1.590185
0.164941	1.584014
0.165039	1.584225
0.165137	1.595085
0.165234	1.578059
0.165332	1.537234
0.165430	1.553380
0.165527	1.594667
0.165625	1.610750
0.165723	1.616838
0.165820	1.620512
0.165918	1.622004
0.166016	1.625613
0.166113	1.625852
0.166211	1.629462
0.166309	1.601818
0.166406	1.578079
0.166504	1.615908
0.166602	1.627330
0.166699	1.619521
0.166797	1.612756
0.166895	1.607448
0.166992	1.605760
0.167090	1.602050
0.167187	1.608245
0.167285	1.582451
0.167383	1.566173
0.167480	1.568728
0.167578	1.580030
0.167676	1.584071
0.167773	1.600045
0.167871	1.611931
0.167969	1.615945
0.168066	1.619396
0.168164	1.622043
0.168262	1.623923
0.168359	1.628707
0.168457	1.633151
0.168555	1.650724
0.168652	1.657929
0.168750	1.641454
0.168848	1.600188
0.168945	1.580107
0.169043	1.618627
0.169141	1.614161
0.169238	1.604653
0.169336	1.600459
0.169434	1.596836
0.169531	1.580156
0.169629	1.555832
0.169727	1.544134
0.169824	1.560136
0.169922	1.613021
0.170020	1.636985
0.170117	1.635669
0.170215	1.632018
0.170312	1.626504
0.170410	1.624304
0.170508	1.624012
0.170605	1.627084
0.170703	1.631235
0.170801	1.639296
0.170898	1.649124
0.170996	1.646746
0.171094	1.629815
0.171191	1.625922
0.171289	1.629031
0.171387	1.606960
0.171484	1.621592
0.171582	1.598247
0.171680	1.600976
0.171777	1.602226
0.171875	1.595730
0.171973	1.608307
0.172070	1.613501
0.172168	1.630737
0.172266	1.637010
0.172363	1.638321
0.172461	1.632253
0.172559	1.631262
0.172656	1.627444
0.172754	1.625298
0.172852	1.622631
0.172949	1.623212
0.173047	1.622351
0.173145	1.625822
0.173242	1.627882
0.173340	1.641723
0.173437	1.646491
0.173535	1.633852
0.173633	1.611623
0.173730	1.609907
0.173828	1.617265
0.173926	1.608327
0.174023	1.603156
0.174121	1.595335
0.174219	1.581716
0.174316	1.580402
0.174414	1.560962
0.174512	1.550081
0.174609	1.551459
0.174707	1.574987
0.174805	1.621085
0.174902	1.626526
0.175000	1.630194
0.175098	1.621610
0.175195	1.615071
0.175293	1.610603
0.175391	1.613908
0.175488	1.616103
0.175586	1.621428
0.175684	1.622531
0.175781	1.626458
0.175879	1.626780
0.175977	1.630335
0.176074	1.606450
0.176172	1.584969
0.176270	1.587794
0.176367	1.599354
0.176465	1.611266
0.176562	1.612214
0.176660	1.617824
0.176758	1.621502
0.176855	1.619231
0.176953	1.639689
0.177051	1.627167
0.177148	1.612709
0.177246	1.580395
0.177344	1.547840
0.177441	1.586688
0.177539	1.612281
0.177637	1.617209
0.177734	1.621133
0.177832	1.622470
0.177930	1.626357
0.178027	1.624889
0.178125	1.631005
0.178223	1.637303
0.178320	1.643764
0.178418	1.637503
0.178516	1.631341
0.178613	1.625097
0.178711	1.617215
0.178809	1.610261
0.178906	1.604857
0.179004	1.598387
0.179102	1.591354
0.179199	1.583399
0.179297	1.575494
0.179395	1.578337
0.179492	1.595804
0.179590	1.613022
0.179687	1.619521
0.179785	1.622975
0.179883	1.625152
0.179980	1.625065
0.180078	1.625287
0.180176	1.623695
0.180273	1.624170
0.180371	1.622060
0.180469	1.623170
0.180566	1.619654
0.180664	1.619153
0.180762	1.605350
0.180859	1.600056
0.180957	1.578322
0.181055	1.587785
0.181152	1.605535
0.181250	1.603723
0.181348	1.600311
0.181445	1.619923
0.181543	1.638923
0.181641	1.643997
0.181738	1.640396
0.181836	1.585878
0.181934	1.557707
0.182031	1.534519
0.182129	1.567880
0.182227	1.596275
0.182324	1.619851
0.182422	1.624944
0.182520	1.625975
0.182617	1.625703
0.182715	1.628880
0.182812	1.631205
0.182910	1.639500
0.183008	1.646394
0.183105	1.626805
0.183203	1.604640
0.183301	1.580626
0.183398	1.608754
0.183496	1.612213
0.183594	1.605289
0.183691	1.607581
0.183789	1.622520
0.183887	1.604509
0.183984	1.569852
0.184082	1.551425
0.184180	1.546177
0.184277	1.543763
0.184375	1.577953
0.184473	1.608910
0.184570	1.624653
0.184668	1.629078
0.184766	1.623650
0.184863	1.624065
0.184961	1.624881
0.185059	1.629737
0.185156	1.635178
0.185254	1.641747
0.185352	1.642466
0.185449	1.647562
0.185547	1.594354
0.185645	1.621072
0.185742	1.637288
0.185840	1.619014
0.185937	1.603226
0.186035	1.565172
0.186133	1.584569
0.186230	1.591069
0.186328	1.575394
0.186426	1.555680
0.186523	1.590742
0.186621	1.636087
0.186719	1.628137
0.186816	1.628945
0.186914	1.627537
0.187012	1.628784
0.187109	1.625885
0.187207	1.625255
0.187305	1.623700
0.187402	1.624604
0.187500	1.623450
0.187598	1.623993
0.187695	1.619942
0.187793	1.615347
0.187891	1.599723
0.187988	1.580716
0.188086	1.574110
0.188184	1.591408
0.188281	1.608730
0.188379	1.605437
0.188477	1.592332
0.188574	1.577074
0.188672	1.540109
0.188770	1.522216
0.188867	1.544878
0.188965	1.552940
0.189062	1.545471
0.189160	1.567163
0.189258	1.627811
0.189355	1.622985
0.189453	1.620606
0.189551	1.618197
0.189648	1.618846
0.189746	1.617215
0.189844	1.616272
0.189941	1.612326
0.190039	1.605212
0.190137	1.591629
0.190234	1.564638
0.190332	1.516451
0.190430	1.537146
0.190527	1.561576
0.190625	1.581971
0.190723	1.591663
0.190820	1.591004
0.190918	1.589327
0.191016	1.565758
0.191113	1.580886
0.191211	1.584890
0.191309	1.560085
0.191406	1.571766
0.191504	1.587485
0.191602	1.586722
0.191699	1.601295
0.191797	1.619252
0.191895	1.621729
0.191992	1.623602
0.192090	1.625836
0.192187	1.631179
0.192285	1.636667
0.192383	1.645243
0.192480	1.647330
0.192578	1.635938
0.192676	1.631339
0.192773	1.625321
0.192871	1.622842
0.192969	1.603345
0.193066	1.581086
0.193164	1.581630
0.193262	1.546825
0.193359	1.529131
0.193457	1.532983
0.193555	1.520925
0.193652	1.518020
0.193750	1.557880
0.193848	1.615224
0.193945	1.626938
0.194043	1.623669
0.194141	1.626558
0.194238	1.627135
0.194336	1.628285
0.194434	1.628982
0.194531	1.629983
0.194629	1.631688
0.194727	1.634067
0.194824	1.634835
0.194922	1.632579
0.195020	1.638208
0.195117	1.622004
0.195215	1.632248
0.195312	1.614521
0.195410	1.594463
0.195508	1.593877
0.195605	1.588948
0.195703	1.583586
0.195801	1.566721
0.195898	1.543646
0.195996	1.526079
0.196094	1.542582
0.196191	1.569111
0.196289	1.595395
0.196387	1.628691
0.196484	1.629473
0.196582	1.619619
0.196680	1.616523
0.196777	1.616227
0.196875	1.616947
0.196973	1.618298
0.197070	1.620257
0.197168	1.623738
0.197266	1.632840
0.197363	1.642972
0.197461	1.631639
0.197559	1.642690
0.197656	1.646255
0.197754	1.631791
0.197852	1.611870
0.197949	1.586627
0.198047	1.578645
0.198145	1.561806
0.198242	1.551867
0.198340	1.546518
0.198437	1.555345
0.198535	1.572545
0.198633	1.581129
0.198730	1.590731
0.198828	1.584905
0.198926	1.602152
0.199023	1.612144
0.199121	1.618915
0.199219	1.623156
0.199316	1.627209
0.199414	1.630536
0.199512	1.634751
0.199609	1.629613
0.199707	1.609379
0.199805	1.608390
0.199902	1.622987
0.200000	1.615721
0.200098	1.615557
0.200195	1.610928
0.200293	1.603124
0.200391	1.589044
0.200488	1.567328
0.200586	1.533495
0.200684	1.531695
0.200781	1.557906
0.200879	1.579507
0.200977	1.579914
0.201074	1.588535
0.201172	1.608170
0.201270	1.615811
0.201367	1.618382
0.201465	1.620354
0.201562	1.620866
0.201660	1.622675
0.201758	1.621525
0.201855	1.625731
0.201953	1.625767
0.202051	1.611128
0.202148	1.622586
0.202246	1.646690
0.202344	1.631437
0.202441	1.627077
0.202539	1.612387
0.202637	1.605514
0.202734	1.600673
0.202832	1.591373
0.202930	1.579567
0.203027	1.590913
0.203125	1.605145
0.203223	1.610960
0.203320	1.616866
0.203418	1.619471
0.203516	1.623815
0.203613	1.623111
0.203711	1.625583
0.203809	1.624260
0.203906	1.626068
0.204004	1.624020
0.204102	1.626534
0.204199	1.624091
0.204297	1.628908
0.204395	1.626375
0.204492	1.642318
0.204590	1.609542
0.204687	1.579421
0.204785	1.610868
0.204883	1.613197
0.204980	1.604105
0.205078	1.594064
0.205176	1.589254
0.205273	1.568232
0.205371	1.534834
0.205469	1.509379
0.205566	1.536045
0.205664	1.578393
0.205762	1.606022
0.205859	1.636550
0.205957	1.637067
0.206055	1.630396
0.206152	1.623408
0.206250	1.615886
0.206348	1.614682
0.206445	1.613454
0.206543	1.613353
0.206641	1.609693
0.206738	1.604694
0.206836	1.587461
0.206934	1.568402
0.207031	1.567736
0.207129	1.570610
0.207227	1.572937
0.207324	1.553065
0.207422	1.558629
0.207520	1.587986
0.207617	1.583330
0.207715	1.549400
0.207812	1.544305
0.207910	1.578955
0.208008	1.601124
0.208105	1.611076
0.208203	1.607702
0.208301	1.601406
0.208398	1.627521
0.208496	1.638190
0.208594	1.624733
0.208691	1.624873
0.208789	1.623829
0.208887	1.626969
0.208984	1.632089
0.209082	1.638253
0.209180	1.652665
0.209277	1.648454
0.209375	1.619462
0.209473	1.626104
0.209570	1.619664
0.209668	1.611706
0.209766	1.606688
0.209863	1.602632
0.209961	1.593211
0.210059	1.575095
0.210156	1.544444
0.210254	1.517542
0.210352	1.534843
0.210449	1.583344
0.210547	1.607997
0.210645	1.616715
0.210742	1.617493
0.210840	1.618865
0.210937	1.619450
0.211035	1.621257
0.211133	1.622447
0.211230	1.624973
0.211328	1.627415
0.211426	1.633576
0.211523	1.644219
0.211621	1.658451
0.211719	1.647133
0.211816	1.635753
0.211914	1.631527
0.212012	1.623225
0.212109	1.619896
0.212207	1.607293
0.212305	1.595679
0.212402	1.576847
0.212500	1.537957
0.212598	1.500127
0.212695	1.507604
0.212793	1.540435
0.212891	1.569639
0.212988	1.609413
0.213086	1.647405
0.213184	1.638828
0.213281	1.630772
0.213379	1.615786
0.213477	1.612907
0.213574	1.615145
0.213672	1.617800
0.213770	1.619565
0.213867	1.620527
0.213965	1.619544
0.214062	1.606961
0.214160	1.578785
0.214258	1.589184
0.214355	1.600588
0.214453	1.602923
0.214551	1.605145
0.214648	1.606114
0.214746	1.603723
0.214844	1.599711
0.214941	1.589468
0.215039	1.571468
0.215137	1.538614
0.215234	1.513104
0.215332	1.571757
0.215430	1.607396
0.215527	1.601037
0.215625	1.623096
0.215723	1.620336
0.215820	1.618398
0.215918	1.620969
0.216016	1.622526
0.216113	1.625893
0.216211	1.628100
0.216309	1.633848
0.216406	1.622602
0.216504	1.613542
0.216602	1.624634
0.216699	1.631552
0.216797	1.630725
0.216895	1.631603
0.216992	1.629817
0.217090	1.620872
0.217187	1.605923
0.217285	1.588859
0.217383	1.575405
0.217480	1.557324
0.217578	1.596923
0.217676	1.630875
0.217773	1.650095
0.217871	1.648349
0.217969	1.635678
0.218066	1.638049
0.218164	1.613176
0.218262	1.611579
0.218359	1.616077
0.218457	1.619884
0.218555	1.619470
0.218652	1.619663
0.218750	1.600347
0.218848	1.579140
0.218945	1.601228
0.219043	1.601640
0.219141	1.612920
0.219238	1.610397
0.219336	1.606073
0.219434	1.598418
0.219531	1.589853
0.219629	1.571642
0.219727	1.548337
0.219824	1.545905
0.219922	1.572784
0.220020	1.596303
0.220117	1.588359
0.220215	1.559851
0.220312	1.569404
0.220410	1.578793
0.220508	1.601641
0.220605	1.607294
0.220703	1.612949
0.220801	1.614838
0.220898	1.617888
0.220996	1.617837
0.221094	1.616559
0.221191	1.595148
0.221289	1.576509
0.221387	1.558579
0.221484	1.572944
0.221582	1.610437
0.221680	1.607734
0.221777	1.611468
0.221875	1.613069
0.221973	1.631629
0.222070	1.628547
0.222168	1.611316
0.222266	1.574761
0.222363	1.570096
0.222461	1.618416
0.222559	1.600329
0.222656	1.571754
0.222754	1.554883
0.222852	1.563692
0.222949	1.594003
0.223047	1.613383
0.223145	1.618384
0.223242	1.627303
0.223340	1.635625
0.223437	1.652791
0.223535	1.657686
0.223633	1.642322
0.223730	1.623606
0.223828	1.602894
0.223926	1.588652
0.224023	1.592505
0.224121	1.610073
0.224219	1.610920
0.224316	1.628206
0.224414	1.639254
0.224512	1.588131
0.224609	1.583668
0.224707	1.619859
0.224805	1.614506
0.224902	1.617845
0.225000	1.628876
0.225098	1.626168
0.225195	1.627089
0.225293	1.624950
0.225391	1.626594
0.225488	1.626162
0.225586	1.630882
0.225684	1.634764
0.225781	1.651113
0.225879	1.656283
0.225977	1.634256
0.226074	1.627654
0.226172	1.616761
0.226270	1.615167
0.226367	1.606532
0.226465	1.606854
0.226562	1.588603
0.226660	1.578693
0.226758	1.579685
0.226855	1.558976
0.226953	1.597153
0.227051	1.616161
0.227148	1.621163
0.227246	1.627193
0.227344	1.630763
0.227441	1.632370
0.227539	1.626570
0.227637	1.622916
0.227734	1.620551
0.227832	1.621437
0.227930	1.620119
0.228027	1.621651
0.228125	1.619005
0.228223	1.617353
0.228320	1.599590
0.228418	1.611654
0.228516	1.593130
0.228613	1.570760
0.228711	1.585751
0.228809	1.576702
0.228906	1.538423
0.229004	1.548055
0.229102	1.584116
0.229199	1.580211
0.229297	1.582318
0.229395	1.558080
0.229492	1.579999
0.229590	1.584850
0.229687	1.584693
0.229785	1.608724
0.229883	1.616954
0.229980	1.619631
0.230078	1.621218
0.230176	1.622799
0.230273	1.624882
0.230371	1.628359
0.230469	1.632857
0.230566	1.638241
0.230664	1.643503
0.230762	1.644974
0.230859	1.630253
0.230957	1.609254
0.231055	1.599371
0.231152	1.602933
0.231250	1.604073
0.231348	1.611236
0.231445	1.604601
0.231543	1.607210
0.231641	1.580995
0.231738	1.586265
0.231836	1.627815
0.231934	1.638124
0.232031	1.648538
0.232129	1.636600
0.232227	1.635732
0.232324	1.631999
0.232422	1.631922
0.232520	1.628451
0.232617	1.628376
0.232715	1.627123
0.232812	1.630105
0.232910	1.633447
0.233008	1.641298
0.233105	1.647152
0.233203	1.648389
0.233301	1.633676
0.233398	1.600289
0.233496	1.608335
0.233594	1.610383
0.233691	1.608904
0.233789	1.605583
0.233887	1.596020
0.233984	1.578124
0.234082	1.555475
0.234180	1.552938
0.234277	1.552533
0.234375	1.550110
0.234473	1.569101
0.234570	1.607861
0.234668	1.618155
0.234766	1.621882
0.234863	1.623235
0.234961	1.624870
0.235059	1.625861
0.235156	1.627418
0.235254	1.628337
0.235352	1.629988
0.235449	1.633263
0.235547	1.641723
0.235645	1.609214
0.235742	1.598862
0.235840	1.614099
0.235937	1.617000
0.236035	1.610139
0.236133	1.605798
0.236230	1.601558
0.236328	1.593883
0.236426	1.577703
0.236523	1.550102
0.236621	1.527793
0.236719	1.541375
0.236816	1.577694
0.236914	1.610291
0.237012	1.614765
0.237109	1.615767
0.237207	1.619461
0.237305	1.620918
0.237402	1.622949
0.237500	1.624646
0.237598	1.626566
0.237695	1.629446
0.237793	1.632967
0.237891	1.638321
0.237988	1.633697
0.238086	1.631437
0.238184	1.627707
0.238281	1.604778
0.238379	1.583582
0.238477	1.586683
0.238574	1.591757
0.238672	1.583203
0.238770	1.566706
0.238867	1.560328
0.238965	1.550869
0.239062	1.569591
0.239160	1.615048
0.239258	1.626642
0.239355	1.651734
0.239453	1.639075
0.239551	1.627035
0.239648	1.637469
0.239746	1.628284
0.239844	1.624683
0.239941	1.628225
0.240039	1.629279
0.240137	1.637211
0.240234	1.605655
0.240332	1.625382
0.240430	1.627944
0.240527	1.625285
0.240625	1.630702
0.240723	1.624621
0.240820	1.601417
0.240918	1.591037
0.241016	1.596460
0.241113	1.572197
0.241211	1.540867
0.241309	1.534095
0.241406	1.570130
0.241504	1.608157
0.241602	1.612269
0.241699	1.618137
0.241797	1.619427
0.241895	1.621188
0.241992	1.621813
0.242090	1.622969
0.242187	1.623960
0.242285	1.625584
0.242383	1.627526
0.242480	1.630064
0.242578	1.636303
0.242676	1.649702
0.242773	1.638458
0.242871	1.635533
0.242969	1.633299
0.243066	1.611076
0.243164	1.613580
0.243262	1.618638
0.243359	1.611067
0.243457	1.608466
0.243555	1.600243
0.243652	1.583001
0.243750	1.553754
0.243848	1.538912
0.243945	1.554011
0.244043	1.580279
0.244141	1.617770
0.244238	1.625102
0.244336	1.626166
0.244434	1.623755
0.244531	1.622361
0.244629	1.622195
0.244727	1.623829
0.244824	1.624902
0.244922	1.627419
0.245020	1.624911
0.245117	1.632977
0.245215	1.644856
0.245312	1.623871
0.245410	1.613924
0.245508	1.609875
0.245605	1.617390
0.245703	1.615205
0.245801	1.601824
0.245898	1.577262
0.245996	1.556479
0.246094	1.539978
0.246191	1.562785
0.246289	1.552118
0.246387	1.543682
0.246484	1.579256
0.246582	1.602181
0.246680	1.619674
0.246777	1.612041
0.246875	1.618644
0.246973	1.618870
0.247070	1.624742
0.247168	1.626098
0.247266	1.631684
0.247363	1.634230
0.247461	1.640514
0.247559	1.638199
0.247656	1.634967
0.247754	1.623486
0.247852	1.602011
0.247949	1.600939
0.248047	1.595465
0.248145	1.600141
0.248242	1.600985
0.248340	1.595451
0.248437	1.580541
0.248535	1.551569
0.248633	1.518821
0.248730	1.547314
0.248828	1.597973
0.248926	1.641994
0.249023	1.649403
0.249121	1.627953
0.249219	1.624515
0.249316	1.622680
0.249414	1.624642
0.249512	1.625221
0.249609	1.628513
0.249707	1.630922
0.249805	1.638512
0.249902	1.645258
0.250000	1.612083
0.250098	1.618639
0.250195	1.632946
0.250293	1.630003
0.250391	1.625147
0.250488	1.624656
0.250586	1.615289
0.250684	1.608324
0.250781	1.611637
0.250879	1.596838
0.250977	1.580009
0.251074	1.590303
0.251172	1.590837
0.251270	1.604212
0.251367	1.624293
0.251465	1.602214
0.251562	1.617904
0.251660	1.632151
0.251758	1.619109
0.251855	1.624346
0.251953	1.623815
0.252051	1.626741
0.252148	1.628384
0.252246	1.632746
0.252344	1.634752
0.252441	1.631228
0.252539	1.629626
0.252637	1.618284
0.252734	1.582251
0.252832	1.607114
0.252930	1.647893
0.253027	1.601113
0.253125	1.587938
0.253223	1.564052
0.253320	1.527709
0.253418	1.505080
0.253516	1.518183
0.253613	1.559318
0.253711	1.579599
0.253809	1.588223
0.253906	1.609101
0.254004	1.615072
0.254102	1.619190
0.254199	1.620993
0.254297	1.621226
0.254395	1.620161
0.254492	1.619064
0.254590	1.615647
0.254687	1.605569
0.254785	1.580073
0.254883	1.571374
0.254980	1.592651
0.255078	1.579759
0.255176	1.587268
0.255273	1.611594
0.255371	1.606685
0.255469	1.595403
0.255566	1.595056
0.255664	1.587750
0.255762	1.541325
0.255859	1.521199
0.255957	1.555988
0.256055	1.585347
0.256152	1.605637
0.256250	1.616238
0.256348	1.616688
0.256445	1.618243
0.256543	1.619168
0.256641	1.621072
0.256738	1.623785
0.256836	1.626548
0.256934	1.630571
0.257031	1.633379
0.257129	1.638995
0.257227	1.640997
0.257324	1.633485
0.257422	1.615061
0.257520	1.598958
0.257617	1.618733
0.257715	1.611316
0.257812	1.607713
0.257910	1.600794
0.258008	1.591533
0.258105	1.602283
0.258203	1.609749
0.258301	1.599981
0.258398	1.589878
0.258496	1.614371
0.258594	1.632159
0.258691	1.622272
0.258789	1.620136
0.258887	1.619615
0.258984	1.622821
0.259082	1.624945
0.259180	1.629281
0.259277	1.633578
0.259375	1.637374
0.259473	1.637989
0.259570	1.646634
0.259668	1.635047
0.259766	1.618887
0.259863	1.620233
0.259961	1.606901
0.260059	1.594825
0.260156	1.607008
0.260254	1.603474
0.260352	1.591193
0.260449	1.546611
0.260547	1.510020
0.260645	1.587587
0.260742	1.636660
0.260840	1.618492
0.260937	1.623638
0.261035	1.628126
0.261133	1.626577
0.261230	1.626577
0.261328	1.624419
0.261426	1.622242
0.261523	1.621489
0.261621	1.621726
0.261719	1.622865
0.261816	1.623428
0.261914	1.623769
0.262012	1.613428
0.262109	1.597726
0.262207	1.579167
0.262305	1.590662
0.262402	1.609570
0.262500	1.601044
0.262598	1.604038
0.262695	1.592421
0.262793	1.568080
0.262891	1.562611
0.262988	1.602671
0.263086	1.602224
0.263184	1.611895
0.263281	1.648796
0.263379	1.641029
0.263477	1.621527
0.263574	1.615686
0.263672	1.619516
0.263770	1.620022
0.263867	1.621994
0.263965	1.621753
0.264062	1.625886
0.264160	1.610367
0.264258	1.620592
0.264355	1.638736
0.264453	1.612850
0.264551	1.580699
0.264648	1.584455
0.264746	1.601147
0.264844	1.597072
0.264941	1.587213
0.265039	1.573051
0.265137	1.550371
0.265234	1.530180
0.265332	1.539321
0.265430	1.554661
0.265527	1.601859
0.265625	1.637405
0.265723	1.628997
0.265820	1.619096
0.265918	1.617600
0.266016	1.618929
0.266113	1.621274
0.266211	1.624887
0.266309	1.629582
0.266406	1.637804
0.266504	1.644306
0.266602	1.624655
0.266699	1.616063
0.266797	1.621822
0.266895	1.619792
0.266992	1.614115
0.267090	1.614014
0.267187	1.612431
0.267285	1.603180
0.267383	1.590348
0.267480	1.574746
0.267578	1.600264
0.267676	1.658389
0.267773	1.665796
0.267871	1.667587
0.267969	1.623394
0.268066	1.601937
0.268164	1.606817
0.268262	1.610507
0.268359	1.616701
0.268457	1.622008
0.268555	1.626947
0.268652	1.635218
0.268750	1.650508
0.268848	1.649058
0.268945	1.659000
0.269043	1.645970
0.269141	1.627643
0.269238	1.615650
0.269336	1.616449
0.269434	1.611945
0.269531	1.608990
0.269629	1.600801
0.269727	1.591311
0.269824	1.561176
0.269922	1.534575
0.270020	1.534891
0.270117	1.537041
0.270215	1.545185
0.270312	1.557712
0.270410	1.562624
0.270508	1.585740
0.270605	1.610139
0.270703	1.620737
0.270801	1.622240
0.270898	1.622957
0.270996	1.625124
0.271094	1.627499
0.271191	1.629387
0.271289	1.630728
0.271387	1.628366
0.271484	1.625308
0.271582	1.604152
0.271680	1.577072
0.271777	1.576330
0.271875	1.581683
0.271973	1.589303
0.272070	1.587490
0.272168	1.579829
0.272266	1.557286
0.272363	1.547553
0.272461	1.537886
0.272559	1.537883
0.272656	1.558470
0.272754	1.615314
0.272852	1.629588
0.272949	1.630782
0.273047	1.629714
0.273145	1.623535
0.273242	1.622600
0.273340	1.623185
0.273437	1.628986
0.273535	1.633168
0.273633	1.654335
0.273730	1.660350
0.273828	1.645414
0.273926	1.622814
0.274023	1.614179
0.274121	1.586358
0.274219	1.576182
0.274316	1.602253
0.274414	1.605892
0.274512	1.587835
0.274609	1.565876
0.274707	1.544079
0.274805	1.520379
0.274902	1.549235
0.275000	1.554603
0.275098	1.588255
0.275195	1.611479
0.275293	1.616102
0.275391	1.615775
0.275488	1.618639
0.275586	1.619146
0.275684	1.622738
0.275781	1.624492
0.275879	1.630554
0.275977	1.630941
0.276074	1.624132
0.276172	1.583484
0.276270	1.564257
0.276367	1.620197
0.276465	1.631848
0.276562	1.624153
0.276660	1.618708
0.276758	1.611460
0.276855	1.595008
0.276953	1.588186
0.277051	1.593414
0.277148	1.603838
0.277246	1.606341
0.277344	1.627668
0.277441	1.638521
0.277539	1.632668
0.277637	1.628001
0.277734	1.624243
0.277832	1.623604
0.277930	1.622420
0.278027	1.623711
0.278125	1.623322
0.278223	1.625236
0.278320	1.621623
0.278418	1.617665
0.278516	1.591275
0.278613	1.607362
0.278711	1.604866
0.278809	1.591530
0.278906	1.594773
0.279004	1.593700
0.279102	1.602643
0.279199	1.603906
0.279297	1.609776
0.279395	1.606212
0.279492	1.574019
0.279590	1.595764
0.279687	1.625700
0.279785	1.614417
0.279883	1.620542
0.279980	1.618860
0.280078	1.623420
0.280176	1.622202
0.280273	1.623677
0.280371	1.623089
0.280469	1.626050
0.280566	1.628454
0.280664	1.634239
0.280762	1.636549
0.280859	1.614856
0.280957	1.605748
0.281055	1.629783
0.281152	1.617994
0.281250	1.580159
0.281348	1.568672
0.281445	1.610324
0.281543	1.607471
0.281641	1.610903
0.281738	1.581813
0.281836	1.547417
0.281934	1.562111
0.282031	1.588600
0.282129	1.581586
0.282227	1.583365
0.282324	1.603669
0.282422	1.609493
0.282520	1.616013
0.282617	1.618493
0.282715	1.621804
0.282812	1.623995
0.282910	1.626885
0.283008	1.631875
0.283105	1.640181
0.283203	1.659348
0.283301	1.646171
0.283398	1.619879
0.283496	1.622145
0.283594	1.618010
0.283691	1.617426
0.283789	1.617129
0.283887	1.600873
0.283984	1.592936
0.284082	1.577193
0.284180	1.563723
0.284277	1.520918
0.284375	1.487816
0.284473	1.523673
0.284570	1.561493
0.284668	1.557183
0.284766	1.591929
0.284863	1.613080
0.284961	1.622908
0.285059	1.620225
0.285156	1.617293
0.285254	1.614772
0.285352	1.614046
0.285449	1.610691
0.285547	1.604396
0.285645	1.572187
0.285742	1.570801
0.285840	1.581450
0.285937	1.570269
0.286035	1.581506
0.286133	1.598600
0.286230	1.592532
0.286328	1.601843
0.286426	1.604401
0.286523	1.618432
0.286621	1.617031
0.286719	1.600837
0.286816	1.616884
0.286914	1.610449
0.287012	1.603449
0.287109	1.593820
0.287207	1.593266
0.287305	1.602141
0.287402	1.611726
0.287500	1.615028
0.287598	1.618752
0.287695	1.622342
0.287793	1.626024
0.287891	1.633828
0.287988	1.639808
0.288086	1.651866
0.288184	1.648739
0.288281	1.637332
0.288379	1.638191
0.288477	1.615505
0.288574	1.605187
0.288672	1.614322
0.288770	1.610900
0.288867	1.591859
0.288965	1.584079
0.289062	1.575671
0.289160	1.571208
0.289258	1.557873
0.289355	1.555302
0.289453	1.573187
0.289551	1.603224
0.289648	1.612003
0.289746	1.617673
0.289844	1.618687
0.289941	1.621179
0.290039	1.621401
0.290137	1.623872
0.290234	1.625160
0.290332	1.631505
0.290430	1.643750
0.290527	1.644170
0.290625	1.610439
0.290723	1.600319
0.290820	1.619165
0.290918	1.617599
0.291016	1.609372
0.291113	1.602430
0.291211	1.586977
0.291309	1.567482
0.291406	1.562532
0.291504	1.598095
0.291602	1.591131
0.291699	1.601934
0.291797	1.643879
0.291895	1.643491
0.291992	1.638645
0.292090	1.615656
0.292187	1.617544
0.292285	1.619712
0.292383	1.621848
0.292480	1.622822
0.292578	1.624831
0.292676	1.625848
0.292773	1.626672
0.292871	1.625480
0.292969	1.615121
0.293066	1.590640
0.293164	1.568971
0.293262	1.581814
0.293359	1.600208
0.293457	1.598834
0.293555	1.597936
0.293652	1.585761
0.293750	1.576996
0.293848	1.563538
0.293945	1.556148
0.294043	1.572090
0.294141	1.570484
0.294238	1.566248
0.294336	1.573722
0.294434	1.604116
0.294531	1.614273
0.294629	1.620143
0.294727	1.621509
0.294824	1.625870
0.294922	1.628879
0.295020	1.636445
0.295117	1.609000
0.295215	1.627816
0.295312	1.631381
0.295410	1.621845
0.295508	1.617349
0.295605	1.614275
0.295703	1.610825
0.295801	1.607446
0.295898	1.581714
0.295996	1.575311
0.296094	1.616955
0.296191	1.633783
0.296289	1.638442
0.296387	1.642142
0.296484	1.637211
0.296582	1.622353
0.296680	1.618528
0.296777	1.618168
0.296875	1.620930
0.296973	1.620927
0.297070	1.623666
0.297168	1.623441
0.297266	1.627232
0.297363	1.626778
0.297461	1.630083
0.297559	1.621531
0.297656	1.612229
0.297754	1.578195
0.297852	1.606572
0.297949	1.632233
0.298047	1.609532
0.298145	1.611596
0.298242	1.604458
0.298340	1.601839
0.298437	1.584898
0.298535	1.560433
0.298633	1.543455
0.298730	1.587585
0.298828	1.613002
0.298926	1.631426
0.299023	1.636423
0.299121	1.630863
0.299219	1.628061
0.299316	1.619234
0.299414	1.618688
0.299512	1.619402
0.299609	1.620495
0.299707	1.622366
0.299805	1.623517
0.299902	1.626927
0.300000	1.624321
0.300098	1.639019
0.300195	1.637186
0.300293	1.639098
0.300391	1.630053
0.300488	1.613828
0.300586	1.608237
0.300684	1.605527
0.300781	1.600806
0.300879	1.598892
0.300977	1.586901
0.301074	1.568691
0.301172	1.565489
0.301270	1.588395
0.301367	1.597713
0.301465	1.577426
0.301562	1.559911
0.301660	1.548570
0.301758	1.593164
0.301855	1.606131
0.301953	1.614893
0.302051	1.617456
0.302148	1.623851
0.302246	1.626342
0.302344	1.635513
0.302441	1.629567
0.302539	1.613066
0.302637	1.615588
0.302734	1.621478
0.302832	1.622383
0.302930	1.621119
0.303027	1.617913
0.303125	1.612334
0.303223	1.600672
0.303320	1.585844
0.303418	1.546726
0.303516	1.552788
0.303613	1.583718
0.303711	1.578720
0.303809	1.587273
0.303906	1.594400
0.304004	1.594986
0.304102	1.611973
0.304199	1.616577
0.304297	1.621690
0.304395	1.624900
0.304492	1.630972
0.304590	1.632059
0.304687	1.642253
0.304785	1.599206
0.304883	1.565966
0.304980	1.586288
0.305078	1.589084
0.305176	1.621178
0.305273	1.605944
0.305371	1.590852
0.305469	1.595126
0.305566	1.608099
0.305664	1.593224
0.305762	1.573465
0.305859	1.565619
0.305957	1.565715
0.306055	1.594308
0.306152	1.584022
0.306250	1.602382
0.306348	1.615421
0.306445	1.620655
0.306543	1.621243
0.306641	1.619799
0.306738	1.621526
0.306836	1.621838
0.306934	1.623320
0.307031	1.624620
0.307129	1.627032
0.307227	1.634726
0.307324	1.631793
0.307422	1.615581
0.307520	1.608208
0.307617	1.619147
0.307715	1.608337
0.307812	1.600790
0.307910	1.594255
0.308008	1.580852
0.308105	1.547457
0.308203	1.526664
0.308301	1.534411
0.308398	1.575479
0.308496	1.614766
0.308594	1.633195
0.308691	1.600367
0.308789	1.581360
0.308887	1.599648
0.308984	1.604332
0.309082	1.615267
0.309180	1.618323
0.309277	1.624823
0.309375	1.628219
0.309473	1.637712
0.309570	1.649965
0.309668	1.654146
0.309766	1.632151
0.309863	1.632076
0.309961	1.624080
0.310059	1.617534
0.310156	1.612891
0.310254	1.608307
0.310352	1.599929
0.310449	1.590866
0.310547	1.572213
0.310645	1.532038
0.310742	1.533347
0.310840	1.598086
0.310937	1.618519
0.311035	1.587933
0.311133	1.584150
0.311230	1.611404
0.311328	1.616846
0.311426	1.616282
0.311523	1.618393
0.311621	1.617902
0.311719	1.616928
0.311816	1.611629
0.311914	1.605122
0.312012	1.613633
0.312109	1.607460
0.312207	1.623651
0.312305	1.621744
0.312402	1.611579
0.312500	1.594864
0.312598	1.586263
0.312695	1.589577
0.312793	1.586115
0.312891	1.590171
0.312988	1.600713
0.313086	1.607758
0.313184	1.609577
0.313281	1.612496
0.313379	1.614373
0.313477	1.614731
0.313574	1.613589
0.313672	1.614923
0.313770	1.615166
0.313867	1.616205
0.313965	1.615408
0.314062	1.615629
0.314160	1.613278
0.314258	1.614875
0.314355	1.614946
0.314453	1.610187
0.314551	1.584343
0.314648	1.570171
0.314746	1.586602
0.314844	1.596396
0.314941	1.612177
0.315039	1.612669
0.315137	1.600448
0.315234	1.583853
0.315332	1.557534
0.315430	1.541147
0.315527	1.552082
0.315625	1.557862
0.315723	1.569891
0.315820	1.586356
0.315918	1.604944
0.316016	1.607441
0.316113	1.611787
0.316211	1.612388
0.316309	1.612552
0.316406	1.609794
0.316504	1.605359
0.316602	1.598473
0.316699	1.593670
0.316797	1.589034
0.316895	1.568798
0.316992	1.577558
0.317090	1.579526
0.317187	1.572661
0.317285	1.585756
0.317383	1.574542
0.317480	1.564139
0.317578	1.542544
0.317676	1.532037
0.317773	1.569760
0.317871	1.588019
0.317969	1.628169
0.318066	1.623682
0.318164	1.607164
0.318262	1.610921
0.318359	1.612548
0.318457	1.619223
0.318555	1.622356
0.318652	1.623986
0.318750	1.624953
0.318848	1.632090
0.318945	1.637628
0.319043	1.649151
0.319141	1.655941
0.319238	1.634186
0.319336	1.618473
0.319434	1.600348
0.319531	1.594024
0.319629	1.593394
0.319727	1.593442
0.319824	1.586519
0.319922	1.581970
0.320020	1.567389
0.320117	1.551336
0.320215	1.564692
0.320312	1.616917
0.320410	1.629469
0.320508	1.614137
0.320605	1.593054
0.320703	1.604129
0.320801	1.618248
0.320898	1.619545
0.320996	1.620496
0.321094	1.623184
0.321191	1.624183
0.321289	1.632677
0.321387	1.635985
0.321484	1.655760
0.321582	1.677437
0.321680	1.676562
0.321777	1.668321
0.321875	1.638800
0.321973	1.630429
0.322070	1.616631
0.322168	1.605611
0.322266	1.592818
0.322363	1.574217
0.322461	1.547901
0.322559	1.533730
0.322656	1.543184
0.322754	1.568208
0.322852	1.593425
0.322949	1.609263
0.323047	1.619286
0.323145	1.620880
0.323242	1.620434
0.323340	1.618999
0.323437	1.618956
0.323535	1.617356
0.323633	1.617453
0.323730	1.614763
0.323828	1.613521
0.323926	1.605828
0.324023	1.601800
0.324121	1.590393
0.324219	1.593241
0.324316	1.590469
0.324414	1.581496
0.324512	1.592981
0.324609	1.599788
0.324707	1.586686
0.324805	1.581059
0.324902	1.586011
0.325000	1.598618
0.325098	1.603051
0.325195	1.586483
0.325293	1.562979
0.325391	1.600519
0.325488	1.617209
0.325586	1.614956
0.325684	1.618188
0.325781	1.617736
0.325879	1.621714
0.325977	1.622813
0.326074	1.627086
0.326172	1.629710
0.326270	1.637069
0.326367	1.641834
0.326465	1.655237
0.326562	1.633501
0.326660	1.622675
0.326758	1.621247
0.326855	1.617542
0.326953	1.612576
0.327051	1.606175
0.327148	1.590508
0.327246	1.575697
0.327344	1.554834
0.327441	1.536947
0.327539	1.549510
0.327637	1.551864
0.327734	1.578619
0.327832	1.611451
0.327930	1.625665
0.328027	1.628559
0.328125	1.618497
0.328223	1.618713
0.328320	1.617476
0.328418	1.619984
0.328516	1.617957
0.328613	1.619805
0.328711	1.614658
0.328809	1.617784
0.328906	1.587896
0.329004	1.584451
0.329102	1.570213
0.329199	1.571648
0.329297	1.581309
0.329395	1.603298
0.329492	1.618607
0.329590	1.574475
0.329687	1.546331
0.329785	1.573120
0.329883	1.601893
0.329980	1.609174
0.330078	1.608396
0.330176	1.615355
0.330273	1.617600
0.330371	1.617713
0.330469	1.618837
0.330566	1.618537
0.330664	1.619281
0.330762	1.618933
0.330859	1.619630
0.330957	1.618674
0.331055	1.617992
0.331152	1.613765
0.331250	1.605414
0.331348	1.583087
0.331445	1.570339
0.331543	1.579535
0.331641	1.614680
0.331738	1.615418
0.331836	1.606643
0.331934	1.603035
0.332031	1.593042
0.332129	1.581691
0.332227	1.590905
0.332324	1.595647
0.332422	1.576952
0.332520	1.566917
0.332617	1.598635
0.332715	1.623657
0.332812	1.615363
0.332910	1.617669
0.333008	1.618468
0.333105	1.618550
0.333203	1.620946
0.333301	1.622887
0.333398	1.627816
0.333496	1.636256
0.333594	1.662395
0.333691	1.677560
0.333789	1.677554
0.333887	1.647058
0.333984	1.602360
0.334082	1.562570
0.334180	1.538542
0.334277	1.554680
0.334375	1.561208
0.334473	1.560225
0.334570	1.577922
0.334668	1.592483
0.334766	1.574723
0.334863	1.571481
0.334961	1.600358
0.335059	1.613793
0.335156	1.619242
0.335254	1.619150
0.335352	1.621299
0.335449	1.621836
0.335547	1.624485
0.335645	1.625394
0.335742	1.628964
0.335840	1.630228
0.335937	1.633911
0.336035	1.628241
0.336133	1.626083
0.336230	1.613500
0.336328	1.603731
0.336426	1.609337
0.336523	1.610870
0.336621	1.608343
0.336719	1.603771
0.336816	1.595879
0.336914	1.564244
0.337012	1.516990
0.337109	1.537561
0.337207	1.563076
0.337305	1.584009
0.337402	1.612907
0.337500	1.609068
0.337598	1.609421
0.337695	1.614483
0.337793	1.617783
0.337891	1.621185
0.337988	1.623663
0.338086	1.626454
0.338184	1.627420
0.338281	1.628060
0.338379	1.617713
0.338477	1.585167
0.338574	1.571962
0.338672	1.606995
0.338770	1.630550
0.338867	1.609779
0.338965	1.599478
0.339062	1.593048
0.339160	1.581435
0.339258	1.562566
0.339355	1.549266
0.339453	1.555347
0.339551	1.555424
0.339648	1.563202
0.339746	1.576365
0.339844	1.593546
0.339941	1.606735
0.340039	1.612611
0.340137	1.615988
0.340234	1.621215
0.340332	1.621796
0.340430	1.627345
0.340527	1.624191
0.340625	1.624895
0.340723	1.568220
0.340820	1.601926
0.340918	1.625610
0.341016	1.624524
0.341113	1.617417
0.341211	1.607488
0.341309	1.611537
0.341406	1.612041
0.341504	1.617924
0.341602	1.582519
0.341699	1.580011
0.341797	1.590448
0.341895	1.578762
0.341992	1.591367
0.342090	1.587541
0.342187	1.581875
0.342285	1.608186
0.342383	1.620176
0.342480	1.621968
0.342578	1.624127
0.342676	1.626980
0.342773	1.632771
0.342871	1.635096
0.342969	1.634020
0.343066	1.632320
0.343164	1.627366
0.343262	1.583616
0.343359	1.553033
0.343457	1.560761
0.343555	1.584078
0.343652	1.590393
0.343750	1.584407
0.343848	1.571635
0.343945	1.568339
0.344043	1.573029
0.344141	1.607078
0.344238	1.630041
0.344336	1.633000
0.344434	1.639684
0.344531	1.624957
0.344629	1.611192
0.344727	1.587604
0.344824	1.609971
0.344922	1.614654
0.345020	1.619174
0.345117	1.616846
0.345215	1.616205
0.345312	1.606836
0.345410	1.596269
0.345508	1.579390
0.345605	1.562638
0.345703	1.560752
0.345801	1.558710
0.345898	1.595377
0.345996	1.603467
0.346094	1.603801
0.346191	1.598270
0.346289	1.591441
0.346387	1.559028
0.346484	1.538383
0.346582	1.554343
0.346680	1.620114
0.346777	1.642225
0.346875	1.625925
0.346973	1.622186
0.347070	1.619302
0.347168	1.621262
0.347266	1.620721
0.347363	1.622524
0.347461	1.621332
0.347559	1.620639
0.347656	1.611675
0.347754	1.589798
0.347852	1.575203
0.347949	1.575424
0.348047	1.575162
0.348145	1.549096
0.348242	1.544485
0.348340	1.575964
0.348437	1.593319
0.348535	1.582743
0.348633	1.564796
0.348730	1.539245
0.348828	1.493796
0.348926	1.506327
0.349023	1.533376
0.349121	1.545318
0.349219	1.568594
0.349316	1.595429
0.349414	1.621866
0.349512	1.616960
0.349609	1.618861
0.349707	1.621870
0.349805	1.628353
0.349902	1.632295
0.350000	1.643394
0.350098	1.641042
0.350195	1.623658
0.350293	1.610124
0.350391	1.588300
0.350488	1.604141
0.350586	1.612003
0.350684	1.578292
0.350781	1.542747
0.350879	1.590627
0.350977	1.585256
0.351074	1.581800
0.351172	1.549535
0.351270	1.556140
0.351367	1.610293
0.351465	1.634424
0.351562	1.623017
0.351660	1.622008
0.351758	1.621756
0.351855	1.623137
0.351953	1.623989
0.352051	1.626372
0.352148	1.629113
0.352246	1.635447
0.352344	1.642924
0.352441	1.651491
0.352539	1.629416
0.352637	1.611650
0.352734	1.611950
0.352832	1.602094
0.352930	1.601317
0.353027	1.557643
0.353125	1.514340
0.353223	1.532039
0.353320	1.583551
0.353418	1.585456
0.353516	1.582255
0.353613	1.582988
0.353711	1.599246
0.353809	1.623874
0.353906	1.619882
0.354004	1.621820
0.354102	1.619245
0.354199	1.620502
0.354297	1.619972
0.354395	1.621723
0.354492	1.621802
0.354590	1.623309
0.354687	1.623734
0.354785	1.626265
0.354883	1.630471
0.354980	1.632145
0.355078	1.634028
0.355176	1.610438
0.355273	1.588466
0.355371	1.587231
0.355469	1.589498
0.355566	1.595042
0.355664	1.593430
0.355762	1.581754
0.355859	1.569397
0.355957	1.549466
0.356055	1.564832
0.356152	1.593476
0.356250	1.604121
0.356348	1.616538
0.356445	1.614226
0.356543	1.618976
0.356641	1.617650
0.356738	1.619291
0.356836	1.618899
0.356934	1.618287
0.357031	1.620703
0.357129	1.621885
0.357227	1.626300
0.357324	1.626461
0.357422	1.636541
0.357520	1.610820
0.357617	1.625800
0.357715	1.630368
0.357812	1.612501
0.357910	1.619659
0.358008	1.608383
0.358105	1.603836
0.358203	1.585604
0.358301	1.576230
0.358398	1.552694
0.358496	1.567816
0.358594	1.624468
0.358691	1.655785
0.358789	1.633761
0.358887	1.624184
0.358984	1.622764
0.359082	1.622515
0.359180	1.622611
0.359277	1.624571
0.359375	1.625445
0.359473	1.629730
0.359570	1.629338
0.359668	1.630949
0.359766	1.601164
0.359863	1.593442
0.359961	1.615169
0.360059	1.615624
0.360156	1.618270
0.360254	1.613040
0.360352	1.607194
0.360449	1.598852
0.360547	1.585377
0.360645	1.566529
0.360742	1.552560
0.360840	1.553945
0.360937	1.598435
0.361035	1.597758
0.361133	1.612023
0.361230	1.630080
0.361328	1.636847
0.361426	1.616944
0.361523	1.609131
0.361621	1.613371
0.361719	1.617694
0.361816	1.622526
0.361914	1.625236
0.362012	1.627242
0.362109	1.624026
0.362207	1.610561
0.362305	1.580593
0.362402	1.582970
0.362500	1.608013
0.362598	1.605949
0.362695	1.601558
0.362793	1.606331
0.362891	1.602028
0.362988	1.608116
0.363086	1.590993
0.363184	1.568473
0.363281	1.596394
0.363379	1.566927
0.363477	1.565908
0.363574	1.598629
0.363672	1.589956
0.363770	1.599268
0.363867	1.616107
0.363965	1.613879
0.364062	1.619005
0.364160	1.619391
0.364258	1.622201
0.364355	1.623486
0.364453	1.626911
0.364551	1.631439
0.364648	1.638427
0.364746	1.637169
0.364844	1.608180
0.364941	1.598895
0.365039	1.629213
0.365137	1.627912
0.365234	1.635453
0.365332	1.610547
0.365430	1.599550
0.365527	1.589000
0.365625	1.524331
0.365723	1.581042
0.365820	1.625780
0.365918	1.642153
0.366016	1.636871
0.366113	1.631168
0.366211	1.629494
0.366309	1.625870
0.366406	1.626506
0.366504	1.628042
0.366602	1.633102
0.366699	1.640708
0.366797	1.655287
0.366895	1.652263
0.366992	1.630356
0.367090	1.618410
0.367187	1.611659
0.367285	1.572002
0.367383	1.598835
0.367480	1.610101
0.367578	1.606236
0.367676	1.601004
0.367773	1.572656
0.367871	1.522045
0.367969	1.574951
0.368066	1.630614
0.368164	1.640259
0.368262	1.636957
0.368359	1.632620
0.368457	1.629224
0.368555	1.626846
0.368652	1.624601
0.368750	1.623898
0.368848	1.622433
0.368945	1.623579
0.369043	1.622636
0.369141	1.626611
0.369238	1.626423
0.369336	1.637704
0.369434	1.624678
0.369531	1.593935
0.369629	1.600907
0.369727	1.601777
0.369824	1.599068
0.369922	1.593302
0.370020	1.593371
0.370117	1.579897
0.370215	1.571897
0.370312	1.568138
0.370410	1.542547
0.370508	1.570718
0.370605	1.621644
0.370703	1.625017
0.370801	1.623906
0.370898	1.622347
0.370996	1.622132
0.371094	1.621196
0.371191	1.621614
0.371289	1.620955
0.371387	1.621639
0.371484	1.620839
0.371582	1.621741
0.371680	1.619400
0.371777	1.620260
0.371875	1.612647
0.371973	1.589232
0.372070	1.585159
0.372168	1.607750
0.372266	1.602592
0.372363	1.589125
0.372461	1.582616
0.372559	1.565669
0.372656	1.528552
0.372754	1.515680
0.372852	1.551337
0.372949	1.556481
0.373047	1.558886
0.373145	1.552572
0.373242	1.551894
0.373340	1.578201
0.373437	1.601892
0.373535	1.611886
0.373633	1.618120
0.373730	1.621086
0.373828	1.624719
0.373926	1.626512
0.374023	1.630479
0.374121	1.629432
0.374219	1.629078
0.374316	1.629545
0.374414	1.612770
0.374512	1.616687
0.374609	1.608318
0.374707	1.612533
0.374805	1.603224
0.374902	1.590633
0.375000	1.575657
0.375098	1.557480
0.375195	1.546947
0.375293	1.530134
0.375391	1.564246
0.375488	1.592574
0.375586	1.608684
0.375684	1.617586
0.375781	1.623370
0.375879	1.622097
0.375977	1.622564
0.376074	1.622942
0.376172	1.626870
0.376270	1.630309
0.376367	1.652561
0.376465	1.646995
0.376562	1.608051
0.376660	1.619333
0.376758	1.613933
0.376855	1.614256
0.376953	1.612180
0.377051	1.612123
0.377148	1.582400
0.377246	1.546719
0.377344	1.526517
0.377441	1.519008
0.377539	1.523881
0.377637	1.532456
0.377734	1.537276
0.377832	1.572874
0.377930	1.602281
0.378027	1.612232
0.378125	1.616368
0.378223	1.619291
0.378320	1.620714
0.378418	1.622017
0.378516	1.622824
0.378613	1.622584
0.378711	1.622306
0.378809	1.618018
0.378906	1.612044
0.379004	1.608140
0.379102	1.582824
0.379199	1.607609
0.379297	1.650702
0.379395	1.625977
0.379492	1.598750
0.379590	1.592260
0.379687	1.584864
0.379785	1.595586
0.379883	1.558641
0.379980	1.534374
0.380078	1.569735
0.380176	1.588327
0.380273	1.605374
0.380371	1.621855
0.380469	1.592454
0.380566	1.607072
0.380664	1.617446
0.380762	1.613295
0.380859	1.614796
0.380957	1.614828
0.381055	1.614311
0.381152	1.611605
0.381250	1.606016
0.381348	1.595148
0.381445	1.573733
0.381543	1.542900
0.381641	1.527445
0.381738	1.530903
0.381836	1.550097
0.381934	1.570593
0.382031	1.574557
0.382129	1.556386
0.382227	1.539365
0.382324	1.553164
0.382422	1.590517
0.382520	1.613514
0.382617	1.608371
0.382715	1.631629
0.382812	1.640359
0.382910	1.622971
0.383008	1.619600
0.383105	1.619427
0.383203	1.623362
0.383301	1.627146
0.383398	1.633222
0.383496	1.639803
0.383594	1.641665
0.383691	1.628623
0.383789	1.615828
0.383887	1.624126
0.383984	1.604133
0.384082	1.595652
0.384180	1.608493
0.384277	1.598450
0.384375	1.589787
0.384473	1.572600
0.384570	1.548475
0.384668	1.519867
0.384766	1.512962
0.384863	1.538218
0.384961	1.576752
0.385059	1.602969
0.385156	1.613055
0.385254	1.616895
0.385352	1.621058
0.385449	1.622512
0.385547	1.626398
0.385645	1.627740
0.385742	1.633589
0.385840	1.636095
0.385937	1.647592
0.386035	1.644126
0.386133	1.626662
0.386230	1.634582
0.386328	1.615373
0.386426	1.615594
0.386523	1.606751
0.386621	1.603485
0.386719	1.593994
0.386816	1.576880
0.386914	1.545380
0.387012	1.498199
0.387109	1.490840
0.387207	1.549797
0.387305	1.563918
0.387402	1.583903
0.387500	1.575245
0.387598	1.564196
0.387695	1.584166
0.387793	1.595880
0.387891	1.609635
0.387988	1.605503
0.388086	1.611581
0.388184	1.614168
0.388281	1.620156
0.388379	1.620036
0.388477	1.604407
0.388574	1.610331
0.388672	1.628452
0.388770	1.618694
0.388867	1.612415
0.388965	1.618987
0.389062	1.603118
0.389160	1.591298
0.389258	1.568436
0.389355	1.564126
0.389453	1.547868
0.389551	1.572017
0.389648	1.601852
0.389746	1.611341
0.389844	1.622215
0.389941	1.627494
0.390039	1.615546
0.390137	1.618780
0.390234	1.617175
0.390332	1.621683
0.390430	1.621598
0.390527	1.626082
0.390625	1.622409
0.390723	1.620732
0.390820	1.593494
0.390918	1.571822
0.391016	1.602764
0.391113	1.612321
0.391211	1.614207
0.391309	1.613344
0.391406	1.613506
0.391504	1.605775
0.391602	1.570505
0.391699	1.579381
0.391797	1.606005
0.391895	1.595001
0.391992	1.581270
0.392090	1.563481
0.392187	1.563864
0.392285	1.588847
0.392383	1.607895
0.392480	1.612269
0.392578	1.617332
0.392676	1.617722
0.392773	1.621042
0.392871	1.621033
0.392969	1.625486
0.393066	1.623309
0.393164	1.620033
0.393262	1.592827
0.393359	1.589511
0.393457	1.605181
0.393555	1.612808
0.393652	1.572229
0.393750	1.537035
0.393848	1.567873
0.393945	1.570611
0.394043	1.569013
0.394141	1.561389
0.394238	1.547527
0.394336	1.563384
0.394434	1.611146
0.394531	1.633072
0.394629	1.632268
0.394727	1.623958
0.394824	1.618984
0.394922	1.617990
0.395020	1.618652
0.395117	1.620463
0.395215	1.620981
0.395312	1.623323
0.395410	1.624809
0.395508	1.631630
0.395605	1.633163
0.395703	1.642004
0.395801	1.623384
0.395898	1.611861
0.395996	1.614332
0.396094	1.613207
0.396191	1.613252
0.396289	1.604171
0.396387	1.585499
0.396484	1.552034
0.396582	1.547403
0.396680	1.561818
0.396777	1.564737
0.396875	1.583132
0.396973	1.594941
0.397070	1.580031
0.397168	1.601857
0.397266	1.619112
0.397363	1.619507
0.397461	1.622451
0.397559	1.622462
0.397656	1.624156
0.397754	1.624129
0.397852	1.627012
0.397949	1.638565
0.398047	1.666089
0.398145	1.606392
0.398242	1.606667
0.398340	1.625189
0.398437	1.624364
0.398535	1.622279
0.398633	1.606771
0.398730	1.596583
0.398828	1.579023
0.398926	1.565322
0.399023	1.584974
0.399121	1.635722
0.399219	1.658742
0.399316	1.641266
0.399414	1.634870
0.399512	1.634077
0.399609	1.631964
0.399707	1.629667
0.399805	1.627611
0.399902	1.627459
0.400000	1.629729
0.400098	1.635541
0.400195	1.640799
0.400293	1.640663
0.400391	1.615498
0.400488	1.600832
0.400586	1.608113
0.400684	1.614907
0.400781	1.612399
0.400879	1.607994
0.400977	1.600766
0.401074	1.586562
0.401172	1.560894
0.401270	1.525967
0.401367	1.548018
0.401465	1.613417
0.401562	1.632668
0.401660	1.613493
0.401758	1.612080
0.401855	1.619785
0.401953	1.621212
0.402051	1.623978
0.402148	1.622702
0.402246	1.623683
0.402344	1.622966
0.402441	1.627356
0.402539	1.633233
0.402637	1.656864
0.402734	1.653532
0.402832	1.635924
0.402930	1.612521
0.403027	1.596791
0.403125	1.610769
0.403223	1.610635
0.403320	1.600309
0.403418	1.603943
0.403516	1.596854
0.403613	1.560582
0.403711	1.536866
0.403809	1.523754
0.403906	1.545305
0.404004	1.575019
0.404102	1.603328
0.404199	1.619685
0.404297	1.622126
0.404395	1.619990
0.404492	1.619045
0.404590	1.620155
0.404687	1.621556
0.404785	1.624388
0.404883	1.627954
0.404980	1.634025
0.405078	1.638844
0.405176	1.636382
0.405273	1.597588
0.405371	1.607450
0.405469	1.615924
0.405566	1.618332
0.405664	1.620443
0.405762	1.617155
0.405859	1.605850
0.405957	1.583870
0.406055	1.549137
0.406152	1.544617
0.406250	1.580995
0.406348	1.587917
0.406445	1.572709
0.406543	1.582043
0.406641	1.631262
0.406738	1.628434
0.406836	1.624674
0.406934	1.622806
0.407031	1.623858
0.407129	1.625330
0.407227	1.628744
0.407324	1.632109
0.407422	1.630364
0.407520	1.608151
0.407617	1.605913
0.407715	1.600870
0.407812	1.590443
0.407910	1.609037
0.408008	1.613519
0.408105	1.612883
0.408203	1.603829
0.408301	1.585610
0.408398	1.548396
0.408496	1.525467
0.408594	1.547016
0.408691	1.594304
0.408789	1.624504
0.408887	1.622218
0.408984	1.614677
0.409082	1.616576
0.409180	1.618027
0.409277	1.619606
0.409375	1.620438
0.409473	1.621005
0.409570	1.620960
0.409668	1.620476
0.409766	1.618890
0.409863	1.614231
0.409961	1.609994
0.410059	1.598119
0.410156	1.565990
0.410254	1.588161
0.410352	1.614247
0.410449	1.611083
0.410547	1.610009
0.410645	1.595811
0.410742	1.582245
0.410840	1.570630
0.410937	1.593817
0.411035	1.624546
0.411133	1.634419
0.411230	1.636719
0.411328	1.631212
0.411426	1.627235
0.411523	1.625088
0.411621	1.623083
0.411719	1.622531
0.411816	1.620458
0.411914	1.620601
0.412012	1.617371
0.412109	1.617664
0.412207	1.612100
0.412305	1.611682
0.412402	1.597395
0.412500	1.598840
0.412598	1.582716
0.412695	1.556979
0.412793	1.597418
0.412891	1.621788
0.412988	1.611999
0.413086	1.586672
0.413184	1.571101
0.413281	1.580851
0.413379	1.591556
0.413477	1.571195
0.413574	1.596335
0.413672	1.618412
0.413770	1.635328
0.413867	1.637861
0.413965	1.629407
0.414062	1.623598
0.414160	1.622146
0.414258	1.620983
0.414355	1.623097
0.414453	1.623230
0.414551	1.626788
0.414648	1.628092
0.414746	1.637948
0.414844	1.638458
0.414941	1.602756
0.415039	1.568569
0.415137	1.599958
0.415234	1.609649
0.415332	1.595173
0.415430	1.600608
0.415527	1.611626
0.415625	1.586155
0.415723	1.560815
0.415820	1.559837
0.415918	1.576123
0.416016	1.594196
0.416113	1.602282
0.416211	1.606884
0.416309	1.609280
0.416406	1.615034
0.416504	1.620221
0.416602	1.621428
0.416699	1.624561
0.416797	1.625025
0.416895	1.629163
0.416992	1.629673
0.417090	1.639071
0.417187	1.636154
0.417285	1.646360
0.417383	1.654807
0.417480	1.628887
0.417578	1.624214
0.417676	1.614517
0.417773	1.610043
0.417871	1.599321
0.417969	1.589210
0.418066	1.570244
0.418164	1.567706
0.418262	1.586123
0.418359	1.607180
0.418457	1.606861
0.418555	1.615598
0.418652	1.620821
0.418750	1.622510
0.418848	1.622841
0.418945	1.623289
0.419043	1.622504
0.419141	1.622816
0.419238	1.620812
0.419336	1.619483
0.419434	1.611784
0.419531	1.596671
0.419629	1.567150
0.419727	1.602568
0.419824	1.620502
0.419922	1.615361
0.420020	1.618161
0.420117	1.605065
0.420215	1.583789
0.420312	1.541374
0.420410	1.502271
0.420508	1.526746
0.420605	1.574815
0.420703	1.618491
0.420801	1.644204
0.420898	1.630608
0.420996	1.623136
0.421094	1.621878
0.421191	1.622288
0.421289	1.622605
0.421387	1.622945
0.421484	1.623687
0.421582	1.623391
0.421680	1.623412
0.421777	1.619467
0.421875	1.614726
0.421973	1.590415
0.422070	1.589759
0.422168	1.588209
0.422266	1.570014
0.422363	1.560830
0.422461	1.578777
0.422559	1.578303
0.422656	1.562842
0.422754	1.525865
0.422852	1.516082
0.422949	1.541091
0.423047	1.545124
0.423145	1.552607
0.423242	1.572409
0.423340	1.606972
0.423437	1.621416
0.423535	1.628394
0.423633	1.619375
0.423730	1.617003
0.423828	1.617494
0.423926	1.617653
0.424023	1.618309
0.424121	1.614207
0.424219	1.600677
0.424316	1.561724
0.424414	1.574644
0.424512	1.621124
0.424609	1.624601
0.424707	1.615584
0.424805	1.603107
0.424902	1.597070
0.425000	1.579067
0.425098	1.557823
0.425195	1.525506
0.425293	1.525118
0.425391	1.564438
0.425488	1.586990
0.425586	1.600500
0.425684	1.577800
0.425781	1.610992
0.425879	1.615338
0.425977	1.604943
0.426074	1.602689
0.426172	1.615341
0.426270	1.610369
0.426367	1.620089
0.426465	1.608760
0.426562	1.652712
0.426660	1.613212
0.426758	1.561461
0.426855	1.609680
0.426953	1.627841
0.427051	1.629330
0.427148	1.591061
0.427246	1.606103
0.427344	1.628940
0.427441	1.612818
0.427539	1.584998
0.427637	1.580089
0.427734	1.562563
0.427832	1.595183
0.427930	1.623517
0.428027	1.624532
0.428125	1.623454
0.428223	1.623179
0.428320	1.623776
0.428418	1.623655
0.428516	1.624793
0.428613	1.624938
0.428711	1.627594
0.428809	1.627500
0.428906	1.627879
0.429004	1.613830
0.429102	1.588223
0.429199	1.571725
0.429297	1.579515
0.429395	1.637986
0.429492	1.640348
0.429590	1.615340
0.429687	1.603340
0.429785	1.596634
0.429883	1.602557
0.429980	1.613341
0.430078	1.607205
0.430176	1.611194
0.430273	1.606181
0.430371	1.595938
0.430469	1.613107
0.430566	1.622127
0.430664	1.615394
0.430762	1.615679
0.430859	1.618116
0.430957	1.618766
0.431055	1.622187
0.431152	1.625622
0.431250	1.653506
0.431348	1.678067
0.431445	1.654029
0.431543	1.618834
0.431641	1.591828
0.431738	1.588886
0.431836	1.606349
0.431934	1.602994
0.432031	1.594770
0.432129	1.585096
0.432227	1.564894
0.432324	1.538794
0.432422	1.522187
0.432520	1.523046
0.432617	1.521182
0.432715	1.545125
0.432812	1.591801
0.432910	1.608778
0.433008	1.615419
0.433105	1.618107
0.433203	1.620194
0.433301	1.621470
0.433398	1.622966
0.433496	1.624613
0.433594	1.626531
0.433691	1.628616
0.433789	1.627491
0.433887	1.608291
0.433984	1.568507
0.434082	1.569635
0.434180	1.607005
0.434277	1.604464
0.434375	1.606166
0.434473	1.597940
0.434570	1.587893
0.434668	1.575955
0.434766	1.554759
0.434863	1.527104
0.434961	1.521815
0.435059	1.543498
0.435156	1.568616
0.435254	1.604397
0.435352	1.618160
0.435449	1.622196
0.435547	1.621548
0.435645	1.622313
0.435742	1.621524
0.435840	1.623212
0.435937	1.622372
0.436035	1.624651
0.436133	1.621459
0.436230	1.618862
0.436328	1.610302
0.436426	1.585531
0.436523	1.597787
0.436621	1.607022
0.436719	1.611607
0.436816	1.605856
0.436914	1.597023
0.437012	1.590448
0.437109	1.591365
0.437207	1.555927
0.437305	1.587758
0.437402	1.625859
0.437500	1.627633
0.437598	1.620734
0.437695	1.612580
0.437793	1.633604
0.437891	1.614979
0.437988	1.617094
0.438086	1.607119
0.438184	1.616722
0.438281	1.619992
0.438379	1.622846
0.438477	1.623738
0.438574	1.615992
0.438672	1.583261
0.438770	1.568689
0.438867	1.579439
0.438965	1.579130
0.439062	1.578605
0.439160	1.598169
0.439258	1.594069
0.439355	1.584649
0.439453	1.538272
0.439551	1.528475
0.439648	1.578524
0.439746	1.592676
0.439844	1.603927
0.439941	1.582223
0.440039	1.568937
0.440137	1.554013
0.440234	1.518360
0.440332	1.499206
0.440430	1.515771
0.440527	1.555576
0.440625	1.588863
0.440723	1.605983
0.440820	1.616628
0.440918	1.617924
0.441016	1.628754
0.441113	1.640380
0.441211	1.626534
0.441309	1.594843
0.441406	1.592597
0.441504	1.610102
0.441602	1.604501
0.441699	1.589140
0.441797	1.563218
0.441895	1.520592
0.441992	1.529359
0.442090	1.590496
0.442187	1.642278
0.442285	1.639888
0.442383	1.628986
0.442480	1.630221
0.442578	1.626925
0.442676	1.625078
0.442773	1.624157
0.442871	1.624240
0.442969	1.626956
0.443066	1.628950
0.443164	1.638409
0.443262	1.633111
0.443359	1.646374
0.443457	1.630774
0.443555	1.600663
0.443652	1.600457
0.443750	1.603690
0.443848	1.613118
0.443945	1.603935
0.444043	1.594051
0.444141	1.583157
0.444238	1.570038
0.444336	1.549632
0.444434	1.528850
0.444531	1.534373
0.444629	1.554895
0.444727	1.574793
0.444824	1.575289
0.444922	1.560342
0.445020	1.594683
0.445117	1.611097
0.445215	1.615437
0.445312	1.620898
0.445410	1.622381
0.445508	1.626047
0.445605	1.622310
0.445703	1.611380
0.445801	1.580577
0.445898	1.589621
0.445996	1.608996
0.446094	1.610308
0.446191	1.615749
0.446289	1.607299
0.446387	1.605733
0.446484	1.592257
0.446582	1.581633
0.446680	1.564800
0.446777	1.535487
0.446875	1.565309
0.446973	1.607456
0.447070	1.620028
0.447168	1.628023
0.447266	1.626351
0.447363	1.623748
0.447461	1.625315
0.447559	1.624859
0.447656	1.626420
0.447754	1.628294
0.447852	1.634824
0.447949	1.642805
0.448047	1.649565
0.448145	1.638837
0.448242	1.600941
0.448340	1.571211
0.448437	1.583647
0.448535	1.598012
0.448633	1.596657
0.448730	1.594081
0.448828	1.582566
0.448926	1.563726
0.449023	1.513834
0.449121	1.490519
0.449219	1.533102
0.449316	1.561059
0.449414	1.595420
0.449512	1.615366
0.449609	1.621248
0.449707	1.619723
0.449805	1.618819
0.449902	1.618179
0.450000	1.619267
0.450098	1.619649
0.450195	1.624681
0.450293	1.634823
0.450391	1.650657
0.450488	1.640754
0.450586	1.636596
0.450684	1.641738
0.450781	1.639359
0.450879	1.635772
0.450977	1.613694
0.451074	1.605625
0.451172	1.599218
0.451270	1.581400
0.451367	1.543567
0.451465	1.517430
0.451562	1.539760
0.451660	1.569502
0.451758	1.603776
0.451855	1.628173
0.451953	1.626143
0.452051	1.626018
0.452148	1.622308
0.452246	1.622950
0.452344	1.621619
0.452441	1.623729
0.452539	1.624928
0.452637	1.628352
0.452734	1.611024
0.452832	1.591366
0.452930	1.577283
0.453027	1.600052
0.453125	1.621665
0.453223	1.624100
0.453320	1.621329
0.453418	1.610007
0.453516	1.596417
0.453613	1.576203
0.453711	1.538355
0.453809	1.514402
0.453906	1.544769
0.454004	1.587765
0.454102	1.603082
0.454199	1.605267
0.454297	1.613552
0.454395	1.616153
0.454492	1.618709
0.454590	1.619034
0.454687	1.620968
0.454785	1.622952
0.454883	1.626176
0.454980	1.629579
0.455078	1.631295
0.455176	1.629593
0.455273	1.611020
0.455371	1.571861
0.455469	1.576982
0.455566	1.593816
0.455664	1.602466
0.455762	1.603843
0.455859	1.600364
0.455957	1.587400
0.456055	1.562617
0.456152	1.538398
0.456250	1.549496
0.456348	1.577514
0.456445	1.598679
0.456543	1.614553
0.456641	1.619469
0.456738	1.619087
0.456836	1.619849
0.456934	1.620783
0.457031	1.622113
0.457129	1.623272
0.457227	1.625028
0.457324	1.627076
0.457422	1.631218
0.457520	1.639539
0.457617	1.651066
0.457715	1.637881
0.457812	1.622354
0.457910	1.610463
0.458008	1.597982
0.458105	1.578112
0.458203	1.588325
0.458301	1.586739
0.458398	1.561134
0.458496	1.534529
0.458594	1.522462
0.458691	1.534852
0.458789	1.530896
0.458887	1.565866
0.458984	1.599526
0.459082	1.611377
0.459180	1.619291
0.459277	1.624114
0.459375	1.625731
0.459473	1.622460
0.459570	1.619942
0.459668	1.617855
0.459766	1.618187
0.459863	1.616473
0.459961	1.614170
0.460059	1.601989
0.460156	1.607644
0.460254	1.616120
0.460352	1.593758
0.460449	1.594794
0.460547	1.599117
0.460645	1.602169
0.460742	1.592010
0.460840	1.574532
0.460937	1.536643
0.461035	1.537284
0.461133	1.565007
0.461230	1.592853
0.461328	1.628054
0.461426	1.635136
0.461523	1.633288
0.461621	1.626460
0.461719	1.625845
0.461816	1.624477
0.461914	1.626597
0.462012	1.628426
0.462109	1.639866
0.462207	1.663203
0.462305	1.653228
0.462402	1.650094
0.462500	1.643958
0.462598	1.630368
0.462695	1.618530
0.462793	1.607108
0.462891	1.599852
0.462988	1.594080
0.463086	1.588133
0.463184	1.571289
0.463281	1.563737
0.463379	1.562532
0.463477	1.569057
0.463574	1.608208
0.463672	1.620945
0.463770	1.607935
0.463867	1.610965
0.463965	1.613583
0.464062	1.618501
0.464160	1.620022
0.464258	1.623890
0.464355	1.625412
0.464453	1.634014
0.464551	1.639284
0.464648	1.656445
0.464746	1.663992
0.464844	1.651955
0.464941	1.644970
0.465039	1.631996
0.465137	1.627594
0.465234	1.618862
0.465332	1.611881
0.465430	1.604155
0.465527	1.598681
0.465625	1.612997
0.465723	1.622271
0.465820	1.632065
0.465918	1.637731
0.466016	1.640688
0.466113	1.627245
0.466211	1.622359
0.466309	1.626909
0.466406	1.625072
0.466504	1.625422
0.466602	1.625552
0.466699	1.625811
0.466797	1.627355
0.466895	1.625205
0.466992	1.626294
0.467090	1.608802
0.467187	1.588111
0.467285	1.607487
0.467383	1.586348
0.467480	1.584213
0.467578	1.610849
0.467676	1.611582
0.467773	1.600696
0.467871	1.597712
0.467969	1.593517
0.468066	1.606332
0.468164	1.595280
0.468262	1.615471
0.468359	1.624379
0.468457	1.626160
0.468555	1.634270
0.468652	1.619132
0.468750	1.619716
0.468848	1.612611
0.468945	1.617739
0.469043	1.616664
0.469141	1.621428
0.469238	1.620931
0.469336	1.628374
0.469434	1.627212
0.469531	1.653242
0.469629	1.651385
0.469727	1.637457
0.469824	1.639984
0.469922	1.632451
0.470020	1.619800
0.470117	1.608623
0.470215	1.593034
0.470312	1.574072
0.470410	1.561570
0.470508	1.584658
0.470605	1.607435
0.470703	1.624782
0.470801	1.597965
0.470898	1.587014
0.470996	1.586019
0.471094	1.588806
0.471191	1.624206
0.471289	1.617342
0.471387	1.623727
0.471484	1.622497
0.471582	1.627498
0.471680	1.632199
0.471777	1.635764
0.471875	1.623140
0.471973	1.630352
0.472070	1.601763
0.472168	1.610344
0.472266	1.606510
0.472363	1.609736
0.472461	1.606403
0.472559	1.610938
0.472656	1.605697
0.472754	1.615529
0.472852	1.638431
0.472949	1.630289
0.473047	1.646643
0.473145	1.640383
0.473242	1.639704
0.473340	1.622719
0.473437	1.604357
0.473535	1.580971
0.473633	1.607358
0.473730	1.609583
0.473828	1.615583
0.473926	1.614454
0.474023	1.623843
0.474121	1.604722
0.474219	1.614514
0.474316	1.636351
0.474414	1.614499
0.474512	1.619318
0.474609	1.616354
0.474707	1.617344
0.474805	1.601114
0.474902	1.588206
0.475000	1.576199
0.475098	1.568407
0.475195	1.553152
0.475293	1.536341
0.475391	1.526617
0.475488	1.536294
0.475586	1.560378
0.475684	1.591113
0.475781	1.604801
0.475879	1.604253
0.475977	1.612089
0.476074	1.616145
0.476172	1.617304
0.476270	1.617729
0.476367	1.617263
0.476465	1.616053
0.476562	1.612022
0.476660	1.600127
0.476758	1.581292
0.476855	1.578305
0.476953	1.597205
0.477051	1.595804
0.477148	1.615820
0.477246	1.615306
0.477344	1.604605
0.477441	1.599039
0.477539	1.604655
0.477637	1.590370
0.477734	1.551005
0.477832	1.546150
0.477930	1.572150
0.478027	1.577953
0.478125	1.605671
0.478223	1.625944
0.478320	1.614453
0.478418	1.615388
0.478516	1.614727
0.478613	1.618040
0.478711	1.616383
0.478809	1.618264
0.478906	1.612532
0.479004	1.609717
0.479102	1.575555
0.479199	1.559205
0.479297	1.595401
0.479395	1.619525
0.479492	1.630246
0.479590	1.618316
0.479687	1.606185
0.479785	1.590476
0.479883	1.574874
0.479980	1.527132
0.480078	1.517306
0.480176	1.536984
0.480273	1.572315
0.480371	1.600739
0.480469	1.590717
0.480566	1.611991
0.480664	1.619854
0.480762	1.619309
0.480859	1.621479
0.480957	1.622458
0.481055	1.625020
0.481152	1.627283
0.481250	1.631759
0.481348	1.636228
0.481445	1.644091
0.481543	1.632024
0.481641	1.603271
0.481738	1.601701
0.481836	1.604100
0.481934	1.611067
0.482031	1.610818
0.482129	1.607499
0.482227	1.598263
0.482324	1.599500
0.482422	1.571062
0.482520	1.588413
0.482617	1.615692
0.482715	1.603600
0.482812	1.634780
0.482910	1.639731
0.483008	1.643777
0.483105	1.625688
0.483203	1.617374
0.483301	1.622528
0.483398	1.620815
0.483496	1.622001
0.483594	1.629174
0.483691	1.634309
0.483789	1.635863
0.483887	1.624823
0.483984	1.615202
0.484082	1.587964
0.484180	1.571760
0.484277	1.582938
0.484375	1.574887
0.484473	1.583695
0.484570	1.594813
0.484668	1.603852
0.484766	1.578120
0.484863	1.525092
0.484961	1.519127
0.485059	1.582233
0.485156	1.610934
0.485254	1.632754
0.485352	1.614643
0.485449	1.606198
0.485547	1.617750
0.485645	1.616406
0.485742	1.620084
0.485840	1.621434
0.485937	1.623329
0.486035	1.625893
0.486133	1.623580
0.486230	1.618984
0.486328	1.582228
0.486426	1.550028
0.486523	1.562249
0.486621	1.591522
0.486719	1.613733
0.486816	1.599963
0.486914	1.598040
0.487012	1.581483
0.487109	1.550617
0.487207	1.526879
0.487305	1.544023
0.487402	1.564325
0.487500	1.589028
0.487598	1.618302
0.487695	1.613380
0.487793	1.614596
0.487891	1.615472
0.487988	1.616426
0.488086	1.620168
0.488184	1.621511
0.488281	1.625380
0.488379	1.626860
0.488477	1.632632
0.488574	1.636801
0.488672	1.654248
0.488770	1.644731
0.488867	1.653888
0.488965	1.641010
0.489062	1.598922
0.489160	1.608617
0.489258	1.600801
0.489355	1.593602
0.489453	1.570212
0.489551	1.542454
0.489648	1.513887
0.489746	1.522759
0.489844	1.545376
0.489941	1.542219
0.490039	1.556592
0.490137	1.583882
0.490234	1.606244
0.490332	1.611973
0.490430	1.615842
0.490527	1.618362
0.490625	1.620704
0.490723	1.622659
0.490820	1.625928
0.490918	1.627704
0.491016	1.614020
0.491113	1.605606
0.491211	1.586572
0.491309	1.557306
0.491406	1.595730
0.491504	1.618129
0.491602	1.612249
0.491699	1.608699
0.491797	1.594164
0.491895	1.587763
0.491992	1.572571
0.492090	1.574252
0.492187	1.589374
0.492285	1.614312
0.492383	1.643562
0.492480	1.657559
0.492578	1.654685
0.492676	1.622486
0.492773	1.623992
0.492871	1.631272
0.492969	1.630547
0.493066	1.632397
0.493164	1.633732
0.493262	1.634867
0.493359	1.630932
0.493457	1.629278
0.493555	1.624549
0.493652	1.604966
0.493750	1.578098
0.493848	1.579493
0.493945	1.614392
0.494043	1.622582
0.494141	1.605895
0.494238	1.601699
0.494336	1.607005
0.494434	1.600766
0.494531	1.555822
0.494629	1.546305
0.494727	1.555570
0.494824	1.569318
0.494922	1.575975
0.495020	1.598189
0.495117	1.613531
0.495215	1.618829
0.495312	1.622911
0.495410	1.626468
0.495508	1.630212
0.495605	1.634361
0.495703	1.635312
0.495801	1.635342
0.495898	1.632750
0.495996	1.637054
0.496094	1.630223
0.496191	1.600567
0.496289	1.591432
0.496387	1.596079
0.496484	1.594908
0.496582	1.589445
0.496680	1.570357
0.496777	1.547262
0.496875	1.516864
0.496973	1.514180
0.497070	1.540399
0.497168	1.572734
0.497266	1.618865
0.497363	1.617891
0.497461	1.620047
0.497559	1.617198
0.497656	1.618556
0.497754	1.618616
0.497852	1.619573
0.497949	1.620786
0.498047	1.621084
0.498145	1.626462
0.498242	1.628702
0.498340	1.618782
0.498437	1.597484
0.498535	1.597826
0.498633	1.615838
0.498730	1.596441
0.498828	1.590349
0.498926	1.588550
0.499023	1.580306
0.499121	1.561051
0.499219	1.547425
0.499316	1.545371
0.499414	1.555118
0.499512	1.581952
0.499609	1.586149
0.499707	1.598653
0.499805	1.611310
0.499902	1.614098
0.500000	1.617716
0.500098	1.618922
0.500195	1.620478
0.500293	1.621286
0.500391	1.622296
0.500488	1.623672
0.500586	1.626378
0.500684	1.627014
0.500781	1.598208
0.500879	1.568407
0.500977	1.601265
0.501074	1.610867
0.501172	1.600671
0.501270	1.601264
0.501367	1.603749
0.501465	1.603154
0.501562	1.578287
0.501660	1.556893
0.501758	1.582755
0.501855	1.623156
0.501953	1.649386
0.502051	1.661600
0.502148	1.643986
0.502246	1.624703
0.502344	1.616468
0.502441	1.614058
0.502539	1.615872
0.502637	1.617323
0.502734	1.620284
0.502832	1.622345
0.502930	1.633418
0.503027	1.643425
0.503125	1.634756
0.503223	1.612177
0.503320	1.579923
0.503418	1.590507
0.503516	1.602842
0.503613	1.596176
0.503711	1.589073
0.503809	1.576351
0.503906	1.550273
0.504004	1.526445
0.504102	1.545438
0.504199	1.566901
0.504297	1.591443
0.504395	1.594269
0.504492	1.602809
0.504590	1.621162
0.504687	1.617453
0.504785	1.621626
0.504883	1.622474
0.504980	1.625474
0.505078	1.626714
0.505176	1.629506
0.505273	1.630536
0.505371	1.632363
0.505469	1.627801
0.505566	1.612177
0.505664	1.597100
0.505762	1.598470
0.505859	1.603705
0.505957	1.596742
0.506055	1.593235
0.506152	1.576248
0.506250	1.547362
0.506348	1.537458
0.506445	1.553977
0.506543	1.572274
0.506641	1.577359
0.506738	1.587169
0.506836	1.583866
0.506934	1.585543
0.507031	1.615753
0.507129	1.620349
0.507227	1.622799
0.507324	1.622752
0.507422	1.627435
0.507520	1.632200
0.507617	1.646214
0.507715	1.654483
0.507812	1.652458
0.507910	1.610242
0.508008	1.609429
0.508105	1.620836
0.508203	1.614733
0.508301	1.611499
0.508398	1.602324
0.508496	1.596713
0.508594	1.583990
0.508691	1.571798
0.508789	1.560076
0.508887	1.560254
0.508984	1.566110
0.509082	1.581096
0.509180	1.600251
0.509277	1.613246
0.509375	1.618297
0.509473	1.621592
0.509570	1.622340
0.509668	1.623608
0.509766	1.623644
0.509863	1.625637
0.509961	1.629232
0.510059	1.637358
0.510156	1.625318
0.510254	1.621254
0.510352	1.615265
0.510449	1.612748
0.510547	1.612763
0.510645	1.599418
0.510742	1.606537
0.510840	1.599714
0.510937	1.598005
0.511035	1.579932
0.511133	1.565436
0.511230	1.544241
0.511328	1.534979
0.511426	1.558286
0.511523	1.581766
0.511621	1.586530
0.511719	1.599662
0.511816	1.616917
0.511914	1.610261
0.512012	1.616716
0.512109	1.617478
0.512207	1.620945
0.512305	1.622689
0.512402	1.625140
0.512500	1.641651
0.512598	1.638974
0.512695	1.599817
0.512793	1.604023
0.512891	1.586580
0.512988	1.574957
0.513086	1.604637
0.513184	1.598733
0.513281	1.584347
0.513379	1.565080
0.513477	1.526735
0.513574	1.507481
0.513672	1.529686
0.513770	1.542882
0.513867	1.547572
0.513965	1.553577
0.514062	1.592582
0.514160	1.625919
0.514258	1.618780
0.514355	1.616053
0.514453	1.616928
0.514551	1.616435
0.514648	1.617898
0.514746	1.619894
0.514844	1.617841
0.514941	1.608806
0.515039	1.597605
0.515137	1.602454
0.515234	1.609026
0.515332	1.615974
0.515430	1.612198
0.515527	1.603766
0.515625	1.595829
0.515723	1.583517
0.515820	1.566535
0.515918	1.552383
0.516016	1.556115
0.516113	1.577243
0.516211	1.604334
0.516309	1.615112
0.516406	1.618111
0.516504	1.617984
0.516602	1.618228
0.516699	1.617883
0.516797	1.617553
0.516895	1.616534
0.516992	1.614790
0.517090	1.611463
0.517187	1.605180
0.517285	1.592744
0.517383	1.569679
0.517480	1.548391
0.517578	1.557553
0.517676	1.568438
0.517773	1.563831
0.517871	1.579171
0.517969	1.587121
0.518066	1.574846
0.518164	1.557422
0.518262	1.554888
0.518359	1.595795
0.518457	1.654435
0.518555	1.639314
0.518652	1.621292
0.518750	1.620660
0.518848	1.611893
0.518945	1.588832
0.519043	1.599617
0.519141	1.608758
0.519238	1.615145
0.519336	1.617185
0.519434	1.619956
0.519531	1.620262
0.519629	1.622094
0.519727	1.623381
0.519824	1.622059
0.519922	1.602023
0.520020	1.589554
0.520117	1.602297
0.520215	1.598534
0.520312	1.601302
0.520410	1.600048
0.520508	1.592322
0.520605	1.578922
0.520703	1.554401
0.520801	1.534195
0.520898	1.555453
0.520996	1.624185
0.521094	1.645971
0.521191	1.635237
0.521289	1.630044
0.521387	1.625581
0.521484	1.627224
0.521582	1.624923
0.521680	1.627743
0.521777	1.625646
0.521875	1.630306
0.521973	1.625603
0.522070	1.627209
0.522168	1.582154
0.522266	1.584946
0.522363	1.577297
0.522461	1.590374
0.522559	1.617608
0.522656	1.599430
0.522754	1.598197
0.522852	1.587998
0.522949	1.587592
0.523047	1.572302
0.523145	1.568409
0.523242	1.588987
0.523340	1.600725
0.523437	1.584938
0.523535	1.582754
0.523633	1.589656
0.523730	1.609297
0.523828	1.618552
0.523926	1.622615
0.524023	1.625612
0.524121	1.628353
0.524219	1.631324
0.524316	1.634752
0.524414	1.639454
0.524512	1.634303
0.524609	1.600716
0.524707	1.577038
0.524805	1.566278
0.524902	1.581496
0.525000	1.605744
0.525098	1.597464
0.525195	1.567546
0.525293	1.570998
0.525391	1.593368
0.525488	1.575779
0.525586	1.531267
0.525684	1.543348
0.525781	1.589318
0.525879	1.610979
0.525977	1.595303
0.526074	1.603865
0.526172	1.612240
0.526270	1.615738
0.526367	1.618372
0.526465	1.619267
0.526562	1.621074
0.526660	1.621285
0.526758	1.624404
0.526855	1.619940
0.526953	1.617780
0.527051	1.595144
0.527148	1.598676
0.527246	1.609405
0.527344	1.617540
0.527441	1.606249
0.527539	1.591902
0.527637	1.575472
0.527734	1.557171
0.527832	1.552549
0.527930	1.545329
0.528027	1.584390
0.528125	1.618038
0.528223	1.648954
0.528320	1.644836
0.528418	1.625186
0.528516	1.615955
0.528613	1.617315
0.528711	1.618844
0.528809	1.622428
0.528906	1.625520
0.529004	1.629956
0.529102	1.633512
0.529199	1.632565
0.529297	1.621701
0.529395	1.598551
0.529492	1.598437
0.529590	1.579220
0.529687	1.576164
0.529785	1.598856
0.529883	1.595051
0.529980	1.595548
0.530078	1.587156
0.530176	1.566159
0.530273	1.535951
0.530371	1.545590
0.530469	1.555185
0.530566	1.561635
0.530664	1.569275
0.530762	1.572616
0.530859	1.617047
0.530957	1.619140
0.531055	1.616716
0.531152	1.620423
0.531250	1.623871
0.531348	1.628745
0.531445	1.637026
0.531543	1.651612
0.531641	1.673469
0.531738	1.655164
0.531836	1.651858
0.531934	1.620160
0.532031	1.582818
0.532129	1.551287
0.532227	1.548460
0.532324	1.577137
0.532422	1.573593
0.532520	1.551170
0.532617	1.526843
0.532715	1.566292
0.532812	1.611870
0.532910	1.622510
0.533008	1.632919
0.533105	1.634157
0.533203	1.622748
0.533301	1.621741
0.533398	1.620760
0.533496	1.622401
0.533594	1.623690
0.533691	1.626013
0.533789	1.626837
0.533887	1.628422
0.533984	1.626143
0.534082	1.608407
0.534180	1.578182
0.534277	1.582954
0.534375	1.609863
0.534473	1.607456
0.534570	1.594432
0.534668	1.586525
0.534766	1.577055
0.534863	1.586609
0.534961	1.530032
0.535059	1.519168
0.535156	1.548328
0.535254	1.562049
0.535352	1.587967
0.535449	1.598725
0.535547	1.599978
0.535645	1.577187
0.535742	1.595476
0.535840	1.609814
0.535937	1.611213
0.536035	1.612256
0.536133	1.609857
0.536230	1.605283
0.536328	1.594655
0.536426	1.574831
0.536523	1.545667
0.536621	1.516535
0.536719	1.554823
0.536816	1.593341
0.536914	1.599914
0.537012	1.597477
0.537109	1.593696
0.537207	1.585888
0.537305	1.574704
0.537402	1.556034
0.537500	1.549707
0.537598	1.565422
0.537695	1.539563
0.537793	1.575988
0.537891	1.604507
0.537988	1.608858
0.538086	1.613074
0.538184	1.614748
0.538281	1.616972
0.538379	1.618079
0.538477	1.619675
0.538574	1.621163
0.538672	1.624038
0.538770	1.613300
0.538867	1.609056
0.538965	1.615936
0.539062	1.599924
0.539160	1.572892
0.539258	1.565414
0.539355	1.576630
0.539453	1.577187
0.539551	1.575699
0.539648	1.577331
0.539746	1.562219
0.539844	1.537514
0.539941	1.563583
0.540039	1.609635
0.540137	1.604426
0.540234	1.594581
0.540332	1.594722
0.540430	1.606951
0.540527	1.615623
0.540625	1.618214
0.540723	1.620462
0.540820	1.621773
0.540918	1.625759
0.541016	1.635617
0.541113	1.659518
0.541211	1.641099
0.541309	1.642585
0.541406	1.631833
0.541504	1.626315
0.541602	1.621886
0.541699	1.613919
0.541797	1.604551
0.541895	1.589893
0.541992	1.566557
0.542090	1.545055
0.542187	1.563042
0.542285	1.601987
0.542383	1.615444
0.542480	1.626465
0.542578	1.617046
0.542676	1.599722
0.542773	1.613134
0.542871	1.613258
0.542969	1.616565
0.543066	1.616606
0.543164	1.617090
0.543262	1.615123
0.543359	1.609290
0.543457	1.594337
0.543555	1.576805
0.543652	1.575475
0.543750	1.556287
0.543848	1.580972
0.543945	1.609735
0.544043	1.606587
0.544141	1.605022
0.544238	1.593010
0.544336	1.577077
0.544434	1.545418
0.544531	1.515480
0.544629	1.534110
0.544727	1.592116
0.544824	1.620265
0.544922	1.620664
0.545020	1.620250
0.545117	1.609291
0.545215	1.602518
0.545312	1.602997
0.545410	1.614528
0.545508	1.617981
0.545605	1.620327
0.545703	1.620952
0.545801	1.622357
0.545898	1.620789
0.545996	1.618487
0.546094	1.602363
0.546191	1.572515
0.546289	1.539984
0.546387	1.540168
0.546484	1.569451
0.546582	1.571082
0.546680	1.573286
0.546777	1.574666
0.546875	1.560243
0.546973	1.533619
0.547070	1.519135
0.547168	1.535276
0.547266	1.558143
0.547363	1.566291
0.547461	1.575909
0.547559	1.588007
0.547656	1.602632
0.547754	1.609192
0.547852	1.614014
0.547949	1.618669
0.548047	1.624801
0.548145	1.629844
0.548242	1.642336
0.548340	1.648980
0.548437	1.623012
0.548535	1.601266
0.548633	1.587101
0.548730	1.579763
0.548828	1.604971
0.548926	1.601365
0.549023	1.607957
0.549121	1.606426
0.549219	1.654771
0.549316	1.579997
0.549414	1.547236
0.549512	1.605974
0.549609	1.644170
0.549707	1.657029
0.549805	1.619189
0.549902	1.608674
0.550000	1.614908
0.550098	1.617230
0.550195	1.619931
0.550293	1.623022
0.550391	1.625595
0.550488	1.630187
0.550586	1.634859
0.550684	1.643701
0.550781	1.649323
0.550879	1.648282
0.550977	1.638991
0.551074	1.607809
0.551172	1.612518
0.551270	1.609771
0.551367	1.607997
0.551465	1.602262
0.551562	1.588443
0.551660	1.558507
0.551758	1.528032
0.551855	1.537886
0.551953	1.548702
0.552051	1.568990
0.552148	1.602883
0.552246	1.612526
0.552344	1.617259
0.552441	1.617828
0.552539	1.618472
0.552637	1.617285
0.552734	1.616136
0.552832	1.612737
0.552930	1.607571
0.553027	1.597754
0.553125	1.590282
0.553223	1.592253
0.553320	1.572247
0.553418	1.536725
0.553516	1.542268
0.553613	1.579214
0.553711	1.598316
0.553809	1.601177
0.553906	1.588386
0.554004	1.550295
0.554102	1.540012
0.554199	1.540601
0.554297	1.554316
0.554395	1.589449
0.554492	1.600620
0.554590	1.612454
0.554687	1.631436
0.554785	1.620039
0.554883	1.619458
0.554980	1.620694
0.555078	1.621672
0.555176	1.624417
0.555273	1.626581
0.555371	1.633675
0.555469	1.640310
0.555566	1.643617
0.555664	1.620286
0.555762	1.595846
0.555859	1.614289
0.555957	1.612117
0.556055	1.594398
0.556152	1.585351
0.556250	1.581067
0.556348	1.564557
0.556445	1.545017
0.556543	1.543613
0.556641	1.566959
0.556738	1.562091
0.556836	1.552159
0.556934	1.564071
0.557031	1.599595
0.557129	1.611643
0.557227	1.618602
0.557324	1.619198
0.557422	1.622579
0.557520	1.622492
0.557617	1.627070
0.557715	1.621963
0.557812	1.624961
0.557910	1.638084
0.558008	1.660477
0.558105	1.626087
0.558203	1.628003
0.558301	1.599483
0.558398	1.566045
0.558496	1.587613
0.558594	1.591965
0.558691	1.584992
0.558789	1.559569
0.558887	1.534214
0.558984	1.524736
0.559082	1.549023
0.559180	1.577850
0.559277	1.611383
0.559375	1.623237
0.559473	1.618430
0.559570	1.620902
0.559668	1.621171
0.559766	1.623618
0.559863	1.624337
0.559961	1.626329
0.560059	1.627881
0.560156	1.630310
0.560254	1.625524
0.560352	1.615892
0.560449	1.600713
0.560547	1.582849
0.560645	1.591950
0.560742	1.605806
0.560840	1.604557
0.560937	1.598729
0.561035	1.590006
0.561133	1.570731
0.561230	1.549127
0.561328	1.537414
0.561426	1.533054
0.561523	1.545444
0.561621	1.554986
0.561719	1.574810
0.561816	1.593860
0.561914	1.581274
0.562012	1.587610
0.562109	1.610882
0.562207	1.604090
0.562305	1.610996
0.562402	1.609123
0.562500	1.614499
0.562598	1.596297
0.562695	1.609843
0.562793	1.631033
0.562891	1.599502
0.562988	1.587412
0.563086	1.569182
0.563184	1.589119
0.563281	1.601990
0.563379	1.600575
0.563477	1.586586
0.563574	1.563088
0.563672	1.574309
0.563770	1.615067
0.563867	1.627591
0.563965	1.638027
0.564062	1.620071
0.564160	1.565884
0.564258	1.562561
0.564355	1.606277
0.564453	1.616150
0.564551	1.616268
0.564648	1.618234
0.564746	1.622348
0.564844	1.626630
0.564941	1.637131
0.565039	1.644071
0.565137	1.657605
0.565234	1.626758
0.565332	1.615599
0.565430	1.621556
0.565527	1.615951
0.565625	1.607173
0.565723	1.595148
0.565820	1.568470
0.565918	1.542464
0.566016	1.543636
0.566113	1.553145
0.566211	1.596229
0.566309	1.622929
0.566406	1.621316
0.566504	1.615547
0.566602	1.616717
0.566699	1.615713
0.566797	1.618081
0.566895	1.618380
0.566992	1.619897
0.567090	1.619493
0.567187	1.619360
0.567285	1.610287
0.567383	1.601314
0.567480	1.594151
0.567578	1.613650
0.567676	1.597728
0.567773	1.587458
0.567871	1.601092
0.567969	1.607639
0.568066	1.599714
0.568164	1.598948
0.568262	1.590039
0.568359	1.544248
0.568457	1.539596
0.568555	1.566067
0.568652	1.567119
0.568750	1.576064
0.568848	1.561971
0.568945	1.585122
0.569043	1.615042
0.569141	1.613372
0.569238	1.619923
0.569336	1.619479
0.569434	1.626360
0.569531	1.631574
0.569629	1.658036
0.569727	1.668793
0.569824	1.658978
0.569922	1.630908
0.570020	1.625548
0.570117	1.629940
0.570215	1.616153
0.570312	1.612305
0.570410	1.606554
0.570508	1.590930
0.570605	1.580135
0.570703	1.545049
0.570801	1.570304
0.570898	1.627743
0.570996	1.604728
0.571094	1.624393
0.571191	1.625315
0.571289	1.635399
0.571387	1.631957
0.571484	1.624121
0.571582	1.617725
0.571680	1.623873
0.571777	1.628112
0.571875	1.637202
0.571973	1.652891
0.572070	1.685129
0.572168	1.665415
0.572266	1.657015
0.572363	1.634871
0.572461	1.625242
0.572559	1.620572
0.572656	1.612654
0.572754	1.598248
0.572852	1.587108
0.572949	1.575158
0.573047	1.567185
0.573145	1.566331
0.573242	1.602051
0.573340	1.628695
0.573437	1.632948
0.573535	1.633416
0.573633	1.625005
0.573730	1.619728
0.573828	1.621650
0.573926	1.621788
0.574023	1.623030
0.574121	1.622935
0.574219	1.624720
0.574316	1.623435
0.574414	1.621897
0.574512	1.603442
0.574609	1.555752
0.574707	1.540283
0.574805	1.590220
0.574902	1.606676
0.575000	1.612714
0.575098	1.615870
0.575195	1.597743
0.575293	1.592751
0.575391	1.579254
0.575488	1.565389
0.575586	1.567810
0.575684	1.564997
0.575781	1.549012
0.575879	1.553612
0.575977	1.553501
0.576074	1.568616
0.576172	1.564944
0.576270	1.563122
0.576367	1.601392
0.576465	1.618637
0.576562	1.617571
0.576660	1.622948
0.576758	1.626531
0.576855	1.634022
0.576953	1.639859
0.577051	1.638103
0.577148	1.597001
0.577246	1.595621
0.577344	1.611549
0.577441	1.610352
0.577539	1.608242
0.577637	1.611405
0.577734	1.596986
0.577832	1.571781
0.577930	1.640923
0.578027	1.646193
0.578125	1.600224
0.578223	1.623551
0.578320	1.655605
0.578418	1.644770
0.578516	1.638122
0.578613	1.629753
0.578711	1.625406
0.578809	1.623236
0.578906	1.624943
0.579004	1.626111
0.579102	1.629944
0.579199	1.632028
0.579297	1.637956
0.579395	1.641595
0.579492	1.626915
0.579590	1.615299
0.579687	1.614417
0.579785	1.624815
0.579883	1.620238
0.579980	1.616158
0.580078	1.604562
0.580176	1.589074
0.580273	1.565423
0.580371	1.551170
0.580469	1.552119
0.580566	1.580935
0.580664	1.613606
0.580762	1.617245
0.580859	1.619060
0.580957	1.620732
0.581055	1.621760
0.581152	1.623663
0.581250	1.624405
0.581348	1.626919
0.581445	1.628551
0.581543	1.632765
0.581641	1.619064
0.581738	1.608119
0.581836	1.585748
0.581934	1.596198
0.582031	1.602773
0.582129	1.600079
0.582227	1.613619
0.582324	1.610224
0.582422	1.602084
0.582520	1.614245
0.582617	1.609374
0.582715	1.620814
0.582812	1.610692
0.582910	1.602004
0.583008	1.621376
0.583105	1.629324
0.583203	1.625926
0.583301	1.620469
0.583398	1.621313
0.583496	1.619142
0.583594	1.620657
0.583691	1.617573
0.583789	1.618385
0.583887	1.611916
0.583984	1.609328
0.584082	1.586188
0.584180	1.578960
0.584277	1.592375
0.584375	1.592605
0.584473	1.588024
0.584570	1.580035
0.584668	1.599655
0.584766	1.611332
0.584863	1.628214
0.584961	1.618312
0.585059	1.583370
0.585156	1.584228
0.585254	1.616222
0.585352	1.608792
0.585449	1.590119
0.585547	1.600619
0.585645	1.609151
0.585742	1.611687
0.585840	1.614409
0.585937	1.616877
0.586035	1.619547
0.586133	1.623187
0.586230	1.625553
0.586328	1.629596
0.586426	1.620424
0.586523	1.597705
0.586621	1.585127
0.586719	1.614317
0.586816	1.620473
0.586914	1.613661
0.587012	1.608118
0.587109	1.602117
0.587207	1.593107
0.587305	1.582486
0.587402	1.572109
0.587500	1.597059
0.587598	1.643623
0.587695	1.637591
0.587793	1.631293
0.587891	1.630902
0.587988	1.628294
0.588086	1.626224
0.588184	1.626803
0.588281	1.628527
0.588379	1.633588
0.588477	1.641048
0.588574	1.650454
0.588672	1.648622
0.588770	1.639774
0.588867	1.636402
0.588965	1.623617
0.589062	1.593069
0.589160	1.576878
0.589258	1.559497
0.589355	1.564032
0.589453	1.567314
0.589551	1.607634
0.589648	1.630063
0.589746	1.607647
0.589844	1.605309
0.589941	1.598163
0.590039	1.604270
0.590137	1.606176
0.590234	1.617273
0.590332	1.621150
0.590430	1.624206
0.590527	1.623533
0.590625	1.624274
0.590723	1.623377
0.590820	1.624120
0.590918	1.624482
0.591016	1.622530
0.591113	1.627905
0.591211	1.658923
0.591309	1.637325
0.591406	1.648611
0.591504	1.637953
0.591602	1.617447
0.591699	1.625911
0.591797	1.612378
0.591895	1.606079
0.591992	1.581276
0.592090	1.552635
0.592187	1.548706
0.592285	1.529996
0.592383	1.541622
0.592480	1.577247
0.592578	1.593642
0.592676	1.608834
0.592773	1.609633
0.592871	1.616731
0.592969	1.617488
0.593066	1.618554
0.593164	1.619151
0.593262	1.619184
0.593359	1.619964
0.593457	1.619144
0.593555	1.621520
0.593652	1.623061
0.593750	1.641683
0.593848	1.640245
0.593945	1.612648
0.594043	1.588029
0.594141	1.580219
0.594238	1.592386
0.594336	1.592719
0.594434	1.588532
0.594531	1.590678
0.594629	1.603002
0.594727	1.608799
0.594824	1.604213
0.594922	1.593388
0.595020	1.591516
0.595117	1.596496
0.595215	1.608925
0.595312	1.627273
0.595410	1.626058
0.595508	1.618354
0.595605	1.615980
0.595703	1.617353
0.595801	1.617317
0.595898	1.620704
0.595996	1.620046
0.596094	1.631365
0.596191	1.634139
0.596289	1.635785
0.596387	1.633084
0.596484	1.617675
0.596582	1.614826
0.596680	1.610934
0.596777	1.603246
0.596875	1.599210
0.596973	1.578506
0.597070	1.574142
0.597168	1.548292
0.597266	1.528227
0.597363	1.556703
0.597461	1.577623
0.597559	1.596380
0.597656	1.600149
0.597754	1.609740
0.597852	1.616071
0.597949	1.616545
0.598047	1.619704
0.598145	1.619801
0.598242	1.623647
0.598340	1.622829
0.598437	1.620431
0.598535	1.611634
0.598633	1.598044
0.598730	1.588644
0.598828	1.606353
0.598926	1.611100
0.599023	1.610747
0.599121	1.608423
0.599219	1.606465
0.599316	1.600844
0.599414	1.596182
0.599512	1.584762
0.599609	1.573990
0.599707	1.558667
0.599805	1.565749
0.599902	1.572101
0.600000	1.578560
0.600098	1.597852
0.600195	1.606125
0.600293	1.612838
0.600391	1.614633
0.600488	1.617334
0.600586	1.619204
0.600684	1.620826
0.600781	1.623233
0.600879	1.623754
0.600977	1.625100
0.601074	1.614420
0.601172	1.633797
0.601270	1.614162
0.601367	1.593754
0.601465	1.593216
0.601562	1.592173
0.601660	1.615712
0.601758	1.647034
0.601855	1.631788
0.601953	1.619637
0.602051	1.615504
0.602148	1.562721
0.602246	1.558245
0.602344	1.566164
0.602441	1.552693
0.602539	1.593952
0.602637	1.601734
0.602734	1.615914
0.602832	1.620036
0.602930	1.623352
0.603027	1.627892
0.603125	1.630645
0.603223	1.632664
0.603320	1.621429
0.603418	1.590573
0.603516	1.613189
0.603613	1.624490
0.603711	1.618184
0.603809	1.613132
0.603906	1.607944
0.604004	1.591412
0.604102	1.571124
0.604199	1.551718
0.604297	1.556654
0.604395	1.604427
0.604492	1.609220
0.604590	1.613883
0.604687	1.623070
0.604785	1.621947
0.604883	1.622294
0.604980	1.624388
0.605078	1.624675
0.605176	1.624786
0.605273	1.622718
0.605371	1.621687
0.605469	1.616503
0.605566	1.605622
0.605664	1.576764
0.605762	1.560290
0.605859	1.585510
0.605957	1.611452
0.606055	1.620053
0.606152	1.605099
0.606250	1.585196
0.606348	1.583977
0.606445	1.621651
0.606543	1.637886
0.606641	1.632551
0.606738	1.637646
0.606836	1.638513
0.606934	1.621835
0.607031	1.615149
0.607129	1.621547
0.607227	1.619712
0.607324	1.620180
0.607422	1.618836
0.607520	1.619087
0.607617	1.617283
0.607715	1.614884
0.607812	1.609383
0.607910	1.599583
0.608008	1.582345
0.608105	1.539181
0.608203	1.488720
0.608301	1.557701
0.608398	1.594255
0.608496	1.561291
0.608594	1.560397
0.608691	1.579832
0.608789	1.583228
0.608887	1.580906
0.608984	1.590016
0.609082	1.597397
0.609180	1.599096
0.609277	1.564555
0.609375	1.541741
0.609473	1.593390
0.609570	1.609362
0.609668	1.613984
0.609766	1.615929
0.609863	1.617279
0.609961	1.618076
0.610059	1.618243
0.610156	1.618843
0.610254	1.617905
0.610352	1.618782
0.610449	1.619277
0.610547	1.617432
0.610645	1.607875
0.610742	1.586351
0.610840	1.561720
0.610937	1.552145
0.611035	1.580527
0.611133	1.595210
0.611230	1.579184
0.611328	1.609535
0.611426	1.610308
0.611523	1.554945
0.611621	1.555960
0.611719	1.604217
0.611816	1.610483
0.611914	1.609091
0.612012	1.621461
0.612109	1.617709
0.612207	1.619222
0.612305	1.620286
0.612402	1.622623
0.612500	1.620134
0.612598	1.622433
0.612695	1.627424
0.612793	1.628319
0.612891	1.627945
0.612988	1.633777
0.613086	1.615807
0.613184	1.622973
0.613281	1.618860
0.613379	1.619778
0.613477	1.606804
0.613574	1.597956
0.613672	1.580848
0.613770	1.589036
0.613867	1.605932
0.613965	1.612656
0.614062	1.624707
0.614160	1.620825
0.614258	1.625656
0.614355	1.623317
0.614453	1.625960
0.614551	1.623081
0.614648	1.624767
0.614746	1.621735
0.614844	1.623940
0.614941	1.621288
0.615039	1.624266
0.615137	1.614613
0.615234	1.606952
0.615332	1.582509
0.615430	1.594147
0.615527	1.610616
0.615625	1.596586
0.615723	1.596983
0.615820	1.591803
0.615918	1.574915
0.616016	1.555749
0.616113	1.495997
0.616211	1.533533
0.616309	1.571942
0.616406	1.587842
0.616504	1.608641
0.616602	1.609803
0.616699	1.615000
0.616797	1.617210
0.616895	1.618667
0.616992	1.619112
0.617090	1.618628
0.617187	1.621454
0.617285	1.620446
0.617383	1.628268
0.617480	1.607382
0.617578	1.602130
0.617676	1.634122
0.617773	1.602598
0.617871	1.619861
0.617969	1.614146
0.618066	1.600258
0.618164	1.579414
0.618262	1.562242
0.618359	1.543566
0.618457	1.540428
0.618555	1.552964
0.618652	1.576074
0.618750	1.598397
0.618848	1.609668
0.618945	1.614806
0.619043	1.616653
0.619141	1.618001
0.619238	1.618791
0.619336	1.620390
0.619434	1.621057
0.619531	1.624612
0.619629	1.628349
0.619727	1.639811
0.619824	1.640154
0.619922	1.620259
0.620020	1.615831
0.620117	1.602077
0.620215	1.608204
0.620312	1.604424
0.620410	1.601266
0.620508	1.593242
0.620605	1.582815
0.620703	1.565063
0.620801	1.545978
0.620898	1.533757
0.620996	1.544160
0.621094	1.570414
0.621191	1.597152
0.621289	1.610232
0.621387	1.613512
0.621484	1.616340
0.621582	1.617630
0.621680	1.618361
0.621777	1.618697
0.621875	1.618831
0.621973	1.617959
0.622070	1.616214
0.622168	1.613595
0.622266	1.584303
0.622363	1.563283
0.622461	1.568652
0.622559	1.601860
0.622656	1.635055
0.622754	1.625829
0.622852	1.606169
0.622949	1.590558
0.623047	1.572850
0.623145	1.546141
0.623242	1.511199
0.623340	1.504450
0.623437	1.535751
0.623535	1.561284
0.623633	1.567028
0.623730	1.563761
0.623828	1.579410
0.623926	1.600904
0.624023	1.607897
0.624121	1.615466
0.624219	1.617271
0.624316	1.621286
0.624414	1.620992
0.624512	1.625057
0.624609	1.606757
0.624707	1.615302
0.624805	1.631574
0.624902	1.625084
0.625000	1.601706
0.625098	1.604097
0.625195	1.606389
0.625293	1.598562
0.625391	1.590046
0.625488	1.574170
0.625586	1.554888
0.625684	1.537933
0.625781	1.546997
0.625879	1.565841
0.625977	1.571905
0.626074	1.596463
0.626172	1.623195
0.626270	1.612856
0.626367	1.611875
0.626465	1.613186
0.626562	1.615970
0.626660	1.616443
0.626758	1.618712
0.626855	1.618322
0.626953	1.618874
0.627051	1.598728
0.627148	1.585620
0.627246	1.618187
0.627344	1.596086
0.627441	1.552343
0.627539	1.574752
0.627637	1.595021
0.627734	1.593907
0.627832	1.585791
0.627930	1.571301
0.628027	1.533509
0.628125	1.491427
0.628223	1.524807
0.628320	1.561500
0.628418	1.580761
0.628516	1.593631
0.628613	1.622237
0.628711	1.622056
0.628809	1.617334
0.628906	1.615890
0.629004	1.617206
0.629102	1.619212
0.629199	1.620696
0.629297	1.624644
0.629395	1.631272
0.629492	1.644199
0.629590	1.634841
0.629687	1.620134
0.629785	1.619788
0.629883	1.625645
0.629980	1.611682
0.630078	1.605433
0.630176	1.600605
0.630273	1.590982
0.630371	1.564489
0.630469	1.564293
0.630566	1.555736
0.630664	1.548840
0.630762	1.580405
0.630859	1.591724
0.630957	1.609335
0.631055	1.617270
0.631152	1.620834
0.631250	1.621515
0.631348	1.620915
0.631445	1.621388
0.631543	1.617926
0.631641	1.616507
0.631738	1.580232
0.631836	1.525873
0.631934	1.603175
0.632031	1.630847
0.632129	1.626635
0.632227	1.621760
0.632324	1.614133
0.632422	1.603675
0.632520	1.590550
0.632617	1.572558
0.632715	1.547603
0.632812	1.526008
0.632910	1.530928
0.633008	1.536416
0.633105	1.535748
0.633203	1.576639
0.633301	1.604568
0.633398	1.611870
0.633496	1.616639
0.633594	1.617569
0.633691	1.618774
0.633789	1.617886
0.633887	1.617580
0.633984	1.615240
0.634082	1.612941
0.634180	1.605678
0.634277	1.589850
0.634375	1.571915
0.634473	1.565636
0.634570	1.530279
0.634668	1.534159
0.634766	1.592847
0.634863	1.586810
0.634961	1.592699
0.635059	1.591920
0.635156	1.582059
0.635254	1.561038
0.635352	1.568775
0.635449	1.603173
0.635547	1.580727
0.635645	1.540614
0.635742	1.548116
0.635840	1.587420
0.635937	1.605871
0.636035	1.611868
0.636133	1.614737
0.636230	1.615397
0.636328	1.614424
0.636426	1.610897
0.636523	1.603748
0.636621	1.591315
0.636719	1.574300
0.636816	1.562103
0.636914	1.560685
0.637012	1.560736
0.637109	1.562383
0.637207	1.582182
0.637305	1.583373
0.637402	1.573303
0.637500	1.543320
0.637598	1.520176
0.637695	1.517521
0.637793	1.553818
0.637891	1.590498
0.637988	1.598808
0.638086	1.587017
0.638184	1.619740
0.638281	1.621997
0.638379	1.618521
0.638477	1.619886
0.638574	1.619140
0.638672	1.620816
0.638770	1.621164
0.638867	1.624294
0.638965	1.627073
0.639062	1.639373
0.639160	1.644337
0.639258	1.638253
0.639355	1.611567
0.639453	1.584224
0.639551	1.585587
0.639648	1.600893
0.639746	1.599784
0.639844	1.595659
0.639941	1.582101
0.640039	1.558583
0.640137	1.530565
0.640234	1.540001
0.640332	1.562548
0.640430	1.571769
0.640527	1.609316
0.640625	1.619008
0.640723	1.621396
0.640820	1.622469
0.640918	1.622246
0.641016	1.622438
0.641113	1.622024
0.641211	1.623700
0.641309	1.627166
0.641406	1.636181
0.641504	1.617380
0.641602	1.601439
0.641699	1.587696
0.641797	1.601813
0.641895	1.615112
0.641992	1.613016
0.642090	1.610877
0.642187	1.602743
0.642285	1.592710
0.642383	1.562373
0.642480	1.548365
0.642578	1.532817
0.642676	1.559165
0.642773	1.614706
0.642871	1.629490
0.642969	1.630271
0.643066	1.627133
0.643164	1.625444
0.643262	1.624612
0.643359	1.624795
0.643457	1.624898
0.643555	1.625469
0.643652	1.625774
0.643750	1.625787
0.643848	1.624246
0.643945	1.620648
0.644043	1.611244
0.644141	1.599241
0.644238	1.600577
0.644336	1.591116
0.644434	1.588150
0.644531	1.595772
0.644629	1.600981
0.644727	1.594534
0.644824	1.581021
0.644922	1.575687
0.645020	1.544818
0.645117	1.554154
0.645215	1.601651
0.645312	1.618495
0.645410	1.622938
0.645508	1.618189
0.645605	1.620550
0.645703	1.620604
0.645801	1.622156
0.645898	1.622200
0.645996	1.623024
0.646094	1.621173
0.646191	1.618232
0.646289	1.607966
0.646387	1.592827
0.646484	1.569556
0.646582	1.526267
0.646680	1.553078
0.646777	1.579274
0.646875	1.590370
0.646973	1.590944
0.647070	1.584024
0.647168	1.556206
0.647266	1.536431
0.647363	1.549611
0.647461	1.557510
0.647559	1.556531
0.647656	1.553970
0.647754	1.548143
0.647852	1.582699
0.647949	1.610039
0.648047	1.615992
0.648145	1.622619
0.648242	1.627369
0.648340	1.633934
0.648437	1.640677
0.648535	1.647435
0.648633	1.642223
0.648730	1.631260
0.648828	1.595051
0.648926	1.579730
0.649023	1.595130
0.649121	1.615767
0.649219	1.611011
0.649316	1.607448
0.649414	1.584681
0.649512	1.570415
0.649609	1.562082
0.649707	1.587716
0.649805	1.537728
0.649902	1.519575
0.650000	1.568760
0.650098	1.604149
0.650195	1.616857
0.650293	1.615161
0.650391	1.619079
0.650488	1.619054
0.650586	1.623317
0.650684	1.624069
0.650781	1.629138
0.650879	1.627804
0.650977	1.625485
0.651074	1.601317
0.651172	1.580781
0.651270	1.594889
0.651367	1.621512
0.651465	1.616770
0.651562	1.611304
0.651660	1.600578
0.651758	1.584036
0.651855	1.544981
0.651953	1.519526
0.652051	1.525621
0.652148	1.536240
0.652246	1.572858
0.652344	1.572713
0.652441	1.561557
0.652539	1.556713
0.652637	1.562031
0.652734	1.559747
0.652832	1.565456
0.652930	1.601143
0.653027	1.613101
0.653125	1.621282
0.653223	1.626758
0.653320	1.639540
0.653418	1.627931
0.653516	1.626872
0.653613	1.617104
0.653711	1.626526
0.653809	1.622921
0.653906	1.614403
0.654004	1.606853
0.654102	1.600912
0.654199	1.593498
0.654297	1.586721
0.654395	1.569599
0.654492	1.588522
0.654590	1.623922
0.654687	1.618460
0.654785	1.626456
0.654883	1.630971
0.654980	1.631617
0.655078	1.621653
0.655176	1.619346
0.655273	1.622188
0.655371	1.624579
0.655469	1.631669
0.655566	1.631033
0.655664	1.636853
0.655762	1.643673
0.655859	1.624810
0.655957	1.601089
0.656055	1.613907
0.656152	1.620433
0.656250	1.599658
0.656348	1.605322
0.656445	1.602582
0.656543	1.598894
0.656641	1.592325
0.656738	1.569453
0.656836	1.545315
0.656934	1.542440
0.657031	1.558273
0.657129	1.596250
0.657227	1.622151
0.657324	1.614828
0.657422	1.611978
0.657520	1.608229
0.657617	1.609669
0.657715	1.613711
0.657812	1.616750
0.657910	1.617763
0.658008	1.620175
0.658105	1.618925
0.658203	1.619683
0.658301	1.601024
0.658398	1.591640
0.658496	1.581126
0.658594	1.586675
0.658691	1.620200
0.658789	1.605322
0.658887	1.597253
0.658984	1.573859
0.659082	1.543981
0.659180	1.530300
0.659277	1.549444
0.659375	1.598418
0.659473	1.627647
0.659570	1.638501
0.659668	1.622115
0.659766	1.620032
0.659863	1.619253
0.659961	1.620416
0.660059	1.620435
0.660156	1.622407
0.660254	1.622894
0.660352	1.626244
0.660449	1.626500
0.660547	1.631604
0.660645	1.612443
0.660742	1.589449
0.660840	1.617465
0.660937	1.625438
0.661035	1.613743
0.661133	1.602403
0.661230	1.591607
0.661328	1.576581
0.661426	1.548363
0.661523	1.515918
0.661621	1.510781
0.661719	1.527960
0.661816	1.550937
0.661914	1.569129
0.662012	1.566208
0.662109	1.570950
0.662207	1.611327
0.662305	1.603337
0.662402	1.609318
0.662500	1.617173
0.662598	1.612237
0.662695	1.620075
0.662793	1.623268
0.662891	1.631310
0.662988	1.628050
0.663086	1.617193
0.663184	1.619147
0.663281	1.622395
0.663379	1.617528
0.663477	1.614089
0.663574	1.608047
0.663672	1.599576
0.663770	1.585418
0.663867	1.562762
0.663965	1.535389
0.664062	1.537542
0.664160	1.587974
0.664258	1.635804
0.664355	1.640871
0.664453	1.627496
0.664551	1.619270
0.664648	1.617130
0.664746	1.617935
0.664844	1.619190
0.664941	1.621054
0.665039	1.622957
0.665137	1.624363
0.665234	1.632859
0.665332	1.651985
0.665430	1.654222
0.665527	1.663533
0.665625	1.638133
0.665723	1.599385
0.665820	1.591909
0.665918	1.597904
0.666016	1.605165
0.666113	1.609138
0.666211	1.600742
0.666309	1.582325
0.666406	1.550445
0.666504	1.544028
0.666602	1.622098
0.666699	1.638476
0.666797	1.625845
0.666895	1.618210
0.666992	1.615876
0.667090	1.617337
0.667187	1.619893
0.667285	1.622066
0.667383	1.628307
0.667480	1.633964
0.667578	1.644958
0.667676	1.653195
0.667773	1.623333
0.667871	1.635532
0.667969	1.650096
0.668066	1.634001
0.668164	1.601372
0.668262	1.598333
0.668359	1.596555
0.668457	1.588452
0.668555	1.571235
0.668652	1.564877
0.668750	1.585006
0.668848	1.619009
0.668945	1.623582
0.669043	1.624205
0.669141	1.629543
0.669238	1.632945
0.669336	1.629161
0.669434	1.622015
0.669531	1.618812
0.669629	1.616824
0.669727	1.617356
0.669824	1.614972
0.669922	1.614470
0.670020	1.610233
0.670117	1.610408
0.670215	1.593527
0.670312	1.595767
0.670410	1.619194
0.670508	1.617123
0.670605	1.606427
0.670703	1.598011
0.670801	1.589340
0.670898	1.575458
0.670996	1.554927
0.671094	1.534521
0.671191	1.525949
0.671289	1.548450
0.671387	1.605616
0.671484	1.632359
0.671582	1.621443
0.671680	1.615382
0.671777	1.615647
0.671875	1.616734
0.671973	1.618255
0.672070	1.621808
0.672168	1.626464
0.672266	1.635141
0.672363	1.628613
0.672461	1.628054
0.672559	1.651560
0.672656	1.642278
0.672754	1.635068
0.672852	1.628184
0.672949	1.600088
0.673047	1.591288
0.673145	1.592912
0.673242	1.584717
0.673340	1.569794
0.673437	1.562723
0.673535	1.564364
0.673633	1.597637
0.673730	1.615765
0.673828	1.621866
0.673926	1.621949
0.674023	1.620235
0.674121	1.617559
0.674219	1.616924
0.674316	1.619068
0.674414	1.620834
0.674512	1.623674
0.674609	1.626000
0.674707	1.629023
0.674805	1.630668
0.674902	1.626428
0.675000	1.622776
0.675098	1.624240
0.675195	1.621492
0.675293	1.604647
0.675391	1.566916
0.675488	1.584250
0.675586	1.600777
0.675684	1.586666
0.675781	1.564853
0.675879	1.568584
0.675977	1.572906
0.676074	1.542283
0.676172	1.569065
0.676270	1.582314
0.676367	1.568286
0.676465	1.597417
0.676562	1.616137
0.676660	1.617033
0.676758	1.620590
0.676855	1.621794
0.676953	1.626143
0.677051	1.628787
0.677148	1.634381
0.677246	1.634068
0.677344	1.638434
0.677441	1.611247
0.677539	1.572886
0.677637	1.596415
0.677734	1.608118
0.677832	1.606906
0.677930	1.598078
0.678027	1.587822
0.678125	1.569758
0.678223	1.541635
0.678320	1.524882
0.678418	1.556359
0.678516	1.600893
0.678613	1.604041
0.678711	1.612922
0.678809	1.618312
0.678906	1.621622
0.679004	1.622062
0.679102	1.622296
0.679199	1.621630
0.679297	1.621851
0.679395	1.621116
0.679492	1.620913
0.679590	1.618373
0.679687	1.615417
0.679785	1.606889
0.679883	1.584697
0.679980	1.531532
0.680078	1.530622
0.680176	1.591544
0.680273	1.605964
0.680371	1.603461
0.680469	1.603111
0.680566	1.606194
0.680664	1.598535
0.680762	1.584176
0.680859	1.612593
0.680957	1.626924
0.681055	1.626946
0.681152	1.628980
0.681250	1.641864
0.681348	1.629276
0.681445	1.605145
0.681543	1.607498
0.681641	1.611629
0.681738	1.616007
0.681836	1.620044
0.681934	1.623568
0.682031	1.628100
0.682129	1.634427
0.682227	1.635393
0.682324	1.637100
0.682422	1.624040
0.682520	1.625324
0.682617	1.617534
0.682715	1.606521
0.682812	1.593606
0.682910	1.583907
0.683008	1.576180
0.683105	1.539111
0.683203	1.533548
0.683301	1.563571
0.683398	1.554155
0.683496	1.553171
0.683594	1.556434
0.683691	1.565860
0.683789	1.570901
0.683887	1.602981
0.683984	1.614004
0.684082	1.622802
0.684180	1.625129
0.684277	1.633498
0.684375	1.632849
0.684473	1.634421
0.684570	1.603279
0.684668	1.601740
0.684766	1.605028
0.684863	1.592375
0.684961	1.600689
0.685059	1.600407
0.685156	1.603009
0.685254	1.607390
0.685352	1.597713
0.685449	1.574401
0.685547	1.570350
0.685645	1.591026
0.685742	1.611256
0.685840	1.622051
0.685937	1.632380
0.686035	1.620144
0.686133	1.620157
0.686230	1.620088
0.686328	1.622897
0.686426	1.623913
0.686523	1.628104
0.686621	1.631260
0.686719	1.642529
0.686816	1.648592
0.686914	1.635241
0.687012	1.674540
0.687109	1.662387
0.687207	1.625443
0.687305	1.613125
0.687402	1.611897
0.687500	1.608129
0.687598	1.601765
0.687695	1.593390
0.687793	1.580171
0.687891	1.561460
0.687988	1.538272
0.688086	1.527084
0.688184	1.551478
0.688281	1.590510
0.688379	1.613700
0.688477	1.613497
0.688574	1.616978
0.688672	1.618520
0.688770	1.622128
0.688867	1.625467
0.688965	1.631185
0.689062	1.638407
0.689160	1.647753
0.689258	1.640217
0.689355	1.644903
0.689453	1.646988
0.689551	1.634121
0.689648	1.620664
0.689746	1.609998
0.689844	1.604580
0.689941	1.590787
0.690039	1.570885
0.690137	1.533269
0.690234	1.518824
0.690332	1.544324
0.690430	1.569545
0.690527	1.595951
0.690625	1.614729
0.690723	1.621316
0.690820	1.616879
0.690918	1.614439
0.691016	1.618697
0.691113	1.617160
0.691211	1.622143
0.691309	1.619416
0.691406	1.627292
0.691504	1.618184
0.691602	1.611022
0.691699	1.536450
0.691797	1.573979
0.691895	1.636005
0.691992	1.624447
0.692090	1.633597
0.692187	1.611820
0.692285	1.619620
0.692383	1.609581
0.692480	1.598765
0.692578	1.572232
0.692676	1.562705
0.692773	1.576023
0.692871	1.582166
0.692969	1.602145
0.693066	1.621197
0.693164	1.623723
0.693262	1.624566
0.693359	1.622251
0.693457	1.623581
0.693555	1.624043
0.693652	1.627184
0.693750	1.628281
0.693848	1.630976
0.693945	1.627917
0.694043	1.610424
0.694141	1.582322
0.694238	1.606532
0.694336	1.628652
0.694434	1.620203
0.694531	1.620466
0.694629	1.612865
0.694727	1.599451
0.694824	1.576672
0.694922	1.557457
0.695020	1.544915
0.695117	1.557649
0.695215	1.578057
0.695312	1.598678
0.695410	1.614251
0.695508	1.618520
0.695605	1.618894
0.695703	1.619190
0.695801	1.621293
0.695898	1.622533
0.695996	1.625639
0.696094	1.627680
0.696191	1.633432
0.696289	1.633282
0.696387	1.624343
0.696484	1.585829
0.696582	1.556159
0.696680	1.602413
0.696777	1.618734
0.696875	1.610962
0.696973	1.606624
0.697070	1.599466
0.697168	1.584994
0.697266	1.566001
0.697363	1.543686
0.697461	1.529838
0.697559	1.536603
0.697656	1.552571
0.697754	1.550852
0.697852	1.537018
0.697949	1.548114
0.698047	1.586135
0.698145	1.604398
0.698242	1.616144
0.698340	1.617599
0.698437	1.621079
0.698535	1.629779
0.698633	1.645581
0.698730	1.638101
0.698828	1.642873
0.698926	1.648686
0.699023	1.635809
0.699121	1.623336
0.699219	1.611856
0.699316	1.600051
0.699414	1.580679
0.699512	1.553172
0.699609	1.536426
0.699707	1.538887
0.699805	1.587391
0.699902	1.608589
0.700000	1.609048
0.700098	1.617256
0.700195	1.619312
0.700293	1.621999
0.700391	1.623517
0.700488	1.622877
0.700586	1.622749
0.700684	1.620005
0.700781	1.620150
0.700879	1.598869
0.700977	1.594150
0.701074	1.593631
0.701172	1.573966
0.701270	1.614828
0.701367	1.627443
0.701465	1.639236
0.701562	1.636726
0.701660	1.634107
0.701758	1.630184
0.701855	1.616740
0.701953	1.595465
0.702051	1.581224
0.702148	1.566024
0.702246	1.579560
0.702344	1.615746
0.702441	1.611016
0.702539	1.615313
0.702637	1.623085
0.702734	1.623560
0.702832	1.625645
0.702930	1.625666
0.703027	1.626757
0.703125	1.628950
0.703223	1.633621
0.703320	1.646091
0.703418	1.683562
0.703516	1.690912
0.703613	1.650502
0.703711	1.626352
0.703809	1.610819
0.703906	1.618026
0.704004	1.613152
0.704102	1.613083
0.704199	1.600721
0.704297	1.594301
0.704395	1.529956
0.704492	1.552490
0.704590	1.611240
0.704687	1.614239
0.704785	1.626409
0.704883	1.622432
0.704980	1.629851
0.705078	1.625196
0.705176	1.624688
0.705273	1.619605
0.705371	1.620728
0.705469	1.616768
0.705566	1.617824
0.705664	1.610747
0.705762	1.607838
0.705859	1.574076
0.705957	1.568019
0.706055	1.614004
0.706152	1.614149
0.706250	1.620829
0.706348	1.627156
0.706445	1.609566
0.706543	1.588935
0.706641	1.588838
0.706738	1.607418
0.706836	1.605929
0.706934	1.603671
0.707031	1.584592
0.707129	1.569055
0.707227	1.579721
0.707324	1.581951
0.707422	1.587243
0.707520	1.600776
0.707617	1.606741
0.707715	1.613423
0.707812	1.614851
0.707910	1.618929
0.708008	1.617807
0.708105	1.620421
0.708203	1.614431
0.708301	1.613027
0.708398	1.571319
0.708496	1.546226
0.708594	1.567977
0.708691	1.592292
0.708789	1.607305
0.708887	1.606446
0.708984	1.601948
0.709082	1.591276
0.709180	1.574406
0.709277	1.577090
0.709375	1.573083
0.709473	1.570107
0.709570	1.589243
0.709668	1.609686
0.709766	1.625351
0.709863	1.614701
0.709961	1.615579
0.710059	1.615291
0.710156	1.619449
0.710254	1.618734
0.710352	1.621539
0.710449	1.622279
0.710547	1.613933
0.710645	1.559192
0.710742	1.591956
0.710840	1.584852
0.710937	1.592197
0.711035	1.610292
0.711133	1.594392
0.711230	1.580379
0.711328	1.580836
0.711426	1.585063
0.711523	1.600796
0.711621	1.640581
0.711719	1.621608
0.711816	1.605729
0.711914	1.612658
0.712012	1.619958
0.712109	1.620878
0.712207	1.621695
0.712305	1.621520
0.712402	1.621675
0.712500	1.621567
0.712598	1.621342
0.712695	1.621664
0.712793	1.620778
0.712891	1.620659
0.712988	1.614989
0.713086	1.603398
0.713184	1.569752
0.713281	1.570304
0.713379	1.615868
0.713477	1.626229
0.713574	1.627945
0.713672	1.612107
0.713770	1.601737
0.713867	1.589501
0.713965	1.576518
0.714062	1.556884
0.714160	1.540328
0.714258	1.539875
0.714355	1.566463
0.714453	1.593116
0.714551	1.604169
0.714648	1.609982
0.714746	1.614378
0.714844	1.615599
0.714941	1.617275
0.715039	1.616470
0.715137	1.617647
0.715234	1.615435
0.715332	1.615927
0.715430	1.606178
0.715527	1.604310
0.715625	1.591564
0.715723	1.585183
0.715820	1.571695
0.715918	1.540980
0.716016	1.547141
0.716113	1.549028
0.716211	1.579899
0.716309	1.606449
0.716406	1.614849
0.716504	1.602781
0.716602	1.588011
0.716699	1.582154
0.716797	1.572712
0.716895	1.558986
0.716992	1.564508
0.717090	1.601812
0.717187	1.609913
0.717285	1.613069
0.717383	1.615518
0.717480	1.618929
0.717578	1.622113
0.717676	1.626750
0.717773	1.632436
0.717871	1.642754
0.717969	1.640059
0.718066	1.604251
0.718164	1.609606
0.718262	1.617338
0.718359	1.612550
0.718457	1.609552
0.718555	1.606051
0.718652	1.602096
0.718750	1.593962
0.718848	1.596759
0.718945	1.553512
0.719043	1.558291
0.719141	1.572584
0.719238	1.624621
0.719336	1.627328
0.719434	1.621321
0.719531	1.622287
0.719629	1.621154
0.719727	1.624313
0.719824	1.623931
0.719922	1.629539
0.720020	1.626721
0.720117	1.620191
0.720215	1.604417
0.720312	1.616240
0.720410	1.657311
0.720508	1.616157
0.720605	1.592383
0.720703	1.622624
0.720801	1.617442
0.720898	1.592726
0.720996	1.595290
0.721094	1.593739
0.721191	1.595749
0.721289	1.595250
0.721387	1.599220
0.721484	1.611965
0.721582	1.620534
0.721680	1.618486
0.721777	1.621118
0.721875	1.618644
0.721973	1.619330
0.722070	1.620303
0.722168	1.623350
0.722266	1.625808
0.722363	1.632078
0.722461	1.639534
0.722559	1.654531
0.722656	1.654477
0.722754	1.631799
0.722852	1.596737
0.722949	1.576202
0.723047	1.585884
0.723145	1.599977
0.723242	1.595896
0.723340	1.595198
0.723437	1.581106
0.723535	1.583156
0.723633	1.567279
0.723730	1.548383
0.723828	1.552164
0.723926	1.583333
0.724023	1.637219
0.724121	1.647210
0.724219	1.627278
0.724316	1.620994
0.724414	1.621285
0.724512	1.621126
0.724609	1.622559
0.724707	1.624389
0.724805	1.627545
0.724902	1.633585
0.725000	1.636958
0.725098	1.611606
0.725195	1.632234
0.725293	1.632782
0.725391	1.619164
0.725488	1.617285
0.725586	1.605377
0.725684	1.600053
0.725781	1.598019
0.725879	1.592697
0.725977	1.591825
0.726074	1.590108
0.726172	1.551362
0.726270	1.583416
0.726367	1.616352
0.726465	1.610948
0.726562	1.620732
0.726660	1.622372
0.726758	1.623336
0.726855	1.622875
0.726953	1.623884
0.727051	1.625474
0.727148	1.627953
0.727246	1.633004
0.727344	1.640323
0.727441	1.651754
0.727539	1.623774
0.727637	1.609117
0.727734	1.618664
0.727832	1.612504
0.727930	1.608645
0.728027	1.603703
0.728125	1.594069
0.728223	1.580924
0.728320	1.554257
0.728418	1.515228
0.728516	1.558963
0.728613	1.611596
0.728711	1.616784
0.728809	1.646609
0.728906	1.645522
0.729004	1.622737
0.729102	1.620034
0.729199	1.620142
0.729297	1.621046
0.729395	1.623113
0.729492	1.624488
0.729590	1.627738
0.729687	1.626114
0.729785	1.622650
0.729883	1.610211
0.729980	1.621823
0.730078	1.637727
0.730176	1.614325
0.730273	1.609312
0.730371	1.605793
0.730469	1.599775
0.730566	1.589482
0.730664	1.570397
0.730762	1.543444
0.730859	1.544310
0.730957	1.591918
0.731055	1.622568
0.731152	1.626672
0.731250	1.628659
0.731348	1.621985
0.731445	1.619680
0.731543	1.618876
0.731641	1.618915
0.731738	1.620280
0.731836	1.619726
0.731934	1.621369
0.732031	1.611159
0.732129	1.596004
0.732227	1.593804
0.732324	1.583593
0.732422	1.611891
0.732520	1.606458
0.732617	1.600292
0.732715	1.596809
0.732812	1.600832
0.732910	1.589834
0.733008	1.571124
0.733105	1.553413
0.733203	1.586243
0.733301	1.643235
0.733398	1.632853
0.733496	1.629105
0.733594	1.630928
0.733691	1.615106
0.733789	1.612834
0.733887	1.614761
0.733984	1.617526
0.734082	1.620070
0.734180	1.622745
0.734277	1.627032
0.734375	1.630227
0.734473	1.629991
0.734570	1.626119
0.734668	1.623892
0.734766	1.609383
0.734863	1.584430
0.734961	1.601235
0.735059	1.607225
0.735156	1.605533
0.735254	1.599228
0.735352	1.585057
0.735449	1.562004
0.735547	1.547351
0.735645	1.518336
0.735742	1.542967
0.735840	1.567744
0.735937	1.576992
0.736035	1.582508
0.736133	1.609543
0.736230	1.614090
0.736328	1.617470
0.736426	1.620599
0.736523	1.623671
0.736621	1.627387
0.736719	1.631454
0.736816	1.637624
0.736914	1.639717
0.737012	1.638848
0.737109	1.620014
0.737207	1.608622
0.737305	1.611462
0.737402	1.614415
0.737500	1.612778
0.737598	1.608270
0.737695	1.603875
0.737793	1.590990
0.737891	1.575964
0.737988	1.549972
0.738086	1.554205
0.738184	1.592150
0.738281	1.597490
0.738379	1.581808
0.738477	1.613146
0.738574	1.624374
0.738672	1.620914
0.738770	1.622474
0.738867	1.622294
0.738965	1.624566
0.739062	1.626823
0.739160	1.630510
0.739258	1.636934
0.739355	1.645629
0.739453	1.635809
0.739551	1.611022
0.739648	1.594196
0.739746	1.620800
0.739844	1.613074
0.739941	1.603603
0.740039	1.595713
0.740137	1.585564
0.740234	1.565908
0.740332	1.534132
0.740430	1.517198
0.740527	1.528924
0.740625	1.588463
0.740723	1.616617
0.740820	1.613393
0.740918	1.621600
0.741016	1.622109
0.741113	1.622010
0.741211	1.621647
0.741309	1.622475
0.741406	1.623946
0.741504	1.625288
0.741602	1.627065
0.741699	1.625540
0.741797	1.612326
0.741895	1.599947
0.741992	1.621157
0.742090	1.614038
0.742187	1.605542
0.742285	1.619300
0.742383	1.612659
0.742480	1.607070
0.742578	1.594650
0.742676	1.574874
0.742773	1.550582
0.742871	1.534377
0.742969	1.545058
0.743066	1.586667
0.743164	1.624155
0.743262	1.628959
0.743359	1.624560
0.743457	1.623975
0.743555	1.623507
0.743652	1.624166
0.743750	1.625091
0.743848	1.625875
0.743945	1.628108
0.744043	1.630487
0.744141	1.635703
0.744238	1.613544
0.744336	1.601010
0.744434	1.615879
0.744531	1.617493
0.744629	1.617361
0.744727	1.608430
0.744824	1.608796
0.744922	1.600069
0.745020	1.617270
0.745117	1.597626
0.745215	1.540217
0.745312	1.565485
0.745410	1.594056
0.745508	1.607878
0.745605	1.578738
0.745703	1.552341
0.745801	1.546769
0.745898	1.595375
0.745996	1.612512
0.746094	1.617478
0.746191	1.617913
0.746289	1.622349
0.746387	1.623920
0.746484	1.632992
0.746582	1.637810
0.746680	1.623546
0.746777	1.587538
0.746875	1.612422
0.746973	1.650563
0.747070	1.618167
0.747168	1.594331
0.747266	1.595231
0.747363	1.588516
0.747461	1.575933
0.747559	1.556431
0.747656	1.535903
0.747754	1.531309
0.747852	1.559022
0.747949	1.595209
0.748047	1.627308
0.748145	1.635894
0.748242	1.616283
0.748340	1.617404
0.748437	1.618239
0.748535	1.623226
0.748633	1.624267
0.748730	1.629100
0.748828	1.628128
0.748926	1.629960
0.749023	1.600874
0.749121	1.539464
0.749219	1.567235
0.749316	1.599472
0.749414	1.618300
0.749512	1.614461
0.749609	1.610594
0.749707	1.592258
0.749805	1.580149
0.749902	1.553795
0.750000	1.546794
0.750098	1.610928
0.750195	1.621503
0.750293	1.642621
0.750391	1.639132
0.750488	1.613800
0.750586	1.624256
0.750684	1.622265
0.750781	1.620968
0.750879	1.618749
0.750977	1.616117
0.751074	1.611823
0.751172	1.604203
0.751270	1.591384
0.751367	1.571147
0.751465	1.552824
0.751562	1.540000
0.751660	1.531220
0.751758	1.530837
0.751855	1.541323
0.751953	1.548455
0.752051	1.562108
0.752148	1.551635
0.752246	1.522221
0.752344	1.493861
0.752441	1.505039
0.752539	1.555991
0.752637	1.595914
0.752734	1.621031
0.752832	1.614289
0.752930	1.616824
0.753027	1.615525
0.753125	1.613118
0.753223	1.612226
0.753320	1.610990
0.753418	1.610361
0.753516	1.606449
0.753613	1.602715
0.753711	1.590444
0.753809	1.576788
0.753906	1.542742
0.754004	1.507185
0.754102	1.513229
0.754199	1.535490
0.754297	1.505283
0.754395	1.502768
0.754492	1.536507
0.754590	1.555176
0.754687	1.551996
0.754785	1.523300
0.754883	1.527123
0.754980	1.564979
0.755078	1.606667
0.755176	1.618018
0.755273	1.621289
0.755371	1.628892
0.755469	1.624723
0.755566	1.615648
0.755664	1.616733
0.755762	1.617916
0.755859	1.621237
0.755957	1.623166
0.756055	1.626032
0.756152	1.632434
0.756250	1.632586
0.756348	1.618345
0.756445	1.612907
0.756543	1.601912
0.756641	1.578780
0.756738	1.575920
0.756836	1.581694
0.756934	1.582787
0.757031	1.573566
0.757129	1.548703
0.757227	1.520695
0.757324	1.521023
0.757422	1.540092
0.757520	1.534981
0.757617	1.541391
0.757715	1.582740
0.757812	1.605793
0.757910	1.612697
0.758008	1.616770
0.758105	1.619987
0.758203	1.621670
0.758301	1.623712
0.758398	1.623806
0.758496	1.625503
0.758594	1.622473
0.758691	1.630418
0.758789	1.651565
0.758887	1.623287
0.758984	1.605330
0.759082	1.598675
0.759180	1.605761
0.759277	1.601082
0.759375	1.600287
0.759473	1.583206
0.759570	1.584094
0.759668	1.568305
0.759766	1.556244
0.759863	1.599728
0.759961	1.618263
0.760059	1.632257
0.760156	1.623582
0.760254	1.622790
0.760352	1.618617
0.760449	1.620346
0.760547	1.616521
0.760645	1.618097
0.760742	1.611158
0.760840	1.612696
0.760937	1.587142
0.761035	1.560575
0.761133	1.580746
0.761230	1.558433
0.761328	1.541968
0.761426	1.548846
0.761523	1.525082
0.761621	1.516431
0.761719	1.560841
0.761816	1.528694
0.761914	1.453567
0.762012	1.479606
0.762109	1.533678
0.762207	1.580081
0.762305	1.613513
0.762402	1.616332
0.762500	1.619724
0.762598	1.619207
0.762695	1.621019
0.762793	1.620059
0.762891	1.620940
0.762988	1.621153
0.763086	1.622910
0.763184	1.625213
0.763281	1.624771
0.763379	1.634224
0.763477	1.652856
0.763574	1.623824
0.763672	1.609240
0.763770	1.613512
0.763867	1.608133
0.763965	1.596194
0.764062	1.589669
0.764160	1.581863
0.764258	1.570688
0.764355	1.559986
0.764453	1.568803
0.764551	1.596798
0.764648	1.589904
0.764746	1.581963
0.764844	1.599108
0.764941	1.618508
0.765039	1.621169
0.765137	1.619192
0.765234	1.615903
0.765332	1.621561
0.765430	1.609043
0.765527	1.596812
0.765625	1.548258
0.765723	1.574046
0.765820	1.633253
0.765918	1.612394
0.766016	1.613680
0.766113	1.601585
0.766211	1.598005
0.766309	1.585439
0.766406	1.572294
0.766504	1.555359
0.766602	1.566087
0.766699	1.600924
0.766797	1.635054
0.766895	1.643565
0.766992	1.637476
0.767090	1.628789
0.767187	1.625030
0.767285	1.623425
0.767383	1.622299
0.767480	1.623228
0.767578	1.622395
0.767676	1.625653
0.767773	1.626554
0.767871	1.638601
0.767969	1.626105
0.768066	1.624554
0.768164	1.613126
0.768262	1.596768
0.768359	1.611003
0.768457	1.607778
0.768555	1.605518
0.768652	1.595508
0.768750	1.583377
0.768848	1.573367
0.768945	1.592415
0.769043	1.606295
0.769141	1.617465
0.769238	1.628867
0.769336	1.636661
0.769434	1.631016
0.769531	1.623409
0.769629	1.620133
0.769727	1.620873
0.769824	1.620497
0.769922	1.622397
0.770020	1.620276
0.770117	1.618296
0.770215	1.607647
0.770312	1.607483
0.770410	1.609550
0.770508	1.617270
0.770605	1.600983
0.770703	1.578013
0.770801	1.583957
0.770898	1.593090
0.770996	1.585969
0.771094	1.551652
0.771191	1.517601
0.771289	1.533044
0.771387	1.570804
0.771484	1.567325
0.771582	1.576993
0.771680	1.568325
0.771777	1.572911
0.771875	1.577501
0.771973	1.599518
0.772070	1.616182
0.772168	1.609893
0.772266	1.616677
0.772363	1.618921
0.772461	1.623453
0.772559	1.628373
0.772656	1.642590
0.772754	1.635475
0.772852	1.616718
0.772949	1.597040
0.773047	1.590238
0.773145	1.572924
0.773242	1.562559
0.773340	1.577110
0.773437	1.584456
0.773535	1.583375
0.773633	1.585761
0.773730	1.576963
0.773828	1.570076
0.773926	1.571991
0.774023	1.588232
0.774121	1.588808
0.774219	1.617728
0.774316	1.620181
0.774414	1.620388
0.774512	1.621174
0.774609	1.621273
0.774707	1.622904
0.774805	1.625235
0.774902	1.629759
0.775000	1.637967
0.775098	1.665872
0.775195	1.661878
0.775293	1.659613
0.775391	1.650427
0.775488	1.626501
0.775586	1.613467
0.775684	1.610735
0.775781	1.609992
0.775879	1.598024
0.775977	1.586260
0.776074	1.574217
0.776172	1.593190
0.776270	1.620720
0.776367	1.623687
0.776465	1.628719
0.776562	1.625249
0.776660	1.625607
0.776758	1.623142
0.776855	1.623763
0.776953	1.622465
0.777051	1.623989
0.777148	1.623976
0.777246	1.627120
0.777344	1.629291
0.777441	1.634440
0.777539	1.627217
0.777637	1.627327
0.777734	1.610651
0.777832	1.606122
0.777930	1.614573
0.778027	1.611842
0.778125	1.609372
0.778223	1.602665
0.778320	1.589423
0.778418	1.565364
0.778516	1.545490
0.778613	1.568322
0.778711	1.604752
0.778809	1.624046
0.778906	1.651017
0.779004	1.650408
0.779102	1.606514
0.779199	1.602011
0.779297	1.614302
0.779395	1.619465
0.779492	1.621945
0.779590	1.624029
0.779687	1.624438
0.779785	1.626514
0.779883	1.624929
0.779980	1.624821
0.780078	1.606472
0.780176	1.625340
0.780273	1.618955
0.780371	1.605300
0.780469	1.618599
0.780566	1.604248
0.780664	1.599518
0.780762	1.595945
0.780859	1.590979
0.780957	1.576518
0.781055	1.547702
0.781152	1.556463
0.781250	1.573116
0.781348	1.569057
0.781445	1.573550
0.781543	1.584741
0.781641	1.606679
0.781738	1.584421
0.781836	1.566917
0.781934	1.605267
0.782031	1.618023
0.782129	1.631932
0.782227	1.631368
0.782324	1.622893
0.782422	1.599680
0.782520	1.591697
0.782617	1.582594
0.782715	1.564648
0.782812	1.569193
0.782910	1.588747
0.783008	1.597996
0.783105	1.593000
0.783203	1.574653
0.783301	1.557084
0.783398	1.567593
0.783496	1.591007
0.783594	1.582714
0.783691	1.607398
0.783789	1.612674
0.783887	1.616300
0.783984	1.624947
0.784082	1.625269
0.784180	1.628152
0.784277	1.629057
0.784375	1.632323
0.784473	1.634386
0.784570	1.634535
0.784668	1.623333
0.784766	1.596862
0.784863	1.578105
0.784961	1.601932
0.785059	1.615580
0.785156	1.614856
0.785254	1.612581
0.785352	1.608957
0.785449	1.601357
0.785547	1.588940
0.785645	1.567394
0.785742	1.555316
0.785840	1.556261
0.785937	1.567408
0.786035	1.598020
0.786133	1.609218
0.786230	1.614762
0.786328	1.617400
0.786426	1.618942
0.786523	1.618785
0.786621	1.618549
0.786719	1.617278
0.786816	1.615659
0.786914	1.612900
0.787012	1.608876
0.787109	1.610787
0.787207	1.619492
0.787305	1.599340
0.787402	1.578932
0.787500	1.588025
0.787598	1.597886
0.787695	1.583589
0.787793	1.587281
0.787891	1.585982
0.787988	1.597626
0.788086	1.582220
0.788184	1.547816
0.788281	1.581169
0.788379	1.613171
0.788477	1.634053
0.788574	1.632301
0.788672	1.624213
0.788770	1.587599
0.788867	1.587563
0.788965	1.605407
0.789062	1.612754
0.789160	1.616438
0.789258	1.618868
0.789355	1.618904
0.789453	1.617491
0.789551	1.582934
0.789648	1.584778
0.789746	1.590589
0.789844	1.598485
0.789941	1.615344
0.790039	1.615183
0.790137	1.615856
0.790234	1.607473
0.790332	1.592940
0.790430	1.570948
0.790527	1.548660
0.790625	1.529862
0.790723	1.541334
0.790820	1.557212
0.790918	1.564752
0.791016	1.561678
0.791113	1.577086
0.791211	1.602018
0.791309	1.610678
0.791406	1.617022
0.791504	1.620150
0.791602	1.624370
0.791699	1.627916
0.791797	1.635104
0.791895	1.643145
0.791992	1.642665
0.792090	1.620028
0.792187	1.588948
0.792285	1.602885
0.792383	1.610660
0.792480	1.612808
0.792578	1.613745
0.792676	1.622912
0.792773	1.629354
0.792871	1.615256
0.792969	1.598004
0.793066	1.597361
0.793164	1.608938
0.793262	1.596149
0.793359	1.570550
0.793457	1.581860
0.793555	1.612853
0.793652	1.617861
0.793750	1.618999
0.793848	1.620112
0.793945	1.620367
0.794043	1.621601
0.794141	1.622572
0.794238	1.625326
0.794336	1.627914
0.794434	1.636076
0.794531	1.639247
0.794629	1.618782
0.794727	1.620264
0.794824	1.596769
0.794922	1.574167
0.795020	1.598708
0.795117	1.608016
0.795215	1.592518
0.795312	1.598374
0.795410	1.584571
0.795508	1.570682
0.795605	1.572609
0.795703	1.580283
0.795801	1.605248
0.795898	1.616720
0.795996	1.621991
0.796094	1.623577
0.796191	1.623934
0.796289	1.624296
0.796387	1.624395
0.796484	1.624674
0.796582	1.623973
0.796680	1.623657
0.796777	1.626920
0.796875	1.634750
0.796973	1.615552
0.797070	1.593249
0.797168	1.586220
0.797266	1.591129
0.797363	1.596021
0.797461	1.587753
0.797559	1.573780
0.797656	1.542798
0.797754	1.525871
0.797852	1.542072
0.797949	1.572318
0.798047	1.624823
0.798145	1.638195
0.798242	1.625099
0.798340	1.616581
0.798437	1.618241
0.798535	1.618555
0.798633	1.621446
0.798730	1.621303
0.798828	1.625147
0.798926	1.624047
0.799023	1.629857
0.799121	1.608371
0.799219	1.606560
0.799316	1.651031
0.799414	1.648608
0.799512	1.636239
0.799609	1.616984
0.799707	1.609668
0.799805	1.600482
0.799902	1.593070
0.800000	1.574243
0.800098	1.552636
0.800195	1.514031
0.800293	1.510297
0.800391	1.567542
0.800488	1.619029
0.800586	1.651740
0.800684	1.637217
0.800781	1.628676
0.800879	1.625874
0.800977	1.620804
0.801074	1.620431
0.801172	1.620527
0.801270	1.622262
0.801367	1.627962
0.801465	1.636946
0.801562	1.634665
0.801660	1.608995
0.801758	1.616656
0.801855	1.631563
0.801953	1.614229
0.802051	1.602955
0.802148	1.596131
0.802246	1.589369
0.802344	1.572102
0.802441	1.548029
0.802539	1.536446
0.802637	1.577088
0.802734	1.634555
0.802832	1.647414
0.802930	1.623990
0.803027	1.626029
0.803125	1.629904
0.803223	1.625607
0.803320	1.624890
0.803418	1.624726
0.803516	1.625739
0.803613	1.627032
0.803711	1.630207
0.803809	1.633171
0.803906	1.633546
0.804004	1.610399
0.804102	1.589535
0.804199	1.617721
0.804297	1.628090
0.804395	1.619172
0.804492	1.612717
0.804590	1.607961
0.804687	1.602735
0.804785	1.598152
0.804883	1.576828
0.804980	1.535954
0.805078	1.510642
0.805176	1.551378
0.805273	1.622983
0.805371	1.633167
0.805469	1.613959
0.805566	1.614999
0.805664	1.616658
0.805762	1.615740
0.805859	1.620062
0.805957	1.624252
0.806055	1.629744
0.806152	1.636226
0.806250	1.641512
0.806348	1.618326
0.806445	1.607528
0.806543	1.602117
0.806641	1.588621
0.806738	1.576424
0.806836	1.575757
0.806934	1.593454
0.807031	1.592365
0.807129	1.585586
0.807227	1.555191
0.807324	1.512564
0.807422	1.482413
0.807520	1.501573
0.807617	1.511995
0.807715	1.530859
0.807812	1.550427
0.807910	1.586794
0.808008	1.607318
0.808105	1.612997
0.808203	1.619026
0.808301	1.621435
0.808398	1.624532
0.808496	1.625796
0.808594	1.626481
0.808691	1.623824
0.808789	1.616661
0.808887	1.608927
0.808984	1.609254
0.809082	1.604749
0.809180	1.598001
0.809277	1.597309
0.809375	1.592680
0.809473	1.581852
0.809570	1.566365
0.809668	1.545946
0.809766	1.535289
0.809863	1.534500
0.809961	1.565124
0.810059	1.597098
0.810156	1.609414
0.810254	1.616265
0.810352	1.618305
0.810449	1.620373
0.810547	1.620915
0.810645	1.622442
0.810742	1.623511
0.810840	1.625471
0.810937	1.624879
0.811035	1.615942
0.811133	1.582471
0.811230	1.569322
0.811328	1.591971
0.811426	1.596937
0.811523	1.604786
0.811621	1.604419
0.811719	1.602418
0.811816	1.590532
0.811914	1.585763
0.812012	1.584948
0.812109	1.571632
0.812207	1.581150
0.812305	1.581395
0.812402	1.595802
0.812500	1.621507
0.812598	1.614414
0.812695	1.614862
0.812793	1.617312
0.812891	1.619208
0.812988	1.622508
0.813086	1.623237
0.813184	1.627912
0.813281	1.627760
0.813379	1.634146
0.813477	1.619327
0.813574	1.622498
0.813672	1.624220
0.813770	1.610855
0.813867	1.626193
0.813965	1.614910
0.814062	1.612243
0.814160	1.605837
0.814258	1.599267
0.814355	1.594283
0.814453	1.585628
0.814551	1.602928
0.814648	1.633792
0.814746	1.608108
0.814844	1.600694
0.814941	1.612475
0.815039	1.624156
0.815137	1.625646
0.815234	1.626723
0.815332	1.628305
0.815430	1.629014
0.815527	1.632638
0.815625	1.629920
0.815723	1.630600
0.815820	1.600970
0.815918	1.604769
0.816016	1.647347
0.816113	1.618322
0.816211	1.616828
0.816309	1.617160
0.816406	1.610198
0.816504	1.597663
0.816602	1.585233
0.816699	1.559396
0.816797	1.528346
0.816895	1.549192
0.816992	1.572319
0.817090	1.565875
0.817187	1.580164
0.817285	1.598053
0.817383	1.611615
0.817480	1.614749
0.817578	1.618029
0.817676	1.618195
0.817773	1.620161
0.817871	1.618483
0.817969	1.620205
0.818066	1.616994
0.818164	1.615247
0.818262	1.603634
0.818359	1.615297
0.818457	1.629568
0.818555	1.606490
0.818652	1.609599
0.818750	1.607597
0.818848	1.602702
0.818945	1.589749
0.819043	1.573624
0.819141	1.551531
0.819238	1.538185
0.819336	1.534284
0.819434	1.580545
0.819531	1.602457
0.819629	1.588229
0.819727	1.601207
0.819824	1.606562
0.819922	1.610228
0.820020	1.611931
0.820117	1.613066
0.820215	1.614186
0.820312	1.612191
0.820410	1.605893
0.820508	1.591603
0.820605	1.590362
0.820703	1.577664
0.820801	1.581269
0.820898	1.605859
0.820996	1.611134
0.821094	1.612052
0.821191	1.595087
0.821289	1.586093
0.821387	1.568634
0.821484	1.543114
0.821582	1.512933
0.821680	1.513930
0.821777	1.534971
0.821875	1.550805
0.821973	1.570251
0.822070	1.587433
0.822168	1.601547
0.822266	1.608634
0.822363	1.613997
0.822461	1.616844
0.822559	1.620942
0.822656	1.622958
0.822754	1.628436
0.822852	1.627904
0.822949	1.628563
0.823047	1.631985
0.823145	1.614741
0.823242	1.589199
0.823340	1.543561
0.823437	1.546041
0.823535	1.566815
0.823633	1.590780
0.823730	1.593468
0.823828	1.584933
0.823926	1.578591
0.824023	1.586248
0.824121	1.608424
0.824219	1.592437
0.824316	1.606360
0.824414	1.611939
0.824512	1.617139
0.824609	1.620617
0.824707	1.623060
0.824805	1.622895
0.824902	1.618365
0.825000	1.618283
0.825098	1.621539
0.825195	1.626206
0.825293	1.633018
0.825391	1.637558
0.825488	1.639032
0.825586	1.624168
0.825684	1.594790
0.825781	1.569082
0.825879	1.563048
0.825977	1.558744
0.826074	1.580331
0.826172	1.593219
0.826270	1.580103
0.826367	1.548396
0.826465	1.544797
0.826562	1.545219
0.826660	1.563862
0.826758	1.578511
0.826855	1.573825
0.826953	1.561075
0.827051	1.598058
0.827148	1.614914
0.827246	1.615561
0.827344	1.618599
0.827441	1.619339
0.827539	1.622342
0.827637	1.626954
0.827734	1.635834
0.827832	1.630057
0.827930	1.596392
0.828027	1.570283
0.828125	1.597388
0.828223	1.620461
0.828320	1.610563
0.828418	1.595988
0.828516	1.581277
0.828613	1.564815
0.828711	1.533946
0.828809	1.539827
0.828906	1.597410
0.829004	1.650804
0.829102	1.648619
0.829199	1.622506
0.829297	1.625775
0.829395	1.622575
0.829492	1.624238
0.829590	1.623528
0.829687	1.625308
0.829785	1.625860
0.829883	1.628541
0.829980	1.629701
0.830078	1.628187
0.830176	1.622444
0.830273	1.622120
0.830371	1.638427
0.830469	1.626868
0.830566	1.602922
0.830664	1.602762
0.830762	1.599516
0.830859	1.595996
0.830957	1.585335
0.831055	1.567976
0.831152	1.551059
0.831250	1.531112
0.831348	1.549585
0.831445	1.609725
0.831543	1.628519
0.831641	1.613404
0.831738	1.609935
0.831836	1.607494
0.831934	1.610239
0.832031	1.611591
0.832129	1.613318
0.832227	1.612774
0.832324	1.612497
0.832422	1.608473
0.832520	1.602861
0.832617	1.586894
0.832715	1.548895
0.832812	1.579217
0.832910	1.586066
0.833008	1.578273
0.833105	1.591163
0.833203	1.592013
0.833301	1.589740
0.833398	1.596947
0.833496	1.575574
0.833594	1.568212
0.833691	1.589974
0.833789	1.590039
0.833887	1.595412
0.833984	1.606699
0.834082	1.610981
0.834180	1.614657
0.834277	1.615541
0.834375	1.617804
0.834473	1.616980
0.834570	1.619737
0.834668	1.617526
0.834766	1.625269
0.834863	1.614031
0.834961	1.605729
0.835059	1.625575
0.835156	1.637095
0.835254	1.628270
0.835352	1.609848
0.835449	1.608748
0.835547	1.600956
0.835645	1.594840
0.835742	1.580072
0.835840	1.556195
0.835937	1.527741
0.836035	1.532452
0.836133	1.547599
0.836230	1.544054
0.836328	1.541554
0.836426	1.549152
0.836523	1.581316
0.836621	1.605352
0.836719	1.612477
0.836816	1.618799
0.836914	1.621506
0.837012	1.626697
0.837109	1.630964
0.837207	1.637626
0.837305	1.617179
0.837402	1.621645
0.837500	1.624889
0.837598	1.626620
0.837695	1.620779
0.837793	1.616332
0.837891	1.607695
0.837988	1.608423
0.838086	1.595721
0.838184	1.591478
0.838281	1.555616
0.838379	1.566742
0.838477	1.595566
0.838574	1.625336
0.838672	1.633583
0.838770	1.620820
0.838867	1.627781
0.838965	1.623577
0.839062	1.626762
0.839160	1.625224
0.839258	1.627480
0.839355	1.630271
0.839453	1.638543
0.839551	1.666430
0.839648	1.677491
0.839746	1.640392
0.839844	1.624425
0.839941	1.626125
0.840039	1.611584
0.840137	1.627175
0.840234	1.582614
0.840332	1.577288
0.840430	1.633652
0.840527	1.578015
0.840625	1.553459
0.840723	1.528799
0.840820	1.552678
0.840918	1.582805
0.841016	1.626916
0.841113	1.649354
0.841211	1.638587
0.841309	1.628659
0.841406	1.625160
0.841504	1.620206
0.841602	1.621561
0.841699	1.620826
0.841797	1.622121
0.841895	1.621789
0.841992	1.622232
0.842090	1.619853
0.842187	1.614773
0.842285	1.598408
0.842383	1.578574
0.842480	1.566724
0.842578	1.583203
0.842676	1.588635
0.842773	1.617749
0.842871	1.612225
0.842969	1.582591
0.843066	1.564960
0.843164	1.521853
0.843262	1.478200
0.843359	1.523728
0.843457	1.589686
0.843555	1.616494
0.843652	1.621725
0.843750	1.626954
0.843848	1.632422
0.843945	1.631786
0.844043	1.628164
0.844141	1.626736
0.844238	1.628443
0.844336	1.629743
0.844434	1.636614
0.844531	1.637992
0.844629	1.638601
0.844727	1.609279
0.844824	1.587004
0.844922	1.609904
0.845020	1.604047
0.845117	1.605684
0.845215	1.599815
0.845312	1.588746
0.845410	1.560288
0.845508	1.496661
0.845605	1.496607
0.845703	1.548886
0.845801	1.555318
0.845898	1.606550
0.845996	1.625561
0.846094	1.625146
0.846191	1.635005
0.846289	1.626047
0.846387	1.622614
0.846484	1.622988
0.846582	1.623482
0.846680	1.627048
0.846777	1.627141
0.846875	1.637228
0.846973	1.631386
0.847070	1.601607
0.847168	1.630252
0.847266	1.621134
0.847363	1.615174
0.847461	1.612518
0.847559	1.607882
0.847656	1.600821
0.847754	1.588385
0.847852	1.575812
0.847949	1.556719
0.848047	1.537217
0.848145	1.570431
0.848242	1.603814
0.848340	1.613699
0.848437	1.618246
0.848535	1.619220
0.848633	1.620834
0.848730	1.619525
0.848828	1.620628
0.848926	1.617912
0.849023	1.618311
0.849121	1.612577
0.849219	1.610588
0.849316	1.593898
0.849414	1.578174
0.849512	1.539194
0.849609	1.567646
0.849707	1.607391
0.849805	1.584514
0.849902	1.565109
0.850000	1.577121
0.850098	1.586365
0.850195	1.579375
0.850293	1.568651
0.850391	1.548328
0.850488	1.596823
0.850586	1.613392
0.850684	1.579928
0.850781	1.585069
0.850879	1.610181
0.850977	1.611422
0.851074	1.612750
0.851172	1.613811
0.851270	1.615705
0.851367	1.617724
0.851465	1.621777
0.851562	1.634417
0.851660	1.639233
0.851758	1.621074
0.851855	1.624600
0.851953	1.629972
0.852051	1.608832
0.852148	1.600899
0.852246	1.600016
0.852344	1.589541
0.852441	1.572980
0.852539	1.549116
0.852637	1.520986
0.852734	1.530551
0.852832	1.575842
0.852930	1.616248
0.853027	1.623128
0.853125	1.615462
0.853223	1.615701
0.853320	1.616590
0.853418	1.618533
0.853516	1.619844
0.853613	1.620989
0.853711	1.622365
0.853809	1.623467
0.853906	1.625842
0.854004	1.626910
0.854102	1.630396
0.854199	1.632657
0.854297	1.622833
0.854395	1.598504
0.854492	1.597327
0.854590	1.612439
0.854687	1.606108
0.854785	1.599167
0.854883	1.584917
0.854980	1.562026
0.855078	1.528040
0.855176	1.509387
0.855273	1.538991
0.855371	1.568235
0.855469	1.610500
0.855566	1.619725
0.855664	1.617070
0.855762	1.616801
0.855859	1.617592
0.855957	1.619132
0.856055	1.620312
0.856152	1.621329
0.856250	1.621501
0.856348	1.620584
0.856445	1.612587
0.856543	1.600116
0.856641	1.606670
0.856738	1.618282
0.856836	1.618123
0.856934	1.617860
0.857031	1.612186
0.857129	1.600300
0.857227	1.580884
0.857324	1.548104
0.857422	1.529495
0.857520	1.554775
0.857617	1.597247
0.857715	1.623966
0.857812	1.625298
0.857910	1.626528
0.858008	1.625343
0.858105	1.624387
0.858203	1.622803
0.858301	1.622946
0.858398	1.622684
0.858496	1.623080
0.858594	1.623339
0.858691	1.625297
0.858789	1.630767
0.858887	1.647490
0.858984	1.653394
0.859082	1.642577
0.859180	1.611162
0.859277	1.622239
0.859375	1.619757
0.859473	1.612623
0.859570	1.600693
0.859668	1.587332
0.859766	1.563427
0.859863	1.528691
0.859961	1.503625
0.860059	1.549231
0.860156	1.611058
0.860254	1.598669
0.860352	1.616913
0.860449	1.608157
0.860547	1.598740
0.860645	1.614571
0.860742	1.616504
0.860840	1.619280
0.860937	1.625597
0.861035	1.629150
0.861133	1.637502
0.861230	1.600356
0.861328	1.588867
0.861426	1.629862
0.861523	1.618461
0.861621	1.599562
0.861719	1.593025
0.861816	1.604383
0.861914	1.600404
0.862012	1.591093
0.862109	1.572391
0.862207	1.550986
0.862305	1.552444
0.862402	1.567213
0.862500	1.602446
0.862598	1.641572
0.862695	1.624130
0.862793	1.622678
0.862891	1.618692
0.862988	1.620651
0.863086	1.618478
0.863184	1.620154
0.863281	1.618195
0.863379	1.619654
0.863477	1.618057
0.863574	1.614267
0.863672	1.582826
0.863770	1.580836
0.863867	1.610643
0.863965	1.594901
0.864062	1.610133
0.864160	1.635915
0.864258	1.623193
0.864355	1.604336
0.864453	1.556036
0.864551	1.561990
0.864648	1.605275
0.864746	1.619112
0.864844	1.627860
0.864941	1.640761
0.865039	1.634109
0.865137	1.626355
0.865234	1.621745
0.865332	1.617127
0.865430	1.619443
0.865527	1.620252
0.865625	1.622332
0.865723	1.624068
0.865820	1.627336
0.865918	1.635442
0.866016	1.621513
0.866113	1.574259
0.866211	1.589062
0.866309	1.602526
0.866406	1.611770
0.866504	1.613307
0.866602	1.598653
0.866699	1.588065
0.866797	1.584535
0.866895	1.577493
0.866992	1.564127
0.867090	1.542254
0.867187	1.566757
0.867285	1.585801
0.867383	1.596604
0.867480	1.607939
0.867578	1.613298
0.867676	1.617958
0.867773	1.619453
0.867871	1.622631
0.867969	1.624528
0.868066	1.628960
0.868164	1.632879
0.868262	1.647683
0.868359	1.641737
0.868457	1.625290
0.868555	1.617559
0.868652	1.622165
0.868750	1.619785
0.868848	1.614541
0.868945	1.608761
0.869043	1.596896
0.869141	1.574886
0.869238	1.547228
0.869336	1.555127
0.869434	1.588774
0.869531	1.597923
0.869629	1.606366
0.869727	1.615173
0.869824	1.616971
0.869922	1.620529
0.870020	1.621171
0.870117	1.620660
0.870215	1.620293
0.870312	1.618686
0.870410	1.617184
0.870508	1.611748
0.870605	1.603999
0.870703	1.588374
0.870801	1.570047
0.870898	1.555716
0.870996	1.551018
0.871094	1.524162
0.871191	1.530867
0.871289	1.560745
0.871387	1.569050
0.871484	1.572409
0.871582	1.545423
0.871680	1.529947
0.871777	1.537210
0.871875	1.553661
0.871973	1.571067
0.872070	1.602496
0.872168	1.622462
0.872266	1.628080
0.872363	1.628034
0.872461	1.625568
0.872559	1.618322
0.872656	1.616440
0.872754	1.614530
0.872852	1.616169
0.872949	1.615090
0.873047	1.620830
0.873145	1.626079
0.873242	1.621634
0.873340	1.578972
0.873437	1.562237
0.873535	1.570147
0.873633	1.583070
0.873730	1.600858
0.873828	1.601097
0.873926	1.599405
0.874023	1.607353
0.874121	1.604219
0.874219	1.603658
0.874316	1.595308
0.874414	1.592939
0.874512	1.612299
0.874609	1.604370
0.874707	1.608529
0.874805	1.588436
0.874902	1.583594
0.875000	1.602704
0.875098	1.613555
0.875195	1.619659
0.875293	1.625753
0.875391	1.629314
0.875488	1.634109
0.875586	1.635387
0.875684	1.630231
0.875781	1.634035
0.875879	1.630666
0.875977	1.627669
0.876074	1.615615
0.876172	1.608930
0.876270	1.598956
0.876367	1.586068
0.876465	1.564555
0.876562	1.535315
0.876660	1.532431
0.876758	1.554925
0.876855	1.571476
0.876953	1.592741
0.877051	1.615267
0.877148	1.628449
0.877246	1.630526
0.877344	1.622839
0.877441	1.619960
0.877539	1.619417
0.877637	1.621023
0.877734	1.621940
0.877832	1.625369
0.877930	1.630443
0.878027	1.647744
0.878125	1.628928
0.878223	1.624228
0.878320	1.630111
0.878418	1.623400
0.878516	1.619704
0.878613	1.609907
0.878711	1.598634
0.878809	1.589499
0.878906	1.571537
0.879004	1.554707
0.879102	1.572424
0.879199	1.598075
0.879297	1.605079
0.879395	1.593501
0.879492	1.613367
0.879590	1.616285
0.879687	1.619507
0.879785	1.618282
0.879883	1.619892
0.879980	1.618215
0.880078	1.619449
0.880176	1.616679
0.880273	1.614755
0.880371	1.602948
0.880469	1.591016
0.880566	1.550459
0.880664	1.570989
0.880762	1.593263
0.880859	1.596575
0.880957	1.607007
0.881055	1.597341
0.881152	1.589583
0.881250	1.581138
0.881348	1.575485
0.881445	1.555525
0.881543	1.554130
0.881641	1.556050
0.881738	1.575069
0.881836	1.599738
0.881934	1.618727
0.882031	1.620224
0.882129	1.619878
0.882227	1.620626
0.882324	1.622990
0.882422	1.624281
0.882520	1.628524
0.882617	1.630119
0.882715	1.635843
0.882812	1.628778
0.882910	1.628222
0.883008	1.609957
0.883105	1.595902
0.883203	1.583287
0.883301	1.577375
0.883398	1.593460
0.883496	1.595564
0.883594	1.588486
0.883691	1.570196
0.883789	1.560761
0.883887	1.569660
0.883984	1.621094
0.884082	1.642534
0.884180	1.651548
0.884277	1.631927
0.884375	1.622079
0.884473	1.622987
0.884570	1.622014
0.884668	1.623557
0.884766	1.622682
0.884863	1.626600
0.884961	1.626233
0.885059	1.643003
0.885156	1.648865
0.885254	1.628833
0.885352	1.628685
0.885449	1.608841
0.885547	1.601196
0.885645	1.610738
0.885742	1.609476
0.885840	1.607464
0.885937	1.601042
0.886035	1.609175
0.886133	1.607785
0.886230	1.600616
0.886328	1.576174
0.886426	1.596176
0.886523	1.616974
0.886621	1.617706
0.886719	1.621994
0.886816	1.620374
0.886914	1.621823
0.887012	1.620513
0.887109	1.621557
0.887207	1.620221
0.887305	1.619852
0.887402	1.615822
0.887500	1.608771
0.887598	1.577321
0.887695	1.563987
0.887793	1.574305
0.887891	1.585517
0.887988	1.601087
0.888086	1.604594
0.888184	1.604952
0.888281	1.600614
0.888379	1.579476
0.888477	1.554688
0.888574	1.571392
0.888672	1.589576
0.888770	1.591967
0.888867	1.620483
0.888965	1.607055
0.889062	1.609928
0.889160	1.619365
0.889258	1.619225
0.889355	1.620620
0.889453	1.620758
0.889551	1.620821
0.889648	1.620637
0.889746	1.618571
0.889844	1.615936
0.889941	1.607823
0.890039	1.595974
0.890137	1.573796
0.890234	1.566602
0.890332	1.558190
0.890430	1.574792
0.890527	1.592585
0.890625	1.592642
0.890723	1.584071
0.890820	1.559926
0.890918	1.548054
0.891016	1.587608
0.891113	1.589187
0.891211	1.612158
0.891309	1.616292
0.891406	1.584436
0.891504	1.594224
0.891602	1.598230
0.891699	1.611742
0.891797	1.612555
0.891895	1.618259
0.891992	1.618178
0.892090	1.622764
0.892187	1.623001
0.892285	1.627179
0.892383	1.615729
0.892480	1.603602
0.892578	1.594844
0.892676	1.601629
0.892773	1.609419
0.892871	1.614099
0.892969	1.613708
0.893066	1.609199
0.893164	1.595464
0.893262	1.581616
0.893359	1.553834
0.893457	1.563038
0.893555	1.607935
0.893652	1.618168
0.893750	1.623767
0.893848	1.623457
0.893945	1.624524
0.894043	1.623129
0.894141	1.623461
0.894238	1.622290
0.894336	1.622680
0.894434	1.621371
0.894531	1.620458
0.894629	1.616171
0.894727	1.614630
0.894824	1.607279
0.894922	1.602473
0.895020	1.612163
0.895117	1.623060
0.895215	1.612335
0.895312	1.606376
0.895410	1.600286
0.895508	1.589676
0.895605	1.571696
0.895703	1.547724
0.895801	1.540358
0.895898	1.565545
0.895996	1.594600
0.896094	1.612662
0.896191	1.619267
0.896289	1.620933
0.896387	1.621130
0.896484	1.621865
0.896582	1.621687
0.896680	1.622142
0.896777	1.621345
0.896875	1.621252
0.896973	1.618333
0.897070	1.614510
0.897168	1.603916
0.897266	1.585131
0.897363	1.548850
0.897461	1.573106
0.897559	1.583514
0.897656	1.590267
0.897754	1.607938
0.897852	1.598072
0.897949	1.591555
0.898047	1.575026
0.898145	1.551549
0.898242	1.533425
0.898340	1.540671
0.898437	1.535586
0.898535	1.549572
0.898633	1.609838
0.898730	1.620895
0.898828	1.619489
0.898926	1.618029
0.899023	1.620299
0.899121	1.621038
0.899219	1.624468
0.899316	1.623868
0.899414	1.625865
0.899512	1.619590
0.899609	1.617323
0.899707	1.615002
0.899805	1.602904
0.899902	1.616575
0.900000	1.611426
0.900098	1.604129
0.900195	1.588435
0.900293	1.564316
0.900391	1.534553
0.900488	1.529325
0.900586	1.543241
0.900684	1.571365
0.900781	1.612759
0.900879	1.599621
0.900977	1.590796
0.901074	1.611480
0.901172	1.610857
0.901270	1.614708
0.901367	1.617318
0.901465	1.620359
0.901562	1.624069
0.901660	1.629017
0.901758	1.640193
0.901855	1.626160
0.901953	1.626020
0.902051	1.642625
0.902148	1.626240
0.902246	1.618943
0.902344	1.615299
0.902441	1.613512
0.902539	1.601299
0.902637	1.595346
0.902734	1.586715
0.902832	1.576925
0.902930	1.551451
0.903027	1.553441
0.903125	1.605045
0.903223	1.600353
0.903320	1.621836
0.903418	1.631677
0.903516	1.621359
0.903613	1.620268
0.903711	1.619599
0.903809	1.621176
0.903906	1.621276
0.904004	1.623625
0.904102	1.623093
0.904199	1.618533
0.904297	1.617090
0.904395	1.654355
0.904492	1.617670
0.904590	1.602227
0.904687	1.611783
0.904785	1.612171
0.904883	1.611582
0.904980	1.599715
0.905078	1.579205
0.905176	1.533373
0.905273	1.490994
0.905371	1.496718
0.905469	1.531208
0.905566	1.541676
0.905664	1.538727
0.905762	1.539799
0.905859	1.555062
0.905957	1.576811
0.906055	1.602241
0.906152	1.610612
0.906250	1.615276
0.906348	1.616474
0.906445	1.617881
0.906543	1.617130
0.906641	1.616187
0.906738	1.609464
0.906836	1.578657
0.906934	1.542412
0.907031	1.567585
0.907129	1.591719
0.907227	1.603206
0.907324	1.574708
0.907422	1.552282
0.907520	1.560300
0.907617	1.542402
0.907715	1.535141
0.907812	1.523687
0.907910	1.527692
0.908008	1.536297
0.908105	1.531779
0.908203	1.533552
0.908301	1.572555
0.908398	1.600994
0.908496	1.603756
0.908594	1.610772
0.908691	1.612410
0.908789	1.615347
0.908887	1.612216
0.908984	1.611499
0.909082	1.596540
0.909180	1.571139
0.909277	1.570507
0.909375	1.576445
0.909473	1.594083
0.909570	1.605213
0.909668	1.600909
0.909766	1.593467
0.909863	1.578231
0.909961	1.547029
0.910059	1.509618
0.910156	1.506670
0.910254	1.525556
0.910352	1.541408
0.910449	1.556909
0.910547	1.600533
0.910645	1.611665
0.910742	1.614310
0.910840	1.616962
0.910937	1.618759
0.911035	1.620952
0.911133	1.624583
0.911230	1.629761
0.911328	1.639032
0.911426	1.634622
0.911523	1.613633
0.911621	1.605757
0.911719	1.597127
0.911816	1.587412
0.911914	1.574619
0.912012	1.577539
0.912109	1.591289
0.912207	1.586182
0.912305	1.572861
0.912402	1.567493
0.912500	1.537067
0.912598	1.520329
0.912695	1.525286
0.912793	1.555638
0.912891	1.595140
0.912988	1.611224
0.913086	1.622300
0.913184	1.619942
0.913281	1.620035
0.913379	1.620531
0.913477	1.621485
0.913574	1.620945
0.913672	1.617273
0.913770	1.604631
0.913867	1.588117
0.913965	1.579368
0.914062	1.575880
0.914160	1.573566
0.914258	1.561686
0.914355	1.556928
0.914453	1.590128
0.914551	1.580394
0.914648	1.562852
0.914746	1.522684
0.914844	1.508683
0.914941	1.540822
0.915039	1.577756
0.915137	1.600596
0.915234	1.594199
0.915332	1.601336
0.915430	1.612179
0.915527	1.615880
0.915625	1.618539
0.915723	1.619820
0.915820	1.621154
0.915918	1.622825
0.916016	1.623294
0.916113	1.625222
0.916211	1.621607
0.916309	1.607731
0.916406	1.578940
0.916504	1.579393
0.916602	1.615736
0.916699	1.617420
0.916797	1.612382
0.916895	1.605017
0.916992	1.581691
0.917090	1.539767
0.917187	1.559522
0.917285	1.615720
0.917383	1.636622
0.917480	1.634260
0.917578	1.633957
0.917676	1.625892
0.917773	1.627790
0.917871	1.625290
0.917969	1.623957
0.918066	1.622373
0.918164	1.623330
0.918262	1.623131
0.918359	1.624162
0.918457	1.623587
0.918555	1.624427
0.918652	1.623930
0.918750	1.627431
0.918848	1.602003
0.918945	1.592219
0.919043	1.607533
0.919141	1.604083
0.919238	1.597251
0.919336	1.592449
0.919434	1.576368
0.919531	1.573571
0.919629	1.572644
0.919727	1.566316
0.919824	1.538856
0.919922	1.553195
0.920020	1.568634
0.920117	1.590071
0.920215	1.607067
0.920312	1.610572
0.920410	1.615150
0.920508	1.616027
0.920605	1.617966
0.920703	1.618458
0.920801	1.619720
0.920898	1.623533
0.920996	1.633866
0.921094	1.635439
0.921191	1.616116
0.921289	1.587473
0.921387	1.586071
0.921484	1.578643
0.921582	1.587967
0.921680	1.590855
0.921777	1.586598
0.921875	1.569542
0.921973	1.571477
0.922070	1.576294
0.922168	1.588135
0.922266	1.587604
0.922363	1.565522
0.922461	1.557839
0.922559	1.587957
0.922656	1.604954
0.922754	1.610654
0.922852	1.616162
0.922949	1.619361
0.923047	1.623478
0.923145	1.626537
0.923242	1.628533
0.923340	1.626630
0.923437	1.621060
0.923535	1.593109
0.923633	1.584900
0.923730	1.605752
0.923828	1.615159
0.923926	1.614525
0.924023	1.609613
0.924121	1.600434
0.924219	1.577287
0.924316	1.547376
0.924414	1.555348
0.924512	1.598415
0.924609	1.630376
0.924707	1.643307
0.924805	1.646213
0.924902	1.634096
0.925000	1.623735
0.925098	1.622749
0.925195	1.624279
0.925293	1.625593
0.925391	1.627834
0.925488	1.631320
0.925586	1.638544
0.925684	1.645034
0.925781	1.637654
0.925879	1.624630
0.925977	1.615010
0.926074	1.631952
0.926172	1.644004
0.926270	1.615604
0.926367	1.610474
0.926465	1.597984
0.926562	1.585224
0.926660	1.582971
0.926758	1.572579
0.926855	1.535420
0.926953	1.542735
0.927051	1.544784
0.927148	1.557931
0.927246	1.553931
0.927344	1.513898
0.927441	1.592389
0.927539	1.619800
0.927637	1.608240
0.927734	1.615057
0.927832	1.613555
0.927930	1.617523
0.928027	1.615103
0.928125	1.619062
0.928223	1.612318
0.928320	1.608261
0.928418	1.578749
0.928516	1.576163
0.928613	1.614011
0.928711	1.616005
0.928809	1.610602
0.928906	1.603852
0.929004	1.590578
0.929102	1.569471
0.929199	1.542348
0.929297	1.553675
0.929395	1.613483
0.929492	1.639659
0.929590	1.624085
0.929687	1.615817
0.929785	1.620534
0.929883	1.622932
0.929980	1.625456
0.930078	1.628635
0.930176	1.631654
0.930273	1.634611
0.930371	1.634951
0.930469	1.633371
0.930566	1.631296
0.930664	1.619039
0.930762	1.574334
0.930859	1.577578
0.930957	1.592755
0.931055	1.596427
0.931152	1.596793
0.931250	1.584181
0.931348	1.560347
0.931445	1.534722
0.931543	1.513718
0.931641	1.516004
0.931738	1.547823
0.931836	1.555987
0.931934	1.569425
0.932031	1.544848
0.932129	1.540917
0.932227	1.540714
0.932324	1.573783
0.932422	1.602464
0.932520	1.615280
0.932617	1.627301
0.932715	1.654899
0.932812	1.659630
0.932910	1.635670
0.933008	1.629864
0.933105	1.609328
0.933203	1.596980
0.933301	1.593056
0.933398	1.600562
0.933496	1.593947
0.933594	1.588035
0.933691	1.566349
0.933789	1.529198
0.933887	1.530032
0.933984	1.585310
0.934082	1.611530
0.934180	1.615769
0.934277	1.618242
0.934375	1.600405
0.934473	1.585470
0.934570	1.597148
0.934668	1.598814
0.934766	1.608688
0.934863	1.619097
0.934961	1.621035
0.935059	1.624865
0.935156	1.622631
0.935254	1.620094
0.935352	1.601248
0.935449	1.602116
0.935547	1.610214
0.935645	1.601636
0.935742	1.590927
0.935840	1.587292
0.935937	1.582577
0.936035	1.576039
0.936133	1.565324
0.936230	1.550025
0.936328	1.541933
0.936426	1.536045
0.936523	1.561441
0.936621	1.578642
0.936719	1.595981
0.936816	1.621038
0.936914	1.625255
0.937012	1.620289
0.937109	1.618667
0.937207	1.621723
0.937305	1.623732
0.937402	1.630185
0.937500	1.638657
0.937598	1.654356
0.937695	1.659326
0.937793	1.643212
0.937891	1.635097
0.937988	1.626539
0.938086	1.614161
0.938184	1.604475
0.938281	1.593108
0.938379	1.576002
0.938477	1.551059
0.938574	1.525254
0.938672	1.528461
0.938770	1.583117
0.938867	1.630157
0.938965	1.614027
0.939062	1.611283
0.939160	1.613459
0.939258	1.616495
0.939355	1.617608
0.939453	1.619684
0.939551	1.620053
0.939648	1.622169
0.939746	1.623278
0.939844	1.627944
0.939941	1.632198
0.940039	1.645774
0.940137	1.636040
0.940234	1.613517
0.940332	1.623569
0.940430	1.620367
0.940527	1.618431
0.940625	1.613550
0.940723	1.608197
0.940820	1.599232
0.940918	1.584853
0.941016	1.565387
0.941113	1.544955
0.941211	1.535096
0.941309	1.532997
0.941406	1.581714
0.941504	1.610680
0.941602	1.618740
0.941699	1.623017
0.941797	1.622044
0.941895	1.622660
0.941992	1.620299
0.942090	1.621033
0.942187	1.617536
0.942285	1.618448
0.942383	1.609198
0.942480	1.617969
0.942578	1.617608
0.942676	1.585415
0.942773	1.568636
0.942871	1.549812
0.942969	1.523673
0.943066	1.535409
0.943164	1.564208
0.943262	1.575182
0.943359	1.564779
0.943457	1.556658
0.943555	1.545044
0.943652	1.538985
0.943750	1.562766
0.943848	1.575925
0.943945	1.585018
0.944043	1.601688
0.944141	1.606092
0.944238	1.613077
0.944336	1.616076
0.944434	1.620735
0.944531	1.623110
0.944629	1.631156
0.944727	1.635429
0.944824	1.641593
0.944922	1.624692
0.945020	1.617894
0.945117	1.613852
0.945215	1.642340
0.945312	1.649844
0.945410	1.608168
0.945508	1.582245
0.945605	1.582876
0.945703	1.579049
0.945801	1.562623
0.945898	1.571610
0.945996	1.611736
0.946094	1.602873
0.946191	1.571597
0.946289	1.594465
0.946387	1.614341
0.946484	1.615488
0.946582	1.619224
0.946680	1.619812
0.946777	1.623049
0.946875	1.623890
0.946973	1.629421
0.947070	1.632078
0.947168	1.642133
0.947266	1.625585
0.947363	1.622989
0.947461	1.631020
0.947559	1.617529
0.947656	1.602390
0.947754	1.595636
0.947852	1.595213
0.947949	1.595899
0.948047	1.590037
0.948145	1.590371
0.948242	1.567280
0.948340	1.560466
0.948437	1.603983
0.948535	1.613858
0.948633	1.644950
0.948730	1.627618
0.948828	1.606954
0.948926	1.617267
0.949023	1.619746
0.949121	1.616567
0.949219	1.619594
0.949316	1.621504
0.949414	1.626841
0.949512	1.628708
0.949609	1.624450
0.949707	1.599296
0.949805	1.632337
0.949902	1.628586
0.950000	1.619093
0.950098	1.617794
0.950195	1.619179
0.950293	1.631938
0.950391	1.613757
0.950488	1.585290
0.950586	1.586811
0.950684	1.586122
0.950781	1.587578
0.950879	1.573370
0.950977	1.578416
0.951074	1.611129
0.951172	1.613596
0.951270	1.581465
0.951367	1.582776
0.951465	1.595418
0.951562	1.602123
0.951660	1.614381
0.951758	1.613802
0.951855	1.617187
0.951953	1.614240
0.952051	1.614851
0.952148	1.602382
0.952246	1.595384
0.952344	1.598637
0.952441	1.598145
0.952539	1.605077
0.952637	1.608182
0.952734	1.608941
0.952832	1.616980
0.952930	1.623891
0.953027	1.597872
0.953125	1.560640
0.953223	1.560292
0.953320	1.566559
0.953418	1.578115
0.953516	1.577571
0.953613	1.606023
0.953711	1.613349
0.953809	1.616013
0.953906	1.618173
0.954004	1.621304
0.954102	1.622126
0.954199	1.625004
0.954297	1.623153
0.954395	1.623276
0.954492	1.620325
0.954590	1.620473
0.954687	1.602020
0.954785	1.616288
0.954883	1.594361
0.954980	1.574800
0.955078	1.591499
0.955176	1.586706
0.955273	1.589702
0.955371	1.584526
0.955469	1.576167
0.955566	1.570064
0.955664	1.557037
0.955762	1.544532
0.955859	1.546526
0.955957	1.590695
0.956055	1.610978
0.956152	1.615704
0.956250	1.618511
0.956348	1.619959
0.956445	1.621576
0.956543	1.622943
0.956641	1.622384
0.956738	1.617472
0.956836	1.609638
0.956934	1.595400
0.957031	1.572695
0.957129	1.557410
0.957227	1.560341
0.957324	1.581683
0.957422	1.606840
0.957520	1.602112
0.957617	1.591937
0.957715	1.577465
0.957812	1.521420
0.957910	1.528599
0.958008	1.576842
0.958105	1.617138
0.958203	1.626171
0.958301	1.623300
0.958398	1.624518
0.958496	1.623411
0.958594	1.625556
0.958691	1.625407
0.958789	1.628653
0.958887	1.628674
0.958984	1.637426
0.959082	1.638189
0.959180	1.640758
0.959277	1.650090
0.959375	1.620288
0.959473	1.607338
0.959570	1.597101
0.959668	1.602886
0.959766	1.600599
0.959863	1.594014
0.959961	1.579521
0.960059	1.559123
0.960156	1.536712
0.960254	1.541896
0.960352	1.564383
0.960449	1.576825
0.960547	1.591819
0.960645	1.609999
0.960742	1.615569
0.960840	1.618218
0.960937	1.617490
0.961035	1.617633
0.961133	1.615912
0.961230	1.616470
0.961328	1.614296
0.961426	1.615077
0.961523	1.607044
0.961621	1.607820
0.961719	1.596803
0.961816	1.606275
0.961914	1.610807
0.962012	1.591547
0.962109	1.583464
0.962207	1.580078
0.962305	1.572014
0.962402	1.546256
0.962500	1.527069
0.962598	1.510027
0.962695	1.492738
0.962793	1.551376
0.962891	1.592978
0.962988	1.612042
0.963086	1.621637
0.963184	1.620827
0.963281	1.620487
0.963379	1.620523
0.963477	1.621126
0.963574	1.622688
0.963672	1.623381
0.963770	1.625369
0.963867	1.622635
0.963965	1.631145
0.964062	1.610499
0.964160	1.610807
0.964258	1.600251
0.964355	1.602974
0.964453	1.609489
0.964551	1.608102
0.964648	1.608642
0.964746	1.608510
0.964844	1.591871
0.964941	1.559368
0.965039	1.582553
0.965137	1.618379
0.965234	1.631561
0.965332	1.637224
0.965430	1.642040
0.965527	1.635316
0.965625	1.627483
0.965723	1.621435
0.965820	1.620997
0.965918	1.620938
0.966016	1.623929
0.966113	1.621424
0.966211	1.615327
0.966309	1.623366
0.966406	1.624411
0.966504	1.603564
0.966602	1.583280
0.966699	1.607783
0.966797	1.595243
0.966895	1.582548
0.966992	1.594870
0.967090	1.589337
0.967187	1.584413
0.967285	1.558465
0.967383	1.540906
0.967480	1.538743
0.967578	1.589141
0.967676	1.625359
0.967773	1.612602
0.967871	1.613857
0.967969	1.614695
0.968066	1.617879
0.968164	1.618284
0.968262	1.620105
0.968359	1.619690
0.968457	1.620166
0.968555	1.616454
0.968652	1.606931
0.968750	1.580764
0.968848	1.569363
0.968945	1.584936
0.969043	1.596948
0.969141	1.585515
0.969238	1.571455
0.969336	1.584517
0.969434	1.584267
0.969531	1.566282
0.969629	1.533486
0.969727	1.509783
0.969824	1.531203
0.969922	1.587568
0.970020	1.611473
0.970117	1.601725
0.970215	1.628948
0.970312	1.630431
0.970410	1.623333
0.970508	1.622914
0.970605	1.623042
0.970703	1.625787
0.970801	1.626966
0.970898	1.634247
0.970996	1.640951
0.971094	1.643362
0.971191	1.647895
0.971289	1.628354
0.971387	1.635602
0.971484	1.627480
0.971582	1.612944
0.971680	1.600505
0.971777	1.589781
0.971875	1.575322
0.971973	1.568903
0.972070	1.571897
0.972168	1.578987
0.972266	1.582988
0.972363	1.589360
0.972461	1.601215
0.972559	1.607324
0.972656	1.617576
0.972754	1.616659
0.972852	1.617918
0.972949	1.620755
0.973047	1.620015
0.973145	1.615882
0.973242	1.597926
0.973340	1.556319
0.973437	1.536015
0.973535	1.543181
0.973633	1.566765
0.973730	1.594059
0.973828	1.604883
0.973926	1.604960
0.974023	1.589245
0.974121	1.570535
0.974219	1.531678
0.974316	1.520932
0.974414	1.530433
0.974512	1.552158
0.974609	1.588942
0.974707	1.607691
0.974805	1.615951
0.974902	1.617124
0.975000	1.619266
0.975098	1.618646
0.975195	1.620657
0.975293	1.619673
0.975391	1.622162
0.975488	1.620514
0.975586	1.628781
0.975684	1.629152
0.975781	1.646926
0.975879	1.646868
0.975977	1.634164
0.976074	1.631033
0.976172	1.610984
0.976270	1.607070
0.976367	1.599488
0.976465	1.589631

