LabVIEW Measurement	
Writer_Version	2
Reader_Version	2
Separator	Tab
Decimal_Separator	.
Multi_Headings	Yes
X_Columns	One
Time_Pref	Absolute
Operator	W-Tunnel
Date	1904/01/01
Time	01:00:00
***End_of_Header***	
	
Channels	1	
Samples	10000	
Date	2024/05/17	
Time	18:20:45.9535847562495186426	
Y_Unit_Label	Volts	
X_Dimension	Time	
X0	0.0000000000000000E+0	
Delta_X	9.765625E-5	
***End_of_Header***		
X_Value	Voltage	Comment
0.000000	1.624870
9.765625E-5	1.627670
0.000195	1.630417
0.000293	1.633117
0.000391	1.635456
0.000488	1.637170
0.000586	1.638083
0.000684	1.638553
0.000781	1.638524
0.000879	1.637955
0.000977	1.637186
0.001074	1.635810
0.001172	1.634049
0.001270	1.631905
0.001367	1.629615
0.001465	1.627415
0.001562	1.625222
0.001660	1.623323
0.001758	1.621599
0.001855	1.620435
0.001953	1.619919
0.002051	1.620019
0.002148	1.620950
0.002246	1.622418
0.002344	1.624460
0.002441	1.626908
0.002539	1.629475
0.002637	1.632248
0.002734	1.634921
0.002832	1.637241
0.002930	1.639046
0.003027	1.640080
0.003125	1.640589
0.003223	1.640521
0.003320	1.639607
0.003418	1.637723
0.003516	1.635392
0.003613	1.633056
0.003711	1.630719
0.003809	1.628577
0.003906	1.626494
0.004004	1.624598
0.004102	1.623045
0.004199	1.621656
0.004297	1.620936
0.004395	1.620617
0.004492	1.621135
0.004590	1.622348
0.004687	1.624221
0.004785	1.626528
0.004883	1.629321
0.004980	1.632087
0.005078	1.634728
0.005176	1.637043
0.005273	1.638858
0.005371	1.640122
0.005469	1.640606
0.005566	1.640298
0.005664	1.639316
0.005762	1.637851
0.005859	1.635957
0.005957	1.633840
0.006055	1.631571
0.006152	1.629125
0.006250	1.626850
0.006348	1.624618
0.006445	1.623048
0.006543	1.621756
0.006641	1.621042
0.006738	1.621094
0.006836	1.621725
0.006934	1.622932
0.007031	1.624634
0.007129	1.626645
0.007227	1.628868
0.007324	1.631372
0.007422	1.633881
0.007520	1.636503
0.007617	1.639146
0.007715	1.641534
0.007812	1.643199
0.007910	1.644116
0.008008	1.643758
0.008105	1.642599
0.008203	1.640539
0.008301	1.637682
0.008398	1.634637
0.008496	1.631325
0.008594	1.628380
0.008691	1.625834
0.008789	1.623566
0.008887	1.621966
0.008984	1.621102
0.009082	1.620964
0.009180	1.621419
0.009277	1.622365
0.009375	1.623871
0.009473	1.625916
0.009570	1.628214
0.009668	1.630667
0.009766	1.633045
0.009863	1.635113
0.009961	1.636773
0.010059	1.637999
0.010156	1.638516
0.010254	1.638790
0.010352	1.638544
0.010449	1.637727
0.010547	1.636415
0.010645	1.634814
0.010742	1.633141
0.010840	1.631332
0.010937	1.629524
0.011035	1.627661
0.011133	1.626035
0.011230	1.624429
0.011328	1.623139
0.011426	1.622186
0.011523	1.621874
0.011621	1.622295
0.011719	1.623200
0.011816	1.624813
0.011914	1.626839
0.012012	1.629188
0.012109	1.631884
0.012207	1.634516
0.012305	1.636816
0.012402	1.638796
0.012500	1.639985
0.012598	1.640572
0.012695	1.640511
0.012793	1.639279
0.012891	1.637455
0.012988	1.635512
0.013086	1.633667
0.013184	1.632057
0.013281	1.630369
0.013379	1.628646
0.013477	1.626984
0.013574	1.625319
0.013672	1.623718
0.013770	1.622252
0.013867	1.621364
0.013965	1.621409
0.014062	1.622278
0.014160	1.623750
0.014258	1.625741
0.014355	1.628092
0.014453	1.630686
0.014551	1.633166
0.014648	1.635489
0.014746	1.637385
0.014844	1.638849
0.014941	1.639489
0.015039	1.639503
0.015137	1.638861
0.015234	1.637632
0.015332	1.635969
0.015430	1.634075
0.015527	1.631784
0.015625	1.629582
0.015723	1.627206
0.015820	1.625053
0.015918	1.623242
0.016016	1.622066
0.016113	1.621327
0.016211	1.621362
0.016309	1.621871
0.016406	1.622911
0.016504	1.624396
0.016602	1.626276
0.016699	1.628490
0.016797	1.630720
0.016895	1.633115
0.016992	1.635258
0.017090	1.637162
0.017187	1.638545
0.017285	1.639634
0.017383	1.640002
0.017480	1.639986
0.017578	1.639284
0.017676	1.638062
0.017773	1.636488
0.017871	1.634723
0.017969	1.632743
0.018066	1.630775
0.018164	1.628546
0.018262	1.626430
0.018359	1.624303
0.018457	1.622416
0.018555	1.620855
0.018652	1.619986
0.018750	1.619716
0.018848	1.620141
0.018945	1.621410
0.019043	1.623251
0.019141	1.625684
0.019238	1.628441
0.019336	1.631404
0.019434	1.634257
0.019531	1.636939
0.019629	1.638994
0.019727	1.640632
0.019824	1.641409
0.019922	1.641497
0.020020	1.640863
0.020117	1.639701
0.020215	1.639072
0.020312	1.637976
0.020410	1.632511
0.020508	1.627427
0.020605	1.625617
0.020703	1.624183
0.020801	1.622660
0.020898	1.620948
0.020996	1.619518
0.021094	1.618677
0.021191	1.619049
0.021289	1.620329
0.021387	1.622264
0.021484	1.624841
0.021582	1.627719
0.021680	1.630746
0.021777	1.633504
0.021875	1.635818
0.021973	1.637531
0.022070	1.638417
0.022168	1.638629
0.022266	1.638439
0.022363	1.637722
0.022461	1.636521
0.022559	1.634781
0.022656	1.633111
0.022754	1.631461
0.022852	1.629767
0.022949	1.627772
0.023047	1.625466
0.023145	1.623415
0.023242	1.621784
0.023340	1.620720
0.023437	1.620415
0.023535	1.620776
0.023633	1.621844
0.023730	1.623485
0.023828	1.625567
0.023926	1.627987
0.024023	1.630656
0.024121	1.633213
0.024219	1.635621
0.024316	1.637493
0.024414	1.638645
0.024512	1.638778
0.024609	1.638310
0.024707	1.637473
0.024805	1.636449
0.024902	1.634962
0.025000	1.633105
0.025098	1.631325
0.025195	1.629435
0.025293	1.627776
0.025391	1.626085
0.025488	1.624692
0.025586	1.623638
0.025684	1.622765
0.025781	1.622283
0.025879	1.622396
0.025977	1.622827
0.026074	1.623765
0.026172	1.625305
0.026270	1.627337
0.026367	1.629624
0.026465	1.632048
0.026562	1.634401
0.026660	1.636425
0.026758	1.638063
0.026855	1.639154
0.026953	1.639677
0.027051	1.639713
0.027148	1.639088
0.027246	1.637777
0.027344	1.636136
0.027441	1.634135
0.027539	1.632141
0.027637	1.630086
0.027734	1.628120
0.027832	1.626081
0.027930	1.624294
0.028027	1.622625
0.028125	1.621326
0.028223	1.620789
0.028320	1.620752
0.028418	1.621383
0.028516	1.622839
0.028613	1.624785
0.028711	1.627352
0.028809	1.630182
0.028906	1.633119
0.029004	1.635797
0.029102	1.637918
0.029199	1.639445
0.029297	1.640256
0.029395	1.640360
0.029492	1.639753
0.029590	1.638482
0.029687	1.636996
0.029785	1.635282
0.029883	1.633027
0.029980	1.630418
0.030078	1.628043
0.030176	1.625841
0.030273	1.623906
0.030371	1.622165
0.030469	1.620729
0.030566	1.619842
0.030664	1.619749
0.030762	1.620315
0.030859	1.621794
0.030957	1.623885
0.031055	1.626456
0.031152	1.629470
0.031250	1.632536
0.031348	1.635426
0.031445	1.637796
0.031543	1.639461
0.031641	1.639969
0.031738	1.639716
0.031836	1.638888
0.031934	1.637680
0.032031	1.635959
0.032129	1.633936
0.032227	1.631764
0.032324	1.629589
0.032422	1.627505
0.032520	1.625598
0.032617	1.624007
0.032715	1.622547
0.032812	1.621520
0.032910	1.620891
0.033008	1.620861
0.033105	1.621413
0.033203	1.622785
0.033301	1.624818
0.033398	1.627400
0.033496	1.630445
0.033594	1.633654
0.033691	1.636809
0.033789	1.639571
0.033887	1.641461
0.033984	1.642252
0.034082	1.641226
0.034180	1.638992
0.034277	1.637127
0.034375	1.634766
0.034473	1.632338
0.034570	1.630260
0.034668	1.628563
0.034766	1.627286
0.034863	1.626035
0.034961	1.624812
0.035059	1.623490
0.035156	1.622117
0.035254	1.621229
0.035352	1.620635
0.035449	1.620877
0.035547	1.621795
0.035645	1.623336
0.035742	1.625457
0.035840	1.628056
0.035937	1.631127
0.036035	1.634214
0.036133	1.637162
0.036230	1.639768
0.036328	1.641468
0.036426	1.642192
0.036523	1.641680
0.036621	1.640043
0.036719	1.637738
0.036816	1.635300
0.036914	1.632724
0.037012	1.630149
0.037109	1.627591
0.037207	1.625390
0.037305	1.623394
0.037402	1.621764
0.037500	1.620424
0.037598	1.619655
0.037695	1.619330
0.037793	1.619467
0.037891	1.620291
0.037988	1.621581
0.038086	1.623489
0.038184	1.625700
0.038281	1.628225
0.038379	1.630883
0.038477	1.633389
0.038574	1.635799
0.038672	1.637796
0.038770	1.639160
0.038867	1.640014
0.038965	1.639985
0.039062	1.639042
0.039160	1.637637
0.039258	1.635852
0.039355	1.634084
0.039453	1.632404
0.039551	1.630750
0.039648	1.629050
0.039746	1.627422
0.039844	1.625900
0.039941	1.624505
0.040039	1.623245
0.040137	1.621943
0.040234	1.620967
0.040332	1.620703
0.040430	1.621164
0.040527	1.622568
0.040625	1.624621
0.040723	1.627403
0.040820	1.630473
0.040918	1.633644
0.041016	1.636874
0.041113	1.639587
0.041211	1.641610
0.041309	1.642393
0.041406	1.640831
0.041504	1.638398
0.041602	1.636367
0.041699	1.634450
0.041797	1.632895
0.041895	1.631246
0.041992	1.629535
0.042090	1.627590
0.042187	1.625618
0.042285	1.623936
0.042383	1.622342
0.042480	1.620947
0.042578	1.620212
0.042676	1.620345
0.042773	1.621197
0.042871	1.622736
0.042969	1.624827
0.043066	1.627246
0.043164	1.629886
0.043262	1.632492
0.043359	1.634819
0.043457	1.636699
0.043555	1.638069
0.043652	1.638856
0.043750	1.638845
0.043848	1.638409
0.043945	1.637432
0.044043	1.636312
0.044141	1.634928
0.044238	1.633278
0.044336	1.631053
0.044434	1.628804
0.044531	1.626389
0.044629	1.624112
0.044727	1.622030
0.044824	1.620532
0.044922	1.619638
0.045020	1.619603
0.045117	1.620310
0.045215	1.621562
0.045312	1.623571
0.045410	1.625950
0.045508	1.628594
0.045605	1.631362
0.045703	1.634075
0.045801	1.636439
0.045898	1.638369
0.045996	1.639471
0.046094	1.639971
0.046191	1.639485
0.046289	1.638208
0.046387	1.636268
0.046484	1.634337
0.046582	1.632324
0.046680	1.630661
0.046777	1.628950
0.046875	1.626987
0.046973	1.624911
0.047070	1.622861
0.047168	1.621253
0.047266	1.620017
0.047363	1.619798
0.047461	1.620240
0.047559	1.621664
0.047656	1.623474
0.047754	1.625992
0.047852	1.628756
0.047949	1.631767
0.048047	1.634648
0.048145	1.637198
0.048242	1.639099
0.048340	1.640221
0.048437	1.640932
0.048535	1.641214
0.048633	1.640381
0.048730	1.638722
0.048828	1.636659
0.048926	1.634452
0.049023	1.632230
0.049121	1.630029
0.049219	1.627934
0.049316	1.625939
0.049414	1.624059
0.049512	1.622260
0.049609	1.620866
0.049707	1.620042
0.049805	1.619954
0.049902	1.620543
0.050000	1.621850
0.050098	1.623840
0.050195	1.626319
0.050293	1.629029
0.050391	1.631844
0.050488	1.634374
0.050586	1.636336
0.050684	1.637733
0.050781	1.638260
0.050879	1.638448
0.050977	1.638235
0.051074	1.637843
0.051172	1.636624
0.051270	1.634724
0.051367	1.632606
0.051465	1.630559
0.051562	1.628583
0.051660	1.626479
0.051758	1.624385
0.051855	1.622435
0.051953	1.620875
0.052051	1.619807
0.052148	1.619389
0.052246	1.619895
0.052344	1.620894
0.052441	1.622789
0.052539	1.625139
0.052637	1.628095
0.052734	1.631378
0.052832	1.634460
0.052930	1.637331
0.053027	1.639521
0.053125	1.641053
0.053223	1.641581
0.053320	1.641203
0.053418	1.640032
0.053516	1.638433
0.053613	1.636290
0.053711	1.634148
0.053809	1.631954
0.053906	1.630128
0.054004	1.628299
0.054102	1.626042
0.054199	1.623730
0.054297	1.621714
0.054395	1.620201
0.054492	1.619407
0.054590	1.619349
0.054687	1.620003
0.054785	1.621419
0.054883	1.623496
0.054980	1.625892
0.055078	1.628727
0.055176	1.631667
0.055273	1.634403
0.055371	1.636705
0.055469	1.638433
0.055566	1.639466
0.055664	1.639786
0.055762	1.639198
0.055859	1.637844
0.055957	1.635902
0.056055	1.634005
0.056152	1.631966
0.056250	1.629823
0.056348	1.627416
0.056445	1.625027
0.056543	1.622927
0.056641	1.621144
0.056738	1.620045
0.056836	1.619617
0.056934	1.619800
0.057031	1.620660
0.057129	1.622085
0.057227	1.624054
0.057324	1.626460
0.057422	1.629250
0.057520	1.632233
0.057617	1.635315
0.057715	1.638048
0.057812	1.640095
0.057910	1.641204
0.058008	1.641640
0.058105	1.641449
0.058203	1.640835
0.058301	1.640193
0.058398	1.639284
0.058496	1.637441
0.058594	1.635637
0.058691	1.633542
0.058789	1.630512
0.058887	1.626584
0.058984	1.623226
0.059082	1.620781
0.059180	1.618993
0.059277	1.618195
0.059375	1.618201
0.059473	1.619250
0.059570	1.621010
0.059668	1.623439
0.059766	1.626180
0.059863	1.629067
0.059961	1.632095
0.060059	1.634996
0.060156	1.637256
0.060254	1.639073
0.060352	1.640070
0.060449	1.640148
0.060547	1.639352
0.060645	1.637775
0.060742	1.635774
0.060840	1.633692
0.060937	1.631837
0.061035	1.629357
0.061133	1.626977
0.061230	1.625040
0.061328	1.623173
0.061426	1.621589
0.061523	1.620468
0.061621	1.620029
0.061719	1.620202
0.061816	1.621012
0.061914	1.622245
0.062012	1.623986
0.062109	1.626069
0.062207	1.628355
0.062305	1.630706
0.062402	1.633070
0.062500	1.635333
0.062598	1.637407
0.062695	1.639231
0.062793	1.640658
0.062891	1.641828
0.062988	1.642656
0.063086	1.643027
0.063184	1.641984
0.063281	1.639395
0.063379	1.636272
0.063477	1.633008
0.063574	1.629788
0.063672	1.626647
0.063770	1.623910
0.063867	1.621569
0.063965	1.619539
0.064062	1.617961
0.064160	1.617287
0.064258	1.617883
0.064355	1.619608
0.064453	1.621809
0.064551	1.624728
0.064648	1.627638
0.064746	1.630668
0.064844	1.633474
0.064941	1.635838
0.065039	1.637626
0.065137	1.638914
0.065234	1.639482
0.065332	1.639284
0.065430	1.638217
0.065527	1.636462
0.065625	1.634211
0.065723	1.631736
0.065820	1.629520
0.065918	1.627441
0.066016	1.625657
0.066113	1.624038
0.066211	1.622727
0.066309	1.621755
0.066406	1.621168
0.066504	1.620991
0.066602	1.621602
0.066699	1.622721
0.066797	1.624529
0.066895	1.626851
0.066992	1.629530
0.067090	1.632585
0.067187	1.635608
0.067285	1.638413
0.067383	1.640510
0.067480	1.641705
0.067578	1.642094
0.067676	1.642074
0.067773	1.641735
0.067871	1.641311
0.067969	1.640669
0.068066	1.639190
0.068164	1.636385
0.068262	1.633257
0.068359	1.630153
0.068457	1.626717
0.068555	1.623142
0.068652	1.620557
0.068750	1.619044
0.068848	1.618347
0.068945	1.618436
0.069043	1.619332
0.069141	1.620925
0.069238	1.623147
0.069336	1.625985
0.069434	1.629051
0.069531	1.632118
0.069629	1.634911
0.069727	1.637480
0.069824	1.639490
0.069922	1.641011
0.070020	1.641858
0.070117	1.641403
0.070215	1.639556
0.070312	1.636330
0.070410	1.633572
0.070508	1.631853
0.070605	1.630029
0.070703	1.627245
0.070801	1.624486
0.070898	1.622116
0.070996	1.620450
0.071094	1.619124
0.071191	1.618635
0.071289	1.618831
0.071387	1.619554
0.071484	1.621110
0.071582	1.623101
0.071680	1.625742
0.071777	1.628665
0.071875	1.632000
0.071973	1.635458
0.072070	1.638880
0.072168	1.642001
0.072266	1.644496
0.072363	1.645572
0.072461	1.644889
0.072559	1.642798
0.072656	1.640810
0.072754	1.639111
0.072852	1.637548
0.072949	1.635714
0.073047	1.633358
0.073145	1.631008
0.073242	1.628430
0.073340	1.625955
0.073437	1.623456
0.073535	1.621558
0.073633	1.620069
0.073730	1.619440
0.073828	1.619507
0.073926	1.620582
0.074023	1.622213
0.074121	1.624573
0.074219	1.627295
0.074316	1.630400
0.074414	1.633352
0.074512	1.636202
0.074609	1.638455
0.074707	1.639979
0.074805	1.640727
0.074902	1.640624
0.075000	1.639587
0.075098	1.637594
0.075195	1.635197
0.075293	1.632369
0.075391	1.629288
0.075488	1.626384
0.075586	1.623643
0.075684	1.621293
0.075781	1.619606
0.075879	1.618610
0.075977	1.618448
0.076074	1.619126
0.076172	1.620640
0.076270	1.622563
0.076367	1.625109
0.076465	1.627838
0.076562	1.630695
0.076660	1.633363
0.076758	1.636027
0.076855	1.638258
0.076953	1.639636
0.077051	1.640159
0.077148	1.639609
0.077246	1.638562
0.077344	1.637443
0.077441	1.636238
0.077539	1.635161
0.077637	1.634287
0.077734	1.633075
0.077832	1.631714
0.077930	1.629972
0.078027	1.627961
0.078125	1.625902
0.078223	1.624116
0.078320	1.622864
0.078418	1.622429
0.078516	1.622784
0.078613	1.624103
0.078711	1.625908
0.078809	1.628318
0.078906	1.631111
0.079004	1.633822
0.079102	1.636383
0.079199	1.638226
0.079297	1.639410
0.079395	1.640008
0.079492	1.640329
0.079590	1.640204
0.079687	1.639450
0.079785	1.638163
0.079883	1.636089
0.079980	1.633614
0.080078	1.631063
0.080176	1.628649
0.080273	1.626384
0.080371	1.624293
0.080469	1.622615
0.080566	1.621329
0.080664	1.620726
0.080762	1.620756
0.080859	1.621572
0.080957	1.623095
0.081055	1.625128
0.081152	1.627769
0.081250	1.630576
0.081348	1.633485
0.081445	1.636301
0.081543	1.638900
0.081641	1.640814
0.081738	1.641466
0.081836	1.640920
0.081934	1.639940
0.082031	1.638580
0.082129	1.636960
0.082227	1.635050
0.082324	1.633148
0.082422	1.631292
0.082520	1.629289
0.082617	1.627318
0.082715	1.625416
0.082812	1.623466
0.082910	1.621764
0.083008	1.620408
0.083105	1.619525
0.083203	1.619240
0.083301	1.619884
0.083398	1.621290
0.083496	1.623445
0.083594	1.626085
0.083691	1.629075
0.083789	1.632181
0.083887	1.635198
0.083984	1.638118
0.084082	1.640123
0.084180	1.641320
0.084277	1.641056
0.084375	1.640630
0.084473	1.640374
0.084570	1.639830
0.084668	1.638866
0.084766	1.637319
0.084863	1.635041
0.084961	1.632109
0.085059	1.628646
0.085156	1.625460
0.085254	1.622779
0.085352	1.620790
0.085449	1.619774
0.085547	1.619811
0.085645	1.620509
0.085742	1.622028
0.085840	1.624112
0.085937	1.626674
0.086035	1.629470
0.086133	1.632563
0.086230	1.635511
0.086328	1.638061
0.086426	1.640094
0.086523	1.641427
0.086621	1.642449
0.086719	1.643221
0.086816	1.641496
0.086914	1.636553
0.087012	1.634670
0.087109	1.633760
0.087207	1.632666
0.087305	1.630949
0.087402	1.629191
0.087500	1.627550
0.087598	1.625992
0.087695	1.624612
0.087793	1.623487
0.087891	1.622800
0.087988	1.622735
0.088086	1.623129
0.088184	1.624221
0.088281	1.625789
0.088379	1.627805
0.088477	1.630247
0.088574	1.632806
0.088672	1.635403
0.088770	1.637859
0.088867	1.639736
0.088965	1.641037
0.089062	1.641731
0.089160	1.641818
0.089258	1.641406
0.089355	1.640581
0.089453	1.639079
0.089551	1.636815
0.089648	1.633748
0.089746	1.630611
0.089844	1.627818
0.089941	1.624924
0.090039	1.622254
0.090137	1.620037
0.090234	1.618645
0.090332	1.618210
0.090430	1.618623
0.090527	1.619871
0.090625	1.621716
0.090723	1.624228
0.090820	1.626971
0.090918	1.629906
0.091016	1.632598
0.091113	1.635124
0.091211	1.636960
0.091309	1.638211
0.091406	1.638786
0.091504	1.638930
0.091602	1.638636
0.091699	1.638358
0.091797	1.638105
0.091895	1.638256
0.091992	1.638127
0.092090	1.638117
0.092187	1.635946
0.092285	1.629595
0.092383	1.625305
0.092480	1.622587
0.092578	1.620959
0.092676	1.619983
0.092773	1.619748
0.092871	1.620203
0.092969	1.621223
0.093066	1.622918
0.093164	1.625049
0.093262	1.627557
0.093359	1.630224
0.093457	1.633014
0.093555	1.635504
0.093652	1.637729
0.093750	1.639534
0.093848	1.640624
0.093945	1.641197
0.094043	1.640941
0.094141	1.639686
0.094238	1.637652
0.094336	1.635456
0.094434	1.633632
0.094531	1.632209
0.094629	1.630534
0.094727	1.628635
0.094824	1.626368
0.094922	1.624127
0.095020	1.622101
0.095117	1.620608
0.095215	1.619812
0.095312	1.620137
0.095410	1.621299
0.095508	1.623218
0.095605	1.625863
0.095703	1.628976
0.095801	1.632319
0.095898	1.635583
0.095996	1.638257
0.096094	1.639974
0.096191	1.640426
0.096289	1.640141
0.096387	1.639362
0.096484	1.638174
0.096582	1.636706
0.096680	1.635193
0.096777	1.633392
0.096875	1.631392
0.096973	1.629233
0.097070	1.626958
0.097168	1.624881
0.097266	1.623045
0.097363	1.621875
0.097461	1.621267
0.097559	1.621310
0.097656	1.622000
0.097754	1.623230
0.097852	1.625041
0.097949	1.627243
0.098047	1.629848
0.098145	1.632546
0.098242	1.635379
0.098340	1.638039
0.098437	1.640209
0.098535	1.641719
0.098633	1.642125
0.098730	1.641919
0.098828	1.640855
0.098926	1.639384
0.099023	1.637461
0.099121	1.635368
0.099219	1.633216
0.099316	1.631520
0.099414	1.630139
0.099512	1.627077
0.099609	1.623188
0.099707	1.620312
0.099805	1.618527
0.099902	1.618029
0.100000	1.618687
0.100098	1.620517
0.100195	1.622805
0.100293	1.625770
0.100391	1.628934
0.100488	1.631996
0.100586	1.635046
0.100684	1.637682
0.100781	1.639887
0.100879	1.641294
0.100977	1.641507
0.101074	1.640268
0.101172	1.638282
0.101270	1.636621
0.101367	1.635199
0.101465	1.633501
0.101562	1.631582
0.101660	1.629488
0.101758	1.627319
0.101855	1.625345
0.101953	1.623497
0.102051	1.622044
0.102148	1.620950
0.102246	1.620536
0.102344	1.620760
0.102441	1.621799
0.102539	1.623432
0.102637	1.625804
0.102734	1.628637
0.102832	1.631473
0.102930	1.634478
0.103027	1.637230
0.103125	1.639543
0.103223	1.641373
0.103320	1.642636
0.103418	1.643287
0.103516	1.643092
0.103613	1.642248
0.103711	1.640829
0.103809	1.638456
0.103906	1.634971
0.104004	1.631171
0.104102	1.628082
0.104199	1.625640
0.104297	1.623598
0.104395	1.622045
0.104492	1.620913
0.104590	1.620454
0.104687	1.620775
0.104785	1.621723
0.104883	1.623172
0.104980	1.625233
0.105078	1.627609
0.105176	1.630077
0.105273	1.632729
0.105371	1.635256
0.105469	1.637666
0.105566	1.639629
0.105664	1.641188
0.105762	1.642099
0.105859	1.642332
0.105957	1.641809
0.106055	1.640310
0.106152	1.638128
0.106250	1.635437
0.106348	1.632508
0.106445	1.629549
0.106543	1.626760
0.106641	1.624142
0.106738	1.621990
0.106836	1.620654
0.106934	1.619825
0.107031	1.619721
0.107129	1.620472
0.107227	1.621884
0.107324	1.623890
0.107422	1.626373
0.107520	1.629210
0.107617	1.632218
0.107715	1.635182
0.107812	1.637648
0.107910	1.639695
0.108008	1.641021
0.108105	1.641424
0.108203	1.640989
0.108301	1.639647
0.108398	1.638114
0.108496	1.636499
0.108594	1.634606
0.108691	1.632214
0.108789	1.629440
0.108887	1.626966
0.108984	1.624497
0.109082	1.622314
0.109180	1.620457
0.109277	1.619409
0.109375	1.619026
0.109473	1.619602
0.109570	1.620820
0.109668	1.622646
0.109766	1.625063
0.109863	1.627724
0.109961	1.630801
0.110059	1.633765
0.110156	1.636749
0.110254	1.639094
0.110352	1.640730
0.110449	1.641355
0.110547	1.641369
0.110645	1.641084
0.110742	1.640507
0.110840	1.639662
0.110937	1.638390
0.111035	1.636771
0.111133	1.634576
0.111230	1.631871
0.111328	1.628719
0.111426	1.625642
0.111523	1.622924
0.111621	1.620850
0.111719	1.619453
0.111816	1.618903
0.111914	1.619090
0.112012	1.620206
0.112109	1.622041
0.112207	1.624288
0.112305	1.626946
0.112402	1.629716
0.112500	1.632281
0.112598	1.634861
0.112695	1.637007
0.112793	1.638606
0.112891	1.639623
0.112988	1.640008
0.113086	1.640263
0.113184	1.639968
0.113281	1.639278
0.113379	1.638023
0.113477	1.636112
0.113574	1.633781
0.113672	1.631129
0.113770	1.628550
0.113867	1.626230
0.113965	1.624387
0.114062	1.622969
0.114160	1.622032
0.114258	1.621711
0.114355	1.622020
0.114453	1.622993
0.114551	1.624465
0.114648	1.626365
0.114746	1.628657
0.114844	1.631260
0.114941	1.633780
0.115039	1.636293
0.115137	1.638414
0.115234	1.639892
0.115332	1.640325
0.115430	1.639866
0.115527	1.638449
0.115625	1.637278
0.115723	1.636418
0.115820	1.635211
0.115918	1.633500
0.116016	1.631713
0.116113	1.629892
0.116211	1.627636
0.116309	1.625366
0.116406	1.623474
0.116504	1.622048
0.116602	1.621475
0.116699	1.621630
0.116797	1.622440
0.116895	1.624148
0.116992	1.626130
0.117090	1.628608
0.117187	1.631231
0.117285	1.633794
0.117383	1.636248
0.117480	1.638327
0.117578	1.640148
0.117676	1.641525
0.117773	1.642364
0.117871	1.642341
0.117969	1.641485
0.118066	1.639932
0.118164	1.636849
0.118262	1.637884
0.118359	1.644052
0.118457	1.626860
0.118555	1.623579
0.118652	1.624597
0.118750	1.615723
0.118848	1.615197
0.118945	1.615529
0.119043	1.617159
0.119141	1.619075
0.119238	1.621953
0.119336	1.625041
0.119434	1.628441
0.119531	1.631610
0.119629	1.634388
0.119727	1.636475
0.119824	1.638245
0.119922	1.639153
0.120020	1.639781
0.120117	1.639922
0.120215	1.639345
0.120312	1.638297
0.120410	1.636532
0.120508	1.633892
0.120605	1.631232
0.120703	1.628915
0.120801	1.627353
0.120898	1.625960
0.120996	1.624633
0.121094	1.623406
0.121191	1.622425
0.121289	1.622088
0.121387	1.622229
0.121484	1.622864
0.121582	1.624257
0.121680	1.626073
0.121777	1.628473
0.121875	1.631207
0.121973	1.634218
0.122070	1.637253
0.122168	1.639951
0.122266	1.642021
0.122363	1.642983
0.122461	1.643390
0.122559	1.642784
0.122656	1.640246
0.122754	1.637014
0.122852	1.634678
0.122949	1.632879
0.123047	1.630891
0.123145	1.627909
0.123242	1.624912
0.123340	1.622416
0.123437	1.620637
0.123535	1.619275
0.123633	1.618787
0.123730	1.619011
0.123828	1.620160
0.123926	1.621775
0.124023	1.624015
0.124121	1.626663
0.124219	1.629491
0.124316	1.632320
0.124414	1.635011
0.124512	1.637411
0.124609	1.639175
0.124707	1.640469
0.124805	1.641029
0.124902	1.641014
0.125000	1.640418
0.125098	1.639102
0.125195	1.637014
0.125293	1.634104
0.125391	1.630812
0.125488	1.627760
0.125586	1.625193
0.125684	1.622962
0.125781	1.621188
0.125879	1.619994
0.125977	1.619300
0.126074	1.619418
0.126172	1.620221
0.126270	1.621514
0.126367	1.623439
0.126465	1.625879
0.126562	1.628579
0.126660	1.631364
0.126758	1.634019
0.126855	1.636706
0.126953	1.638949
0.127051	1.640837
0.127148	1.642163
0.127246	1.642847
0.127344	1.642674
0.127441	1.641102
0.127539	1.639041
0.127637	1.637252
0.127734	1.635627
0.127832	1.633880
0.127930	1.631953
0.128027	1.629511
0.128125	1.626813
0.128223	1.624052
0.128320	1.621832
0.128418	1.620224
0.128516	1.619203
0.128613	1.619162
0.128711	1.619701
0.128809	1.621169
0.128906	1.623281
0.129004	1.625818
0.129102	1.628518
0.129199	1.631387
0.129297	1.633993
0.129395	1.636344
0.129492	1.638103
0.129590	1.639218
0.129687	1.639542
0.129785	1.639041
0.129883	1.638180
0.129980	1.637015
0.130078	1.635494
0.130176	1.634460
0.130273	1.633331
0.130371	1.630633
0.130469	1.627788
0.130566	1.625215
0.130664	1.622709
0.130762	1.621017
0.130859	1.620077
0.130957	1.619869
0.131055	1.620569
0.131152	1.621970
0.131250	1.623934
0.131348	1.626263
0.131445	1.628993
0.131543	1.631747
0.131641	1.634581
0.131738	1.637180
0.131836	1.639224
0.131934	1.640830
0.132031	1.641719
0.132129	1.641777
0.132227	1.640771
0.132324	1.638820
0.132422	1.636618
0.132520	1.635055
0.132617	1.633798
0.132715	1.631585
0.132812	1.628529
0.132910	1.625101
0.133008	1.622061
0.133105	1.619982
0.133203	1.618702
0.133301	1.618242
0.133398	1.618472
0.133496	1.619575
0.133594	1.621587
0.133691	1.624084
0.133789	1.627007
0.133887	1.630160
0.133984	1.633178
0.134082	1.635941
0.134180	1.638242
0.134277	1.639639
0.134375	1.640096
0.134473	1.639815
0.134570	1.638541
0.134668	1.636605
0.134766	1.634291
0.134863	1.632218
0.134961	1.630265
0.135059	1.628515
0.135156	1.626736
0.135254	1.624996
0.135352	1.623251
0.135449	1.621826
0.135547	1.620833
0.135645	1.620305
0.135742	1.620537
0.135840	1.621495
0.135937	1.623042
0.136035	1.625100
0.136133	1.627619
0.136230	1.630392
0.136328	1.633286
0.136426	1.635903
0.136523	1.638046
0.136621	1.639572
0.136719	1.640347
0.136816	1.640573
0.136914	1.640183
0.137012	1.639051
0.137109	1.637555
0.137207	1.635726
0.137305	1.633277
0.137402	1.630518
0.137500	1.628249
0.137598	1.626490
0.137695	1.624939
0.137793	1.623717
0.137891	1.622592
0.137988	1.621902
0.138086	1.621667
0.138184	1.621988
0.138281	1.623007
0.138379	1.624678
0.138477	1.626892
0.138574	1.629467
0.138672	1.632143
0.138770	1.634607
0.138867	1.636400
0.138965	1.637639
0.139062	1.638219
0.139160	1.638391
0.139258	1.638040
0.139355	1.637348
0.139453	1.636701
0.139551	1.635758
0.139648	1.634578
0.139746	1.633206
0.139844	1.631506
0.139941	1.629246
0.140039	1.626854
0.140137	1.624580
0.140234	1.622599
0.140332	1.621329
0.140430	1.620576
0.140527	1.620585
0.140625	1.621399
0.140723	1.622914
0.140820	1.625067
0.140918	1.627636
0.141016	1.630724
0.141113	1.633689
0.141211	1.636488
0.141309	1.638872
0.141406	1.640433
0.141504	1.641335
0.141602	1.641555
0.141699	1.640934
0.141797	1.639398
0.141895	1.637386
0.141992	1.635305
0.142090	1.633249
0.142187	1.631205
0.142285	1.629274
0.142383	1.627051
0.142480	1.624289
0.142578	1.621374
0.142676	1.619683
0.142773	1.619050
0.142871	1.619059
0.142969	1.619717
0.143066	1.620863
0.143164	1.622510
0.143262	1.624534
0.143359	1.627253
0.143457	1.630022
0.143555	1.632788
0.143652	1.635187
0.143750	1.637136
0.143848	1.638336
0.143945	1.638940
0.144043	1.639194
0.144141	1.639064
0.144238	1.638517
0.144336	1.637611
0.144434	1.636155
0.144531	1.634464
0.144629	1.632455
0.144727	1.630662
0.144824	1.629306
0.144922	1.628220
0.145020	1.626395
0.145117	1.623628
0.145215	1.621708
0.145312	1.620797
0.145410	1.620975
0.145508	1.621949
0.145605	1.623784
0.145703	1.626266
0.145801	1.629131
0.145898	1.631847
0.145996	1.634381
0.146094	1.636369
0.146191	1.637679
0.146289	1.638269
0.146387	1.638286
0.146484	1.637834
0.146582	1.637006
0.146680	1.636122
0.146777	1.635035
0.146875	1.633683
0.146973	1.632248
0.147070	1.630339
0.147168	1.627969
0.147266	1.625820
0.147363	1.624090
0.147461	1.622906
0.147559	1.622251
0.147656	1.622213
0.147754	1.622636
0.147852	1.623792
0.147949	1.625424
0.148047	1.627461
0.148145	1.629863
0.148242	1.632569
0.148340	1.635166
0.148437	1.637597
0.148535	1.639532
0.148633	1.640639
0.148730	1.640838
0.148828	1.640282
0.148926	1.638974
0.149023	1.637191
0.149121	1.635303
0.149219	1.633282
0.149316	1.631481
0.149414	1.629546
0.149512	1.627434
0.149609	1.625410
0.149707	1.623609
0.149805	1.622121
0.149902	1.620922
0.150000	1.620502
0.150098	1.620803
0.150195	1.621706
0.150293	1.623314
0.150391	1.625308
0.150488	1.627700
0.150586	1.630252
0.150684	1.633109
0.150781	1.635758
0.150879	1.638309
0.150977	1.640129
0.151074	1.641202
0.151172	1.641478
0.151270	1.641428
0.151367	1.640444
0.151465	1.638390
0.151562	1.635660
0.151660	1.632878
0.151758	1.630203
0.151855	1.627630
0.151953	1.625314
0.152051	1.623187
0.152148	1.621604
0.152246	1.620451
0.152344	1.619882
0.152441	1.619893
0.152539	1.620574
0.152637	1.622094
0.152734	1.624092
0.152832	1.626519
0.152930	1.629139
0.153027	1.631938
0.153125	1.634246
0.153223	1.636221
0.153320	1.637583
0.153418	1.638647
0.153516	1.639392
0.153613	1.639657
0.153711	1.639324
0.153809	1.638332
0.153906	1.636637
0.154004	1.634445
0.154102	1.631977
0.154199	1.629395
0.154297	1.626893
0.154395	1.624421
0.154492	1.622358
0.154590	1.620911
0.154687	1.620111
0.154785	1.620113
0.154883	1.620787
0.154980	1.622177
0.155078	1.623932
0.155176	1.626250
0.155273	1.628714
0.155371	1.631446
0.155469	1.634152
0.155566	1.636701
0.155664	1.638796
0.155762	1.640060
0.155859	1.639925
0.155957	1.639395
0.156055	1.639136
0.156152	1.638351
0.156250	1.636936
0.156348	1.634844
0.156445	1.632777
0.156543	1.630542
0.156641	1.628475
0.156738	1.626453
0.156836	1.624710
0.156934	1.623314
0.157031	1.622121
0.157129	1.621545
0.157227	1.621485
0.157324	1.621983
0.157422	1.623029
0.157520	1.624726
0.157617	1.626685
0.157715	1.629212
0.157812	1.631898
0.157910	1.634572
0.158008	1.637073
0.158105	1.639190
0.158203	1.640859
0.158301	1.641967
0.158398	1.642034
0.158496	1.640650
0.158594	1.638430
0.158691	1.636209
0.158789	1.634188
0.158887	1.631941
0.158984	1.629614
0.159082	1.627228
0.159180	1.624851
0.159277	1.622866
0.159375	1.621228
0.159473	1.620078
0.159570	1.619586
0.159668	1.619854
0.159766	1.620933
0.159863	1.622660
0.159961	1.624909
0.160059	1.627771
0.160156	1.630759
0.160254	1.633877
0.160352	1.636669
0.160449	1.639141
0.160547	1.641107
0.160645	1.642122
0.160742	1.642331
0.160840	1.641759
0.160937	1.640688
0.161035	1.639007
0.161133	1.636804
0.161230	1.633987
0.161328	1.630791
0.161426	1.627488
0.161523	1.624332
0.161621	1.621770
0.161719	1.620050
0.161816	1.619107
0.161914	1.619054
0.162012	1.619823
0.162109	1.621374
0.162207	1.623481
0.162305	1.625971
0.162402	1.628651
0.162500	1.631125
0.162598	1.633375
0.162695	1.635312
0.162793	1.636480
0.162891	1.637335
0.162988	1.637635
0.163086	1.637753
0.163184	1.637615
0.163281	1.637166
0.163379	1.636351
0.163477	1.635156
0.163574	1.633400
0.163672	1.631246
0.163770	1.628519
0.163867	1.626033
0.163965	1.624009
0.164062	1.622159
0.164160	1.620947
0.164258	1.620275
0.164355	1.620325
0.164453	1.621137
0.164551	1.622574
0.164648	1.624751
0.164746	1.627438
0.164844	1.630464
0.164941	1.633654
0.165039	1.636797
0.165137	1.639275
0.165234	1.641201
0.165332	1.642357
0.165430	1.642277
0.165527	1.641427
0.165625	1.639817
0.165723	1.638081
0.165820	1.635798
0.165918	1.633291
0.166016	1.630687
0.166113	1.628362
0.166211	1.626221
0.166309	1.624302
0.166406	1.622731
0.166504	1.621529
0.166602	1.620575
0.166699	1.620493
0.166797	1.620845
0.166895	1.621955
0.166992	1.623460
0.167090	1.625498
0.167187	1.628109
0.167285	1.630539
0.167383	1.633071
0.167480	1.635397
0.167578	1.637267
0.167676	1.638598
0.167773	1.639394
0.167871	1.639580
0.167969	1.639384
0.168066	1.638657
0.168164	1.637669
0.168262	1.636417
0.168359	1.634917
0.168457	1.632949
0.168555	1.630827
0.168652	1.628486
0.168750	1.626055
0.168848	1.623867
0.168945	1.622032
0.169043	1.620787
0.169141	1.620392
0.169238	1.620920
0.169336	1.622190
0.169434	1.624184
0.169531	1.626686
0.169629	1.629357
0.169727	1.632105
0.169824	1.634834
0.169922	1.637273
0.170020	1.639311
0.170117	1.640793
0.170215	1.641300
0.170312	1.640859
0.170410	1.639569
0.170508	1.637848
0.170605	1.636099
0.170703	1.634084
0.170801	1.631644
0.170898	1.629048
0.170996	1.626260
0.171094	1.623745
0.171191	1.621684
0.171289	1.620385
0.171387	1.619819
0.171484	1.619967
0.171582	1.620909
0.171680	1.622278
0.171777	1.624085
0.171875	1.626346
0.171973	1.628746
0.172070	1.631389
0.172168	1.633829
0.172266	1.636173
0.172363	1.638235
0.172461	1.639799
0.172559	1.640783
0.172656	1.640957
0.172754	1.640340
0.172852	1.639141
0.172949	1.637436
0.173047	1.635391
0.173145	1.633134
0.173242	1.630830
0.173340	1.628280
0.173437	1.625685
0.173535	1.623622
0.173633	1.621829
0.173730	1.620519
0.173828	1.620033
0.173926	1.620147
0.174023	1.620990
0.174121	1.622463
0.174219	1.624544
0.174316	1.627158
0.174414	1.629918
0.174512	1.633014
0.174609	1.635999
0.174707	1.638751
0.174805	1.640892
0.174902	1.641922
0.175000	1.641490
0.175098	1.640040
0.175195	1.639053
0.175293	1.638639
0.175391	1.638202
0.175488	1.637228
0.175586	1.635149
0.175684	1.632462
0.175781	1.629566
0.175879	1.627002
0.175977	1.624446
0.176074	1.622238
0.176172	1.620617
0.176270	1.619628
0.176367	1.619739
0.176465	1.620536
0.176562	1.622350
0.176660	1.624674
0.176758	1.627569
0.176855	1.630611
0.176953	1.633483
0.177051	1.636159
0.177148	1.638048
0.177246	1.639329
0.177344	1.639889
0.177441	1.639905
0.177539	1.639548
0.177637	1.638820
0.177734	1.637731
0.177832	1.636553
0.177930	1.635127
0.178027	1.633125
0.178125	1.629873
0.178223	1.626212
0.178320	1.623038
0.178418	1.620684
0.178516	1.619124
0.178613	1.618424
0.178711	1.618647
0.178809	1.619724
0.178906	1.621387
0.179004	1.623602
0.179102	1.626207
0.179199	1.629005
0.179297	1.631974
0.179395	1.634895
0.179492	1.637587
0.179590	1.639905
0.179687	1.641661
0.179785	1.642746
0.179883	1.642878
0.179980	1.641903
0.180078	1.639148
0.180176	1.635351
0.180273	1.632623
0.180371	1.631091
0.180469	1.630723
0.180566	1.630622
0.180664	1.629521
0.180762	1.626581
0.180859	1.623476
0.180957	1.621922
0.181055	1.621433
0.181152	1.621705
0.181250	1.622909
0.181348	1.624590
0.181445	1.626997
0.181543	1.629573
0.181641	1.632298
0.181738	1.634896
0.181836	1.637167
0.181934	1.638911
0.182031	1.639915
0.182129	1.640320
0.182227	1.640046
0.182324	1.639039
0.182422	1.637530
0.182520	1.635595
0.182617	1.633570
0.182715	1.631453
0.182812	1.629041
0.182910	1.626595
0.183008	1.624133
0.183105	1.622190
0.183203	1.620704
0.183301	1.619970
0.183398	1.619971
0.183496	1.620826
0.183594	1.622226
0.183691	1.624283
0.183789	1.626619
0.183887	1.629352
0.183984	1.632018
0.184082	1.634542
0.184180	1.636862
0.184277	1.638654
0.184375	1.640056
0.184473	1.640641
0.184570	1.640621
0.184668	1.639779
0.184766	1.638414
0.184863	1.636657
0.184961	1.634900
0.185059	1.633163
0.185156	1.631267
0.185254	1.628962
0.185352	1.626774
0.185449	1.625008
0.185547	1.623732
0.185645	1.622851
0.185742	1.622458
0.185840	1.622642
0.185937	1.623376
0.186035	1.624862
0.186133	1.626702
0.186230	1.629219
0.186328	1.631744
0.186426	1.634412
0.186523	1.636997
0.186621	1.639296
0.186719	1.641255
0.186816	1.642795
0.186914	1.643728
0.187012	1.644184
0.187109	1.643648
0.187207	1.641610
0.187305	1.638883
0.187402	1.636325
0.187500	1.633995
0.187598	1.631436
0.187695	1.628526
0.187793	1.625606
0.187891	1.622995
0.187988	1.620815
0.188086	1.619491
0.188184	1.619082
0.188281	1.619485
0.188379	1.620916
0.188477	1.622837
0.188574	1.625479
0.188672	1.628297
0.188770	1.631275
0.188867	1.634147
0.188965	1.636511
0.189062	1.638507
0.189160	1.639802
0.189258	1.640478
0.189355	1.640423
0.189453	1.639650
0.189551	1.638421
0.189648	1.636540
0.189746	1.634312
0.189844	1.631739
0.189941	1.629143
0.190039	1.626814
0.190137	1.624803
0.190234	1.623090
0.190332	1.621930
0.190430	1.621116
0.190527	1.621029
0.190625	1.621579
0.190723	1.622823
0.190820	1.624585
0.190918	1.626824
0.191016	1.629485
0.191113	1.632098
0.191211	1.634787
0.191309	1.637187
0.191406	1.639033
0.191504	1.640386
0.191602	1.640940
0.191699	1.640787
0.191797	1.640308
0.191895	1.639288
0.191992	1.638191
0.192090	1.636793
0.192187	1.635264
0.192285	1.633624
0.192383	1.631719
0.192480	1.629607
0.192578	1.627267
0.192676	1.624931
0.192773	1.623006
0.192871	1.621625
0.192969	1.620902
0.193066	1.620772
0.193164	1.621622
0.193262	1.623220
0.193359	1.625499
0.193457	1.628245
0.193555	1.631214
0.193652	1.634202
0.193750	1.636930
0.193848	1.639062
0.193945	1.640394
0.194043	1.640782
0.194141	1.640063
0.194238	1.638243
0.194336	1.636116
0.194434	1.634222
0.194531	1.632377
0.194629	1.630486
0.194727	1.628651
0.194824	1.626820
0.194922	1.625297
0.195020	1.623995
0.195117	1.623026
0.195215	1.622536
0.195312	1.622590
0.195410	1.623195
0.195508	1.624576
0.195605	1.626179
0.195703	1.628553
0.195801	1.631109
0.195898	1.634011
0.195996	1.637003
0.196094	1.639891
0.196191	1.642296
0.196289	1.643708
0.196387	1.643855
0.196484	1.643175
0.196582	1.641564
0.196680	1.638718
0.196777	1.635458
0.196875	1.632676
0.196973	1.630732
0.197070	1.629006
0.197168	1.627561
0.197266	1.626201
0.197363	1.624809
0.197461	1.623409
0.197559	1.622126
0.197656	1.621277
0.197754	1.621180
0.197852	1.621870
0.197949	1.623460
0.198047	1.625754
0.198145	1.628404
0.198242	1.631387
0.198340	1.634479
0.198437	1.637326
0.198535	1.639797
0.198633	1.641710
0.198730	1.643177
0.198828	1.643974
0.198926	1.643612
0.199023	1.641754
0.199121	1.638826
0.199219	1.635323
0.199316	1.632636
0.199414	1.630136
0.199512	1.627572
0.199609	1.625168
0.199707	1.623131
0.199805	1.621368
0.199902	1.620250
0.200000	1.619690
0.200098	1.619877
0.200195	1.620796
0.200293	1.622437
0.200391	1.624693
0.200488	1.627373
0.200586	1.630296
0.200684	1.633332
0.200781	1.636162
0.200879	1.638645
0.200977	1.640435
0.201074	1.641622
0.201172	1.642092
0.201270	1.641940
0.201367	1.641334
0.201465	1.639838
0.201562	1.637386
0.201660	1.634970
0.201758	1.633041
0.201855	1.631229
0.201953	1.629045
0.202051	1.626647
0.202148	1.624472
0.202246	1.622590
0.202344	1.621265
0.202441	1.620659
0.202539	1.620643
0.202637	1.621693
0.202734	1.623372
0.202832	1.625433
0.202930	1.627981
0.203027	1.630637
0.203125	1.633267
0.203223	1.635556
0.203320	1.637485
0.203418	1.638621
0.203516	1.639307
0.203613	1.639529
0.203711	1.639387
0.203809	1.638877
0.203906	1.638190
0.204004	1.637372
0.204102	1.635908
0.204199	1.633259
0.204297	1.630129
0.204395	1.627635
0.204492	1.625938
0.204590	1.624589
0.204687	1.623341
0.204785	1.622670
0.204883	1.622605
0.204980	1.623331
0.205078	1.624615
0.205176	1.626514
0.205273	1.629061
0.205371	1.631697
0.205469	1.634629
0.205566	1.637201
0.205664	1.639638
0.205762	1.641590
0.205859	1.642877
0.205957	1.643278
0.206055	1.642601
0.206152	1.640828
0.206250	1.638537
0.206348	1.635865
0.206445	1.632927
0.206543	1.629776
0.206641	1.626650
0.206738	1.624128
0.206836	1.622257
0.206934	1.620902
0.207031	1.620221
0.207129	1.620019
0.207227	1.620313
0.207324	1.621393
0.207422	1.622852
0.207520	1.624825
0.207617	1.627143
0.207715	1.629591
0.207812	1.632240
0.207910	1.634739
0.208008	1.636903
0.208105	1.638715
0.208203	1.639940
0.208301	1.640611
0.208398	1.640560
0.208496	1.640114
0.208594	1.639136
0.208691	1.637724
0.208789	1.636071
0.208887	1.633932
0.208984	1.631542
0.209082	1.628845
0.209180	1.626096
0.209277	1.623699
0.209375	1.621723
0.209473	1.620418
0.209570	1.619913
0.209668	1.620073
0.209766	1.621215
0.209863	1.623095
0.209961	1.625323
0.210059	1.628130
0.210156	1.631056
0.210254	1.633903
0.210352	1.636568
0.210449	1.638607
0.210547	1.639978
0.210645	1.640651
0.210742	1.640568
0.210840	1.640058
0.210937	1.639268
0.211035	1.638535
0.211133	1.637406
0.211230	1.635944
0.211328	1.633886
0.211426	1.631901
0.211523	1.629939
0.211621	1.627865
0.211719	1.625848
0.211816	1.623859
0.211914	1.622323
0.212012	1.621465
0.212109	1.621220
0.212207	1.621720
0.212305	1.622930
0.212402	1.624710
0.212500	1.626735
0.212598	1.629153
0.212695	1.631765
0.212793	1.633864
0.212891	1.635822
0.212988	1.637296
0.213086	1.638370
0.213184	1.638884
0.213281	1.638966
0.213379	1.638632
0.213477	1.637983
0.213574	1.636997
0.213672	1.635460
0.213770	1.633466
0.213867	1.631472
0.213965	1.629036
0.214062	1.626721
0.214160	1.624488
0.214258	1.622821
0.214355	1.621806
0.214453	1.621490
0.214551	1.622057
0.214648	1.623384
0.214746	1.625386
0.214844	1.627807
0.214941	1.630579
0.215039	1.633526
0.215137	1.636480
0.215234	1.639462
0.215332	1.642167
0.215430	1.643660
0.215527	1.643366
0.215625	1.640885
0.215723	1.637231
0.215820	1.634573
0.215918	1.633252
0.216016	1.632145
0.216113	1.630769
0.216211	1.629147
0.216309	1.627519
0.216406	1.625748
0.216504	1.624095
0.216602	1.622761
0.216699	1.621852
0.216797	1.621528
0.216895	1.622031
0.216992	1.623194
0.217090	1.624765
0.217187	1.627115
0.217285	1.629523
0.217383	1.632211
0.217480	1.634842
0.217578	1.637142
0.217676	1.639148
0.217773	1.640442
0.217871	1.641291
0.217969	1.641425
0.218066	1.640751
0.218164	1.639633
0.218262	1.638700
0.218359	1.637179
0.218457	1.635052
0.218555	1.632465
0.218652	1.629737
0.218750	1.627324
0.218848	1.625136
0.218945	1.623388
0.219043	1.622295
0.219141	1.621755
0.219238	1.622050
0.219336	1.622793
0.219434	1.624247
0.219531	1.626257
0.219629	1.628577
0.219727	1.631115
0.219824	1.633752
0.219922	1.636096
0.220020	1.638183
0.220117	1.639635
0.220215	1.640462
0.220312	1.640677
0.220410	1.640340
0.220508	1.639318
0.220605	1.637666
0.220703	1.635522
0.220801	1.633170
0.220898	1.630741
0.220996	1.628670
0.221094	1.626792
0.221191	1.624933
0.221289	1.623218
0.221387	1.621783
0.221484	1.620812
0.221582	1.620513
0.221680	1.620971
0.221777	1.622133
0.221875	1.624057
0.221973	1.626301
0.222070	1.629101
0.222168	1.631849
0.222266	1.634586
0.222363	1.637016
0.222461	1.638870
0.222559	1.640206
0.222656	1.640947
0.222754	1.640785
0.222852	1.639960
0.222949	1.638642
0.223047	1.637190
0.223145	1.635372
0.223242	1.633441
0.223340	1.631375
0.223437	1.629139
0.223535	1.626711
0.223633	1.624129
0.223730	1.621614
0.223828	1.620187
0.223926	1.619760
0.224023	1.620453
0.224121	1.622043
0.224219	1.624216
0.224316	1.626688
0.224414	1.629448
0.224512	1.632228
0.224609	1.635043
0.224707	1.637480
0.224805	1.639678
0.224902	1.641174
0.225000	1.642210
0.225098	1.642310
0.225195	1.642064
0.225293	1.640910
0.225391	1.640378
0.225488	1.637269
0.225586	1.632437
0.225684	1.629895
0.225781	1.627165
0.225879	1.625247
0.225977	1.623477
0.226074	1.622162
0.226172	1.621201
0.226270	1.620898
0.226367	1.620941
0.226465	1.621775
0.226562	1.623097
0.226660	1.624953
0.226758	1.627340
0.226855	1.629981
0.226953	1.632800
0.227051	1.635643
0.227148	1.638169
0.227246	1.640426
0.227344	1.642086
0.227441	1.642649
0.227539	1.641918
0.227637	1.640312
0.227734	1.638587
0.227832	1.636615
0.227930	1.634116
0.228027	1.631379
0.228125	1.628715
0.228223	1.626394
0.228320	1.624316
0.228418	1.622511
0.228516	1.621257
0.228613	1.620599
0.228711	1.620318
0.228809	1.621023
0.228906	1.621986
0.229004	1.623890
0.229102	1.626098
0.229199	1.628721
0.229297	1.631516
0.229395	1.634152
0.229492	1.636690
0.229590	1.638550
0.229687	1.640069
0.229785	1.640832
0.229883	1.640869
0.229980	1.640553
0.230078	1.639987
0.230176	1.639091
0.230273	1.636824
0.230371	1.633640
0.230469	1.630288
0.230566	1.627276
0.230664	1.624558
0.230762	1.622364
0.230859	1.620642
0.230957	1.619712
0.231055	1.619534
0.231152	1.620031
0.231250	1.621342
0.231348	1.623141
0.231445	1.625622
0.231543	1.628297
0.231641	1.631362
0.231738	1.634398
0.231836	1.637234
0.231934	1.639669
0.232031	1.641419
0.232129	1.642329
0.232227	1.642266
0.232324	1.641809
0.232422	1.641087
0.232520	1.639703
0.232617	1.637823
0.232715	1.635674
0.232812	1.632737
0.232910	1.629520
0.233008	1.626737
0.233105	1.623613
0.233203	1.620056
0.233301	1.617634
0.233398	1.616478
0.233496	1.616613
0.233594	1.617534
0.233691	1.619451
0.233789	1.621853
0.233887	1.624677
0.233984	1.627631
0.234082	1.630628
0.234180	1.633344
0.234277	1.635749
0.234375	1.637693
0.234473	1.639147
0.234570	1.640134
0.234668	1.640780
0.234766	1.640805
0.234863	1.639903
0.234961	1.637610
0.235059	1.634899
0.235156	1.633156
0.235254	1.631744
0.235352	1.630478
0.235449	1.629012
0.235547	1.627328
0.235645	1.625632
0.235742	1.624014
0.235840	1.622710
0.235937	1.621938
0.236035	1.621894
0.236133	1.622629
0.236230	1.624099
0.236328	1.626073
0.236426	1.628416
0.236523	1.630998
0.236621	1.633477
0.236719	1.635775
0.236816	1.637526
0.236914	1.638758
0.237012	1.639334
0.237109	1.639217
0.237207	1.638527
0.237305	1.637122
0.237402	1.635379
0.237500	1.633373
0.237598	1.631245
0.237695	1.629244
0.237793	1.627239
0.237891	1.625368
0.237988	1.623733
0.238086	1.622386
0.238184	1.621399
0.238281	1.621080
0.238379	1.621368
0.238477	1.622361
0.238574	1.624020
0.238672	1.626360
0.238770	1.629033
0.238867	1.632086
0.238965	1.635414
0.239062	1.638839
0.239160	1.642152
0.239258	1.644417
0.239355	1.644642
0.239453	1.644040
0.239551	1.643078
0.239648	1.640981
0.239746	1.638095
0.239844	1.635320
0.239941	1.632562
0.240039	1.629817
0.240137	1.626811
0.240234	1.624103
0.240332	1.621811
0.240430	1.619909
0.240527	1.618989
0.240625	1.619083
0.240723	1.619970
0.240820	1.621626
0.240918	1.623781
0.241016	1.626276
0.241113	1.629020
0.241211	1.631779
0.241309	1.634382
0.241406	1.636738
0.241504	1.638632
0.241602	1.639829
0.241699	1.640508
0.241797	1.640556
0.241895	1.640139
0.241992	1.638867
0.242090	1.636940
0.242187	1.634571
0.242285	1.632010
0.242383	1.629429
0.242480	1.627003
0.242578	1.624815
0.242676	1.623096
0.242773	1.621732
0.242871	1.620917
0.242969	1.620513
0.243066	1.620853
0.243164	1.621722
0.243262	1.623355
0.243359	1.625389
0.243457	1.627915
0.243555	1.630578
0.243652	1.633195
0.243750	1.635622
0.243848	1.637679
0.243945	1.639248
0.244043	1.640374
0.244141	1.641116
0.244238	1.641211
0.244336	1.640858
0.244434	1.639742
0.244531	1.638233
0.244629	1.636318
0.244727	1.634072
0.244824	1.631585
0.244922	1.628910
0.245020	1.626272
0.245117	1.623666
0.245215	1.621625
0.245312	1.620050
0.245410	1.619403
0.245508	1.619504
0.245605	1.620538
0.245703	1.622267
0.245801	1.624650
0.245898	1.627471
0.245996	1.630571
0.246094	1.633551
0.246191	1.636517
0.246289	1.639026
0.246387	1.641149
0.246484	1.642554
0.246582	1.642980
0.246680	1.642108
0.246777	1.640201
0.246875	1.637941
0.246973	1.635607
0.247070	1.633136
0.247168	1.630516
0.247266	1.627832
0.247363	1.625247
0.247461	1.623097
0.247559	1.621338
0.247656	1.620282
0.247754	1.620004
0.247852	1.620434
0.247949	1.621575
0.248047	1.623297
0.248145	1.625475
0.248242	1.628017
0.248340	1.630705
0.248437	1.633702
0.248535	1.636480
0.248633	1.639261
0.248730	1.641206
0.248828	1.642316
0.248926	1.642439
0.249023	1.641726
0.249121	1.640131
0.249219	1.638300
0.249316	1.636146
0.249414	1.633761
0.249512	1.631035
0.249609	1.628535
0.249707	1.626257
0.249805	1.624407
0.249902	1.622928
0.250000	1.621824
0.250098	1.621349
0.250195	1.621444
0.250293	1.622218
0.250391	1.623460
0.250488	1.625280
0.250586	1.627439
0.250684	1.630151
0.250781	1.633007
0.250879	1.636092
0.250977	1.638929
0.251074	1.641458
0.251172	1.643323
0.251270	1.644362
0.251367	1.644319
0.251465	1.642632
0.251562	1.640229
0.251660	1.637343
0.251758	1.634408
0.251855	1.632139
0.251953	1.630110
0.252051	1.627314
0.252148	1.624045
0.252246	1.621437
0.252344	1.619431
0.252441	1.618265
0.252539	1.617915
0.252637	1.618649
0.252734	1.620157
0.252832	1.622245
0.252930	1.625051
0.253027	1.628072
0.253125	1.631326
0.253223	1.634330
0.253320	1.636978
0.253418	1.638938
0.253516	1.640012
0.253613	1.640447
0.253711	1.640012
0.253809	1.639163
0.253906	1.637991
0.254004	1.636912
0.254102	1.636042
0.254199	1.635055
0.254297	1.633161
0.254395	1.630480
0.254492	1.627989
0.254590	1.626025
0.254687	1.624081
0.254785	1.622339
0.254883	1.621307
0.254980	1.621108
0.255078	1.621806
0.255176	1.623140
0.255273	1.625070
0.255371	1.627509
0.255469	1.630340
0.255566	1.633180
0.255664	1.636195
0.255762	1.638821
0.255859	1.640877
0.255957	1.642036
0.256055	1.642233
0.256152	1.641434
0.256250	1.640111
0.256348	1.638423
0.256445	1.636774
0.256543	1.635007
0.256641	1.633008
0.256738	1.630726
0.256836	1.628272
0.256934	1.625523
0.257031	1.623006
0.257129	1.620957
0.257227	1.619594
0.257324	1.619396
0.257422	1.619945
0.257520	1.621516
0.257617	1.623626
0.257715	1.626192
0.257812	1.629092
0.257910	1.631937
0.258008	1.634593
0.258105	1.636802
0.258203	1.638362
0.258301	1.639384
0.258398	1.639941
0.258496	1.640257
0.258594	1.639935
0.258691	1.639050
0.258789	1.637394
0.258887	1.635053
0.258984	1.632509
0.259082	1.630083
0.259180	1.627619
0.259277	1.625151
0.259375	1.623121
0.259473	1.621646
0.259570	1.620758
0.259668	1.620771
0.259766	1.621392
0.259863	1.622660
0.259961	1.624539
0.260059	1.626779
0.260156	1.629286
0.260254	1.632007
0.260352	1.634762
0.260449	1.637482
0.260547	1.640041
0.260645	1.642214
0.260742	1.643789
0.260840	1.644392
0.260937	1.643969
0.261035	1.642466
0.261133	1.640389
0.261230	1.637791
0.261328	1.634894
0.261426	1.631652
0.261523	1.628619
0.261621	1.626269
0.261719	1.624368
0.261816	1.622898
0.261914	1.621922
0.262012	1.621269
0.262109	1.621246
0.262207	1.621838
0.262305	1.622993
0.262402	1.624769
0.262500	1.626943
0.262598	1.629687
0.262695	1.632675
0.262793	1.635644
0.262891	1.638458
0.262988	1.640706
0.263086	1.642250
0.263184	1.642523
0.263281	1.641724
0.263379	1.640123
0.263477	1.638223
0.263574	1.636306
0.263672	1.634152
0.263770	1.632183
0.263867	1.630129
0.263965	1.627780
0.264062	1.625338
0.264160	1.623037
0.264258	1.621215
0.264355	1.620015
0.264453	1.619634
0.264551	1.620128
0.264648	1.621322
0.264746	1.623361
0.264844	1.625833
0.264941	1.628616
0.265039	1.631501
0.265137	1.634353
0.265234	1.636924
0.265332	1.638980
0.265430	1.640334
0.265527	1.641117
0.265625	1.641227
0.265723	1.640935
0.265820	1.640358
0.265918	1.639026
0.266016	1.636922
0.266113	1.634213
0.266211	1.631193
0.266309	1.628172
0.266406	1.625269
0.266504	1.622708
0.266602	1.620833
0.266699	1.619746
0.266797	1.619592
0.266895	1.620340
0.266992	1.621941
0.267090	1.624239
0.267187	1.626951
0.267285	1.629789
0.267383	1.632733
0.267480	1.635437
0.267578	1.637873
0.267676	1.639863
0.267773	1.641234
0.267871	1.641970
0.267969	1.641368
0.268066	1.639849
0.268164	1.638172
0.268262	1.636583
0.268359	1.635131
0.268457	1.633455
0.268555	1.632137
0.268652	1.630878
0.268750	1.629258
0.268848	1.626868
0.268945	1.624272
0.269043	1.622144
0.269141	1.621027
0.269238	1.620747
0.269336	1.621279
0.269434	1.622538
0.269531	1.624506
0.269629	1.626941
0.269727	1.629811
0.269824	1.632982
0.269922	1.636104
0.270020	1.639082
0.270117	1.641555
0.270215	1.643665
0.270312	1.644778
0.270410	1.644142
0.270508	1.643251
0.270605	1.641496
0.270703	1.638189
0.270801	1.634496
0.270898	1.630950
0.270996	1.627992
0.271094	1.625025
0.271191	1.622618
0.271289	1.620907
0.271387	1.619948
0.271484	1.619609
0.271582	1.619839
0.271680	1.620792
0.271777	1.622417
0.271875	1.624630
0.271973	1.627049
0.272070	1.629887
0.272168	1.633083
0.272266	1.636326
0.272363	1.639478
0.272461	1.641876
0.272559	1.643337
0.272656	1.643672
0.272754	1.642806
0.272852	1.641205
0.272949	1.639007
0.273047	1.636874
0.273145	1.634624
0.273242	1.631781
0.273340	1.628996
0.273437	1.626617
0.273535	1.624764
0.273633	1.623139
0.273730	1.621835
0.273828	1.620902
0.273926	1.620509
0.274023	1.620913
0.274121	1.621927
0.274219	1.623674
0.274316	1.626032
0.274414	1.628919
0.274512	1.632159
0.274609	1.635356
0.274707	1.638434
0.274805	1.641100
0.274902	1.642961
0.275000	1.643223
0.275098	1.641950
0.275195	1.639728
0.275293	1.638156
0.275391	1.637397
0.275488	1.638326
0.275586	1.634238
0.275684	1.626401
0.275781	1.622758
0.275879	1.620871
0.275977	1.619967
0.276074	1.619214
0.276172	1.619211
0.276270	1.619414
0.276367	1.620324
0.276465	1.621708
0.276562	1.623588
0.276660	1.625982
0.276758	1.628572
0.276855	1.631430
0.276953	1.634039
0.277051	1.636438
0.277148	1.638402
0.277246	1.639777
0.277344	1.640801
0.277441	1.641037
0.277539	1.640857
0.277637	1.640127
0.277734	1.638855
0.277832	1.637343
0.277930	1.635285
0.278027	1.632873
0.278125	1.630166
0.278223	1.627561
0.278320	1.625314
0.278418	1.623436
0.278516	1.622205
0.278613	1.621449
0.278711	1.621569
0.278809	1.622222
0.278906	1.623629
0.279004	1.625518
0.279102	1.627898
0.279199	1.630508
0.279297	1.633230
0.279395	1.635781
0.279492	1.638041
0.279590	1.639963
0.279687	1.641170
0.279785	1.641873
0.279883	1.641803
0.279980	1.641303
0.280078	1.640101
0.280176	1.638593
0.280273	1.636754
0.280371	1.634850
0.280469	1.632365
0.280566	1.629695
0.280664	1.626991
0.280762	1.624411
0.280859	1.622050
0.280957	1.620558
0.281055	1.619946
0.281152	1.620260
0.281250	1.621461
0.281348	1.623343
0.281445	1.625579
0.281543	1.628241
0.281641	1.631171
0.281738	1.634003
0.281836	1.636840
0.281934	1.639172
0.282031	1.640931
0.282129	1.641924
0.282227	1.642141
0.282324	1.641585
0.282422	1.640498
0.282520	1.638582
0.282617	1.636084
0.282715	1.633557
0.282812	1.630962
0.282910	1.628753
0.283008	1.626697
0.283105	1.624747
0.283203	1.623193
0.283301	1.622011
0.283398	1.621427
0.283496	1.621401
0.283594	1.622170
0.283691	1.623494
0.283789	1.625523
0.283887	1.628007
0.283984	1.630709
0.284082	1.633498
0.284180	1.636168
0.284277	1.638553
0.284375	1.640514
0.284473	1.642189
0.284570	1.643827
0.284668	1.644962
0.284766	1.643540
0.284863	1.637840
0.284961	1.633717
0.285059	1.631992
0.285156	1.630130
0.285254	1.628424
0.285352	1.626854
0.285449	1.625462
0.285547	1.624174
0.285645	1.623110
0.285742	1.622325
0.285840	1.621850
0.285937	1.621945
0.286035	1.622587
0.286133	1.624090
0.286230	1.626043
0.286328	1.628624
0.286426	1.631508
0.286523	1.634489
0.286621	1.637362
0.286719	1.639711
0.286816	1.641477
0.286914	1.642192
0.287012	1.642270
0.287109	1.642175
0.287207	1.642831
0.287305	1.643539
0.287402	1.639316
0.287500	1.633790
0.287598	1.630686
0.287695	1.628043
0.287793	1.625687
0.287891	1.623658
0.287988	1.622096
0.288086	1.621021
0.288184	1.620607
0.288281	1.620668
0.288379	1.621493
0.288477	1.622927
0.288574	1.624811
0.288672	1.627101
0.288770	1.629781
0.288867	1.632433
0.288965	1.635047
0.289062	1.637505
0.289160	1.639370
0.289258	1.640872
0.289355	1.641941
0.289453	1.642665
0.289551	1.642607
0.289648	1.641527
0.289746	1.640180
0.289844	1.639434
0.289941	1.638537
0.290039	1.635941
0.290137	1.631629
0.290234	1.627429
0.290332	1.624273
0.290430	1.622213
0.290527	1.621286
0.290625	1.620942
0.290723	1.621391
0.290820	1.622381
0.290918	1.623866
0.291016	1.625679
0.291113	1.627841
0.291211	1.630362
0.291309	1.632929
0.291406	1.635573
0.291504	1.638174
0.291602	1.640349
0.291699	1.641829
0.291797	1.642302
0.291895	1.642211
0.291992	1.641425
0.292090	1.639597
0.292187	1.636870
0.292285	1.634191
0.292383	1.632130
0.292480	1.629655
0.292578	1.627264
0.292676	1.625080
0.292773	1.623017
0.292871	1.621338
0.292969	1.620526
0.293066	1.620300
0.293164	1.620981
0.293262	1.622403
0.293359	1.624476
0.293457	1.626994
0.293555	1.629730
0.293652	1.632741
0.293750	1.635539
0.293848	1.638099
0.293945	1.640091
0.294043	1.641244
0.294141	1.641464
0.294238	1.640779
0.294336	1.639512
0.294434	1.637870
0.294531	1.636194
0.294629	1.634460
0.294727	1.632599
0.294824	1.630791
0.294922	1.629020
0.295020	1.627387
0.295117	1.626004
0.295215	1.624606
0.295312	1.623455
0.295410	1.622751
0.295508	1.622563
0.295605	1.623238
0.295703	1.624656
0.295801	1.626755
0.295898	1.629345
0.295996	1.632018
0.296094	1.634662
0.296191	1.637136
0.296289	1.638780
0.296387	1.639933
0.296484	1.640506
0.296582	1.640581
0.296680	1.640179
0.296777	1.638989
0.296875	1.637151
0.296973	1.634840
0.297070	1.632556
0.297168	1.630409
0.297266	1.628568
0.297363	1.626706
0.297461	1.624748
0.297559	1.623059
0.297656	1.622002
0.297754	1.621509
0.297852	1.621829
0.297949	1.622826
0.298047	1.624391
0.298145	1.626548
0.298242	1.628953
0.298340	1.631439
0.298437	1.633926
0.298535	1.636146
0.298633	1.637992
0.298730	1.639340
0.298828	1.639983
0.298926	1.639944
0.299023	1.639068
0.299121	1.637557
0.299219	1.635811
0.299316	1.633865
0.299414	1.632053
0.299512	1.630392
0.299609	1.628575
0.299707	1.626754
0.299805	1.625125
0.299902	1.623481
0.300000	1.622367
0.300098	1.621755
0.300195	1.621759
0.300293	1.622442
0.300391	1.623606
0.300488	1.625389
0.300586	1.627671
0.300684	1.630303
0.300781	1.633083
0.300879	1.635973
0.300977	1.638583
0.301074	1.640634
0.301172	1.641823
0.301270	1.642272
0.301367	1.642182
0.301465	1.641931
0.301562	1.641745
0.301660	1.641488
0.301758	1.639969
0.301855	1.636283
0.301953	1.632172
0.302051	1.627905
0.302148	1.624509
0.302246	1.622008
0.302344	1.620416
0.302441	1.619420
0.302539	1.619223
0.302637	1.619920
0.302734	1.621380
0.302832	1.623508
0.302930	1.626041
0.303027	1.628970
0.303125	1.631969
0.303223	1.634739
0.303320	1.637127
0.303418	1.639103
0.303516	1.640529
0.303613	1.641553
0.303711	1.641861
0.303809	1.641175
0.303906	1.639077
0.304004	1.636261
0.304102	1.633263
0.304199	1.630364
0.304297	1.627847
0.304395	1.625571
0.304492	1.623505
0.304590	1.621795
0.304687	1.620663
0.304785	1.620080
0.304883	1.620155
0.304980	1.620979
0.305078	1.622420
0.305176	1.624450
0.305273	1.626978
0.305371	1.629865
0.305469	1.632860
0.305566	1.635964
0.305664	1.638521
0.305762	1.640267
0.305859	1.640907
0.305957	1.640694
0.306055	1.640001
0.306152	1.638933
0.306250	1.637196
0.306348	1.635160
0.306445	1.633144
0.306543	1.631412
0.306641	1.629884
0.306738	1.628587
0.306836	1.627403
0.306934	1.626330
0.307031	1.625479
0.307129	1.624827
0.307227	1.624527
0.307324	1.624616
0.307422	1.625113
0.307520	1.626163
0.307617	1.627608
0.307715	1.629537
0.307812	1.631662
0.307910	1.633920
0.308008	1.636068
0.308105	1.637922
0.308203	1.639365
0.308301	1.640154
0.308398	1.640256
0.308496	1.639686
0.308594	1.638970
0.308691	1.638287
0.308789	1.637543
0.308887	1.636397
0.308984	1.634410
0.309082	1.632162
0.309180	1.630100
0.309277	1.627946
0.309375	1.626055
0.309473	1.624298
0.309570	1.623074
0.309668	1.622443
0.309766	1.622441
0.309863	1.622942
0.309961	1.623909
0.310059	1.625561
0.310156	1.627773
0.310254	1.630190
0.310352	1.633080
0.310449	1.635937
0.310547	1.638578
0.310645	1.640879
0.310742	1.642197
0.310840	1.642372
0.310937	1.641811
0.311035	1.640346
0.311133	1.637732
0.311230	1.635125
0.311328	1.632964
0.311426	1.630852
0.311523	1.628465
0.311621	1.626198
0.311719	1.623996
0.311816	1.621823
0.311914	1.620167
0.312012	1.619096
0.312109	1.618956
0.312207	1.619648
0.312305	1.621088
0.312402	1.623229
0.312500	1.625618
0.312598	1.628474
0.312695	1.631185
0.312793	1.633880
0.312891	1.636181
0.312988	1.637887
0.313086	1.639135
0.313184	1.639607
0.313281	1.639610
0.313379	1.638925
0.313477	1.637932
0.313574	1.636237
0.313672	1.634388
0.313770	1.632530
0.313867	1.630869
0.313965	1.629356
0.314062	1.627768
0.314160	1.626131
0.314258	1.624617
0.314355	1.623322
0.314453	1.622511
0.314551	1.621995
0.314648	1.622093
0.314746	1.622862
0.314844	1.624211
0.314941	1.626146
0.315039	1.628483
0.315137	1.630887
0.315234	1.633394
0.315332	1.635626
0.315430	1.637524
0.315527	1.639062
0.315625	1.640174
0.315723	1.640703
0.315820	1.640585
0.315918	1.639833
0.316016	1.638473
0.316113	1.636542
0.316211	1.634183
0.316309	1.631495
0.316406	1.629011
0.316504	1.626760
0.316602	1.624508
0.316699	1.622342
0.316797	1.620803
0.316895	1.620203
0.316992	1.620500
0.317090	1.621569
0.317187	1.623305
0.317285	1.625535
0.317383	1.628165
0.317480	1.631058
0.317578	1.633937
0.317676	1.636804
0.317773	1.639426
0.317871	1.641633
0.317969	1.642979
0.318066	1.642894
0.318164	1.641510
0.318262	1.639091
0.318359	1.636747
0.318457	1.635015
0.318555	1.633159
0.318652	1.631038
0.318750	1.628510
0.318848	1.626116
0.318945	1.623776
0.319043	1.622015
0.319141	1.620512
0.319238	1.619826
0.319336	1.619873
0.319434	1.620612
0.319531	1.622112
0.319629	1.623882
0.319727	1.626090
0.319824	1.628324
0.319922	1.630667
0.320020	1.632996
0.320117	1.634827
0.320215	1.636574
0.320312	1.637960
0.320410	1.638834
0.320508	1.639399
0.320605	1.639356
0.320703	1.638865
0.320801	1.637837
0.320898	1.636236
0.320996	1.634309
0.321094	1.632162
0.321191	1.630146
0.321289	1.628205
0.321387	1.626391
0.321484	1.624725
0.321582	1.623226
0.321680	1.622278
0.321777	1.621913
0.321875	1.622295
0.321973	1.623503
0.322070	1.625258
0.322168	1.627525
0.322266	1.630263
0.322363	1.632871
0.322461	1.635337
0.322559	1.637311
0.322656	1.638693
0.322754	1.639273
0.322852	1.638986
0.322949	1.638271
0.323047	1.637383
0.323145	1.636189
0.323242	1.634549
0.323340	1.632373
0.323437	1.630255
0.323535	1.628368
0.323633	1.626671
0.323730	1.625121
0.323828	1.623763
0.323926	1.622542
0.324023	1.621676
0.324121	1.621340
0.324219	1.621671
0.324316	1.622876
0.324414	1.624610
0.324512	1.626937
0.324609	1.629804
0.324707	1.632643
0.324805	1.635544
0.324902	1.638096
0.325000	1.640335
0.325098	1.641810
0.325195	1.642433
0.325293	1.641842
0.325391	1.640138
0.325488	1.637594
0.325586	1.635023
0.325684	1.632805
0.325781	1.630445
0.325879	1.628220
0.325977	1.626065
0.326074	1.624139
0.326172	1.622500
0.326270	1.621232
0.326367	1.620473
0.326465	1.620232
0.326562	1.620616
0.326660	1.621549
0.326758	1.623133
0.326855	1.625140
0.326953	1.627511
0.327051	1.630088
0.327148	1.632730
0.327246	1.635143
0.327344	1.637416
0.327441	1.639094
0.327539	1.640546
0.327637	1.641397
0.327734	1.641928
0.327832	1.642050
0.327930	1.641621
0.328027	1.639918
0.328125	1.637569
0.328223	1.634426
0.328320	1.631013
0.328418	1.627668
0.328516	1.624698
0.328613	1.622008
0.328711	1.619826
0.328809	1.618524
0.328906	1.618437
0.329004	1.619353
0.329102	1.620938
0.329199	1.623307
0.329297	1.626087
0.329395	1.629069
0.329492	1.632091
0.329590	1.635033
0.329687	1.637606
0.329785	1.639860
0.329883	1.641516
0.329980	1.642634
0.330078	1.642874
0.330176	1.642236
0.330273	1.640977
0.330371	1.638582
0.330469	1.635448
0.330566	1.632214
0.330664	1.628829
0.330762	1.625243
0.330859	1.622168
0.330957	1.619751
0.331055	1.617936
0.331152	1.616973
0.331250	1.616999
0.331348	1.618147
0.331445	1.620069
0.331543	1.622566
0.331641	1.625659
0.331738	1.628853
0.331836	1.632082
0.331934	1.635242
0.332031	1.638025
0.332129	1.639960
0.332227	1.640925
0.332324	1.640768
0.332422	1.639977
0.332520	1.638665
0.332617	1.636975
0.332715	1.634639
0.332812	1.631797
0.332910	1.629028
0.333008	1.626326
0.333105	1.623975
0.333203	1.621960
0.333301	1.620469
0.333398	1.619568
0.333496	1.619308
0.333594	1.619756
0.333691	1.620831
0.333789	1.622397
0.333887	1.624620
0.333984	1.627110
0.334082	1.630004
0.334180	1.633027
0.334277	1.636059
0.334375	1.639058
0.334473	1.641724
0.334570	1.644049
0.334668	1.645622
0.334766	1.646427
0.334863	1.646459
0.334961	1.645175
0.335059	1.642552
0.335156	1.637979
0.335254	1.633576
0.335352	1.629887
0.335449	1.627490
0.335547	1.623194
0.335645	1.619229
0.335742	1.618091
0.335840	1.617691
0.335937	1.618107
0.336035	1.618978
0.336133	1.620575
0.336230	1.622447
0.336328	1.624979
0.336426	1.627560
0.336523	1.630269
0.336621	1.632878
0.336719	1.635279
0.336816	1.637230
0.336914	1.638520
0.337012	1.639355
0.337109	1.639578
0.337207	1.639172
0.337305	1.638249
0.337402	1.636711
0.337500	1.634678
0.337598	1.632293
0.337695	1.629889
0.337793	1.627908
0.337891	1.626676
0.337988	1.625814
0.338086	1.624791
0.338184	1.623595
0.338281	1.622600
0.338379	1.622021
0.338477	1.622318
0.338574	1.623284
0.338672	1.625018
0.338770	1.627323
0.338867	1.629946
0.338965	1.632854
0.339062	1.635663
0.339160	1.638173
0.339258	1.640127
0.339355	1.641360
0.339453	1.641213
0.339551	1.639606
0.339648	1.637547
0.339746	1.635768
0.339844	1.634193
0.339941	1.632763
0.340039	1.631394
0.340137	1.629827
0.340234	1.628237
0.340332	1.626529
0.340430	1.624570
0.340527	1.622935
0.340625	1.621762
0.340723	1.621365
0.340820	1.621744
0.340918	1.622838
0.341016	1.624408
0.341113	1.626497
0.341211	1.628989
0.341309	1.631540
0.341406	1.634252
0.341504	1.636634
0.341602	1.638755
0.341699	1.640195
0.341797	1.641043
0.341895	1.641173
0.341992	1.640605
0.342090	1.639527
0.342187	1.637675
0.342285	1.635508
0.342383	1.632993
0.342480	1.630159
0.342578	1.627686
0.342676	1.625881
0.342773	1.624241
0.342871	1.622893
0.342969	1.621915
0.343066	1.621287
0.343164	1.621347
0.343262	1.621983
0.343359	1.623332
0.343457	1.625075
0.343555	1.627412
0.343652	1.629983
0.343750	1.632657
0.343848	1.635187
0.343945	1.637356
0.344043	1.639003
0.344141	1.640148
0.344238	1.640732
0.344336	1.640697
0.344434	1.639774
0.344531	1.637958
0.344629	1.636597
0.344727	1.635627
0.344824	1.633845
0.344922	1.631874
0.345020	1.629803
0.345117	1.627627
0.345215	1.625483
0.345312	1.623476
0.345410	1.621963
0.345508	1.620964
0.345605	1.620653
0.345703	1.621057
0.345801	1.622306
0.345898	1.624246
0.345996	1.626754
0.346094	1.629460
0.346191	1.632403
0.346289	1.635027
0.346387	1.637373
0.346484	1.638942
0.346582	1.640013
0.346680	1.640411
0.346777	1.640212
0.346875	1.639368
0.346973	1.638087
0.347070	1.636266
0.347168	1.633390
0.347266	1.630686
0.347363	1.628439
0.347461	1.626238
0.347559	1.624133
0.347656	1.622274
0.347754	1.620936
0.347852	1.620129
0.347949	1.620122
0.348047	1.620740
0.348145	1.622022
0.348242	1.623920
0.348340	1.626160
0.348437	1.628842
0.348535	1.631599
0.348633	1.634097
0.348730	1.636301
0.348828	1.637834
0.348926	1.638635
0.349023	1.638689
0.349121	1.638328
0.349219	1.637687
0.349316	1.636807
0.349414	1.635422
0.349512	1.633728
0.349609	1.631674
0.349707	1.629409
0.349805	1.627145
0.349902	1.624923
0.350000	1.623178
0.350098	1.621871
0.350195	1.621171
0.350293	1.621150
0.350391	1.621642
0.350488	1.622859
0.350586	1.624300
0.350684	1.626254
0.350781	1.628525
0.350879	1.630993
0.350977	1.633180
0.351074	1.635537
0.351172	1.637635
0.351270	1.639320
0.351367	1.640661
0.351465	1.641447
0.351562	1.641502
0.351660	1.641142
0.351758	1.640127
0.351855	1.638576
0.351953	1.636240
0.352051	1.633363
0.352148	1.630366
0.352246	1.627600
0.352344	1.625039
0.352441	1.622755
0.352539	1.621027
0.352637	1.620081
0.352734	1.619628
0.352832	1.619961
0.352930	1.621021
0.353027	1.622767
0.353125	1.624824
0.353223	1.627388
0.353320	1.630243
0.353418	1.633090
0.353516	1.635946
0.353613	1.638267
0.353711	1.640160
0.353809	1.641174
0.353906	1.641125
0.354004	1.640467
0.354102	1.639432
0.354199	1.637933
0.354297	1.635796
0.354395	1.633423
0.354492	1.630721
0.354590	1.628073
0.354687	1.625665
0.354785	1.623506
0.354883	1.621925
0.354980	1.620748
0.355078	1.620232
0.355176	1.620466
0.355273	1.621302
0.355371	1.622881
0.355469	1.625014
0.355566	1.627491
0.355664	1.630334
0.355762	1.633127
0.355859	1.635738
0.355957	1.637875
0.356055	1.639261
0.356152	1.640035
0.356250	1.640069
0.356348	1.639565
0.356445	1.638434
0.356543	1.636893
0.356641	1.635035
0.356738	1.633066
0.356836	1.631045
0.356934	1.628992
0.357031	1.627229
0.357129	1.625582
0.357227	1.624178
0.357324	1.623174
0.357422	1.622384
0.357520	1.622080
0.357617	1.622365
0.357715	1.623228
0.357812	1.624792
0.357910	1.626856
0.358008	1.629304
0.358105	1.631830
0.358203	1.634388
0.358301	1.636676
0.358398	1.638573
0.358496	1.639883
0.358594	1.640359
0.358691	1.639783
0.358789	1.638342
0.358887	1.636427
0.358984	1.634423
0.359082	1.632386
0.359180	1.630380
0.359277	1.628485
0.359375	1.626587
0.359473	1.624840
0.359570	1.623341
0.359668	1.622098
0.359766	1.621520
0.359863	1.621236
0.359961	1.621783
0.360059	1.622835
0.360156	1.624414
0.360254	1.626479
0.360352	1.628964
0.360449	1.631687
0.360547	1.634439
0.360645	1.637241
0.360742	1.639812
0.360840	1.642468
0.360937	1.645547
0.361035	1.647349
0.361133	1.644164
0.361230	1.641607
0.361328	1.639215
0.361426	1.634973
0.361523	1.630753
0.361621	1.627408
0.361719	1.624764
0.361816	1.622506
0.361914	1.620939
0.362012	1.619937
0.362109	1.619322
0.362207	1.619385
0.362305	1.620153
0.362402	1.621442
0.362500	1.623237
0.362598	1.625761
0.362695	1.628507
0.362793	1.631478
0.362891	1.634450
0.362988	1.637045
0.363086	1.639194
0.363184	1.640488
0.363281	1.640267
0.363379	1.640132
0.363477	1.639778
0.363574	1.638387
0.363672	1.636103
0.363770	1.633596
0.363867	1.631474
0.363965	1.629740
0.364062	1.628260
0.364160	1.626858
0.364258	1.625575
0.364355	1.624347
0.364453	1.623288
0.364551	1.622714
0.364648	1.622512
0.364746	1.622776
0.364844	1.623331
0.364941	1.624322
0.365039	1.625861
0.365137	1.627819
0.365234	1.630148
0.365332	1.632748
0.365430	1.635365
0.365527	1.637735
0.365625	1.639816
0.365723	1.641057
0.365820	1.641118
0.365918	1.640028
0.366016	1.638892
0.366113	1.637653
0.366211	1.635991
0.366309	1.633163
0.366406	1.629970
0.366504	1.626782
0.366602	1.624850
0.366699	1.624586
0.366797	1.627735
0.366895	1.625739
0.366992	1.621140
0.367090	1.619878
0.367187	1.619754
0.367285	1.621776
0.367383	1.624195
0.367480	1.627148
0.367578	1.630073
0.367676	1.632849
0.367773	1.635481
0.367871	1.637563
0.367969	1.639057
0.368066	1.639830
0.368164	1.639562
0.368262	1.638603
0.368359	1.637328
0.368457	1.636121
0.368555	1.634955
0.368652	1.633753
0.368750	1.632643
0.368848	1.631400
0.368945	1.629656
0.369043	1.627251
0.369141	1.624061
0.369238	1.620960
0.369336	1.618940
0.369434	1.618335
0.369531	1.618971
0.369629	1.620416
0.369727	1.622694
0.369824	1.625335
0.369922	1.628203
0.370020	1.631038
0.370117	1.633872
0.370215	1.636226
0.370312	1.638539
0.370410	1.640099
0.370508	1.641474
0.370605	1.642477
0.370703	1.644576
0.370801	1.645755
0.370898	1.642856
0.370996	1.628671
0.371094	1.624258
0.371191	1.625803
0.371289	1.623608
0.371387	1.622162
0.371484	1.620421
0.371582	1.619641
0.371680	1.619232
0.371777	1.619641
0.371875	1.620461
0.371973	1.622262
0.372070	1.624465
0.372168	1.627185
0.372266	1.629988
0.372363	1.632968
0.372461	1.635692
0.372559	1.637879
0.372656	1.639594
0.372754	1.640136
0.372852	1.639822
0.372949	1.638995
0.373047	1.637951
0.373145	1.636445
0.373242	1.634883
0.373340	1.633150
0.373437	1.631431
0.373535	1.629587
0.373633	1.627622
0.373730	1.625519
0.373828	1.623568
0.373926	1.621966
0.374023	1.620872
0.374121	1.620317
0.374219	1.620451
0.374316	1.621374
0.374414	1.622974
0.374512	1.625470
0.374609	1.628364
0.374707	1.631464
0.374805	1.634733
0.374902	1.637672
0.375000	1.640262
0.375098	1.642127
0.375195	1.642860
0.375293	1.642610
0.375391	1.640959
0.375488	1.638061
0.375586	1.634410
0.375684	1.631298
0.375781	1.628820
0.375879	1.626412
0.375977	1.624496
0.376074	1.622597
0.376172	1.621001
0.376270	1.619969
0.376367	1.619368
0.376465	1.619516
0.376562	1.620215
0.376660	1.621522
0.376758	1.623277
0.376855	1.625559
0.376953	1.628082
0.377051	1.630741
0.377148	1.633455
0.377246	1.635977
0.377344	1.638171
0.377441	1.639839
0.377539	1.641101
0.377637	1.641757
0.377734	1.641745
0.377832	1.641158
0.377930	1.639830
0.378027	1.637760
0.378125	1.635458
0.378223	1.633040
0.378320	1.630251
0.378418	1.627323
0.378516	1.624292
0.378613	1.621844
0.378711	1.620077
0.378809	1.619050
0.378906	1.618899
0.379004	1.619473
0.379102	1.620832
0.379199	1.622924
0.379297	1.625482
0.379395	1.628458
0.379492	1.631629
0.379590	1.634451
0.379687	1.637018
0.379785	1.639006
0.379883	1.640408
0.379980	1.641059
0.380078	1.641061
0.380176	1.640531
0.380273	1.639577
0.380371	1.638166
0.380469	1.636325
0.380566	1.634203
0.380664	1.631616
0.380762	1.628715
0.380859	1.625845
0.380957	1.623488
0.381055	1.621926
0.381152	1.620753
0.381250	1.620247
0.381348	1.620413
0.381445	1.621087
0.381543	1.622461
0.381641	1.624339
0.381738	1.626604
0.381836	1.629143
0.381934	1.631814
0.382031	1.634524
0.382129	1.636869
0.382227	1.638947
0.382324	1.640453
0.382422	1.641374
0.382520	1.641452
0.382617	1.640655
0.382715	1.638916
0.382812	1.636655
0.382910	1.634220
0.383008	1.631580
0.383105	1.628878
0.383203	1.626094
0.383301	1.623322
0.383398	1.621070
0.383496	1.619311
0.383594	1.618565
0.383691	1.618612
0.383789	1.619393
0.383887	1.620582
0.383984	1.622514
0.384082	1.624846
0.384180	1.627274
0.384277	1.629995
0.384375	1.632761
0.384473	1.635309
0.384570	1.637774
0.384668	1.639573
0.384766	1.640617
0.384863	1.640762
0.384961	1.640367
0.385059	1.639476
0.385156	1.637975
0.385254	1.636173
0.385352	1.633794
0.385449	1.631381
0.385547	1.628975
0.385645	1.626637
0.385742	1.624424
0.385840	1.622537
0.385937	1.621352
0.386035	1.620737
0.386133	1.620913
0.386230	1.621677
0.386328	1.622938
0.386426	1.624878
0.386523	1.627110
0.386621	1.629697
0.386719	1.632522
0.386816	1.635473
0.386914	1.638192
0.387012	1.640414
0.387109	1.642233
0.387207	1.642777
0.387305	1.642399
0.387402	1.640813
0.387500	1.638464
0.387598	1.636040
0.387695	1.633848
0.387793	1.631935
0.387891	1.630163
0.387988	1.628305
0.388086	1.625941
0.388184	1.623941
0.388281	1.622390
0.388379	1.620305
0.388477	1.618791
0.388574	1.618469
0.388672	1.619396
0.388770	1.621268
0.388867	1.623677
0.388965	1.626492
0.389062	1.629303
0.389160	1.632009
0.389258	1.634370
0.389355	1.636260
0.389453	1.637626
0.389551	1.638334
0.389648	1.638588
0.389746	1.638452
0.389844	1.637740
0.389941	1.636581
0.390039	1.635133
0.390137	1.633255
0.390234	1.631160
0.390332	1.628940
0.390430	1.626897
0.390527	1.624967
0.390625	1.623301
0.390723	1.622085
0.390820	1.621265
0.390918	1.621129
0.391016	1.621581
0.391113	1.622619
0.391211	1.624472
0.391309	1.626770
0.391406	1.629370
0.391504	1.632272
0.391602	1.635254
0.391699	1.637712
0.391797	1.639556
0.391895	1.640702
0.391992	1.640841
0.392090	1.640254
0.392187	1.639044
0.392285	1.637590
0.392383	1.636178
0.392480	1.633969
0.392578	1.631676
0.392676	1.629742
0.392773	1.627876
0.392871	1.626136
0.392969	1.624305
0.393066	1.622750
0.393164	1.621609
0.393262	1.620878
0.393359	1.620878
0.393457	1.621531
0.393555	1.622781
0.393652	1.624724
0.393750	1.627058
0.393848	1.629602
0.393945	1.632304
0.394043	1.634871
0.394141	1.637113
0.394238	1.638875
0.394336	1.640048
0.394434	1.640544
0.394531	1.640392
0.394629	1.639772
0.394727	1.638322
0.394824	1.636508
0.394922	1.634295
0.395020	1.631883
0.395117	1.629578
0.395215	1.627466
0.395312	1.625354
0.395410	1.623339
0.395508	1.621776
0.395605	1.620618
0.395703	1.620119
0.395801	1.620424
0.395898	1.621337
0.395996	1.623067
0.396094	1.625354
0.396191	1.627976
0.396289	1.630901
0.396387	1.633839
0.396484	1.636577
0.396582	1.638590
0.396680	1.639890
0.396777	1.640536
0.396875	1.640859
0.396973	1.640985
0.397070	1.640435
0.397168	1.638938
0.397266	1.636790
0.397363	1.634214
0.397461	1.630673
0.397559	1.626988
0.397656	1.624060
0.397754	1.621926
0.397852	1.620452
0.397949	1.619520
0.398047	1.619313
0.398145	1.619632
0.398242	1.620691
0.398340	1.622320
0.398437	1.624455
0.398535	1.627020
0.398633	1.629777
0.398730	1.632658
0.398828	1.635462
0.398926	1.637922
0.399023	1.640023
0.399121	1.641676
0.399219	1.642435
0.399316	1.642274
0.399414	1.640963
0.399512	1.639047
0.399609	1.636608
0.399707	1.634335
0.399805	1.632139
0.399902	1.629590
0.400000	1.626593
0.400098	1.623648
0.400195	1.621277
0.400293	1.619572
0.400391	1.618555
0.400488	1.618502
0.400586	1.619437
0.400684	1.621215
0.400781	1.623679
0.400879	1.626459
0.400977	1.629363
0.401074	1.632212
0.401172	1.634782
0.401270	1.636809
0.401367	1.638262
0.401465	1.639063
0.401562	1.639435
0.401660	1.639256
0.401758	1.638128
0.401855	1.636296
0.401953	1.634417
0.402051	1.633228
0.402148	1.632129
0.402246	1.630889
0.402344	1.629309
0.402441	1.627787
0.402539	1.626121
0.402637	1.624319
0.402734	1.622579
0.402832	1.621515
0.402930	1.621388
0.403027	1.622198
0.403125	1.623770
0.403223	1.625846
0.403320	1.628438
0.403418	1.631134
0.403516	1.633853
0.403613	1.636240
0.403711	1.638216
0.403809	1.639615
0.403906	1.640262
0.404004	1.640264
0.404102	1.639249
0.404199	1.637482
0.404297	1.635400
0.404395	1.633254
0.404492	1.631369
0.404590	1.629698
0.404687	1.628368
0.404785	1.626869
0.404883	1.625446
0.404980	1.623897
0.405078	1.622628
0.405176	1.621725
0.405273	1.621570
0.405371	1.621726
0.405469	1.622725
0.405566	1.624304
0.405664	1.626426
0.405762	1.629082
0.405859	1.631657
0.405957	1.634546
0.406055	1.636960
0.406152	1.639008
0.406250	1.640444
0.406348	1.641354
0.406445	1.641610
0.406543	1.641222
0.406641	1.639874
0.406738	1.638003
0.406836	1.635484
0.406934	1.633540
0.407031	1.631163
0.407129	1.627131
0.407227	1.623223
0.407324	1.620521
0.407422	1.619045
0.407520	1.618132
0.407617	1.618248
0.407715	1.619191
0.407812	1.620754
0.407910	1.622938
0.408008	1.625474
0.408105	1.628352
0.408203	1.631265
0.408301	1.634171
0.408398	1.636957
0.408496	1.639185
0.408594	1.640859
0.408691	1.641709
0.408789	1.641583
0.408887	1.640427
0.408984	1.638692
0.409082	1.636827
0.409180	1.634959
0.409277	1.633112
0.409375	1.631066
0.409473	1.628615
0.409570	1.626124
0.409668	1.623695
0.409766	1.621876
0.409863	1.620518
0.409961	1.620005
0.410059	1.620271
0.410156	1.621329
0.410254	1.622918
0.410352	1.625040
0.410449	1.627422
0.410547	1.630016
0.410645	1.632781
0.410742	1.635128
0.410840	1.637178
0.410937	1.638557
0.411035	1.639054
0.411133	1.638898
0.411230	1.638006
0.411328	1.636551
0.411426	1.634848
0.411523	1.633208
0.411621	1.631619
0.411719	1.630030
0.411816	1.628377
0.411914	1.626885
0.412012	1.625446
0.412109	1.624139
0.412207	1.623038
0.412305	1.622214
0.412402	1.621777
0.412500	1.621911
0.412598	1.622631
0.412695	1.624136
0.412793	1.625915
0.412891	1.628299
0.412988	1.630856
0.413086	1.633410
0.413184	1.635880
0.413281	1.637983
0.413379	1.639810
0.413477	1.640780
0.413574	1.641309
0.413672	1.641194
0.413770	1.640364
0.413867	1.638904
0.413965	1.637038
0.414062	1.634745
0.414160	1.631984
0.414258	1.629155
0.414355	1.626721
0.414453	1.624404
0.414551	1.622339
0.414648	1.620696
0.414746	1.619463
0.414844	1.619083
0.414941	1.619552
0.415039	1.620834
0.415137	1.622820
0.415234	1.625423
0.415332	1.628253
0.415430	1.631237
0.415527	1.634063
0.415625	1.636505
0.415723	1.638343
0.415820	1.639435
0.415918	1.639938
0.416016	1.639800
0.416113	1.639367
0.416211	1.638797
0.416309	1.637631
0.416406	1.635272
0.416504	1.632395
0.416602	1.629689
0.416699	1.627404
0.416797	1.625357
0.416895	1.623510
0.416992	1.622007
0.417090	1.621121
0.417187	1.620931
0.417285	1.621443
0.417383	1.622586
0.417480	1.624349
0.417578	1.626613
0.417676	1.629376
0.417773	1.632275
0.417871	1.635034
0.417969	1.637515
0.418066	1.639439
0.418164	1.640559
0.418262	1.641044
0.418359	1.641062
0.418457	1.640818
0.418555	1.640059
0.418652	1.638499
0.418750	1.636518
0.418848	1.634949
0.418945	1.633021
0.419043	1.630314
0.419141	1.627552
0.419238	1.624956
0.419336	1.622860
0.419434	1.621089
0.419531	1.620008
0.419629	1.619739
0.419727	1.620185
0.419824	1.621407
0.419922	1.623314
0.420020	1.625736
0.420117	1.628436
0.420215	1.631084
0.420312	1.633581
0.420410	1.635619
0.420508	1.637104
0.420605	1.637960
0.420703	1.638272
0.420801	1.637923
0.420898	1.636990
0.420996	1.635430
0.421094	1.633388
0.421191	1.631395
0.421289	1.629397
0.421387	1.627348
0.421484	1.625388
0.421582	1.623433
0.421680	1.621905
0.421777	1.620760
0.421875	1.620319
0.421973	1.620477
0.422070	1.621460
0.422168	1.622936
0.422266	1.625087
0.422363	1.627546
0.422461	1.630205
0.422559	1.632916
0.422656	1.635611
0.422754	1.637895
0.422852	1.639719
0.422949	1.640871
0.423047	1.641089
0.423145	1.640291
0.423242	1.638786
0.423340	1.636995
0.423437	1.635242
0.423535	1.633171
0.423633	1.630943
0.423730	1.628818
0.423828	1.626774
0.423926	1.624904
0.424023	1.623402
0.424121	1.622246
0.424219	1.621716
0.424316	1.621728
0.424414	1.622296
0.424512	1.623273
0.424609	1.624568
0.424707	1.626224
0.424805	1.628203
0.424902	1.630319
0.425000	1.632616
0.425098	1.635079
0.425195	1.637261
0.425293	1.639104
0.425391	1.640404
0.425488	1.640976
0.425586	1.641148
0.425684	1.640640
0.425781	1.639269
0.425879	1.637336
0.425977	1.634969
0.426074	1.632514
0.426172	1.629802
0.426270	1.627010
0.426367	1.624078
0.426465	1.621689
0.426562	1.620160
0.426660	1.619582
0.426758	1.619684
0.426855	1.620662
0.426953	1.622362
0.427051	1.624467
0.427148	1.627016
0.427246	1.629747
0.427344	1.632544
0.427441	1.635185
0.427539	1.637456
0.427637	1.639317
0.427734	1.640603
0.427832	1.640958
0.427930	1.640282
0.428027	1.638800
0.428125	1.637014
0.428223	1.635052
0.428320	1.632795
0.428418	1.630662
0.428516	1.628493
0.428613	1.626454
0.428711	1.624527
0.428809	1.622809
0.428906	1.621446
0.429004	1.620693
0.429102	1.620456
0.429199	1.620998
0.429297	1.622212
0.429395	1.624207
0.429492	1.626630
0.429590	1.629310
0.429687	1.632228
0.429785	1.634884
0.429883	1.637247
0.429980	1.638863
0.430078	1.639843
0.430176	1.639851
0.430273	1.639262
0.430371	1.638239
0.430469	1.637493
0.430566	1.636801
0.430664	1.636134
0.430762	1.635024
0.430859	1.633161
0.430957	1.631062
0.431055	1.628899
0.431152	1.626839
0.431250	1.624746
0.431348	1.622061
0.431445	1.620183
0.431543	1.619284
0.431641	1.619383
0.431738	1.620477
0.431836	1.622319
0.431934	1.624798
0.432031	1.627702
0.432129	1.630858
0.432227	1.633900
0.432324	1.636610
0.432422	1.638459
0.432520	1.639484
0.432617	1.639629
0.432715	1.639039
0.432812	1.638046
0.432910	1.636647
0.433008	1.634993
0.433105	1.633088
0.433203	1.630721
0.433301	1.628021
0.433398	1.625495
0.433496	1.623386
0.433594	1.621761
0.433691	1.620606
0.433789	1.620048
0.433887	1.620082
0.433984	1.620701
0.434082	1.621968
0.434180	1.623744
0.434277	1.625973
0.434375	1.628611
0.434473	1.631478
0.434570	1.634387
0.434668	1.636949
0.434766	1.639265
0.434863	1.640821
0.434961	1.641665
0.435059	1.641445
0.435156	1.640628
0.435254	1.639198
0.435352	1.637210
0.435449	1.635312
0.435547	1.633340
0.435645	1.631163
0.435742	1.629132
0.435840	1.627299
0.435937	1.625777
0.436035	1.624685
0.436133	1.623694
0.436230	1.623156
0.436328	1.622840
0.436426	1.622832
0.436523	1.623380
0.436621	1.624346
0.436719	1.625740
0.436816	1.627649
0.436914	1.629841
0.437012	1.632167
0.437109	1.634421
0.437207	1.636446
0.437305	1.637984
0.437402	1.639113
0.437500	1.639515
0.437598	1.639135
0.437695	1.637943
0.437793	1.636149
0.437891	1.634242
0.437988	1.632248
0.438086	1.630205
0.438184	1.628125
0.438281	1.626034
0.438379	1.624211
0.438477	1.622570
0.438574	1.621487
0.438672	1.620846
0.438770	1.620822
0.438867	1.621561
0.438965	1.622899
0.439062	1.624751
0.439160	1.627113
0.439258	1.629639
0.439355	1.632418
0.439453	1.635019
0.439551	1.637407
0.439648	1.639357
0.439746	1.640840
0.439844	1.641811
0.439941	1.642062
0.440039	1.641769
0.440137	1.640640
0.440234	1.639159
0.440332	1.637604
0.440430	1.635636
0.440527	1.633041
0.440625	1.629621
0.440723	1.626365
0.440820	1.623620
0.440918	1.621568
0.441016	1.620162
0.441113	1.619523
0.441211	1.619536
0.441309	1.620451
0.441406	1.621884
0.441504	1.623880
0.441602	1.626270
0.441699	1.628868
0.441797	1.631509
0.441895	1.634036
0.441992	1.636237
0.442090	1.637951
0.442187	1.638972
0.442285	1.639214
0.442383	1.638584
0.442480	1.637212
0.442578	1.635688
0.442676	1.634129
0.442773	1.632532
0.442871	1.630865
0.442969	1.629050
0.443066	1.627037
0.443164	1.625191
0.443262	1.623419
0.443359	1.622073
0.443457	1.621143
0.443555	1.620830
0.443652	1.621114
0.443750	1.622198
0.443848	1.623810
0.443945	1.625999
0.444043	1.628581
0.444141	1.631453
0.444238	1.634434
0.444336	1.637169
0.444434	1.639694
0.444531	1.641484
0.444629	1.642286
0.444727	1.642087
0.444824	1.641034
0.444922	1.639568
0.445020	1.637663
0.445117	1.635342
0.445215	1.632997
0.445312	1.630901
0.445410	1.629185
0.445508	1.627329
0.445605	1.625767
0.445703	1.623982
0.445801	1.622411
0.445898	1.621152
0.445996	1.620659
0.446094	1.621008
0.446191	1.622257
0.446289	1.624216
0.446387	1.626622
0.446484	1.629355
0.446582	1.631951
0.446680	1.634399
0.446777	1.636527
0.446875	1.638261
0.446973	1.639392
0.447070	1.639846
0.447168	1.639323
0.447266	1.637967
0.447363	1.635894
0.447461	1.633620
0.447559	1.631584
0.447656	1.629416
0.447754	1.627484
0.447852	1.625488
0.447949	1.623872
0.448047	1.622483
0.448145	1.621725
0.448242	1.621369
0.448340	1.621438
0.448437	1.622208
0.448535	1.623525
0.448633	1.625373
0.448730	1.627892
0.448828	1.630785
0.448926	1.633878
0.449023	1.636585
0.449121	1.638664
0.449219	1.639877
0.449316	1.640618
0.449414	1.641077
0.449512	1.641073
0.449609	1.640174
0.449707	1.638656
0.449805	1.637012
0.449902	1.637707
0.450000	1.637377
0.450098	1.632006
0.450195	1.627407
0.450293	1.623995
0.450391	1.621442
0.450488	1.619616
0.450586	1.618861
0.450684	1.619011
0.450781	1.619807
0.450879	1.621133
0.450977	1.623024
0.451074	1.625416
0.451172	1.628119
0.451270	1.631256
0.451367	1.634349
0.451465	1.637527
0.451562	1.640348
0.451660	1.642146
0.451758	1.642747
0.451855	1.642457
0.451953	1.641112
0.452051	1.638637
0.452148	1.636176
0.452246	1.634561
0.452344	1.633591
0.452441	1.633322
0.452539	1.631430
0.452637	1.628228
0.452734	1.625570
0.452832	1.623242
0.452930	1.621656
0.453027	1.620717
0.453125	1.620713
0.453223	1.621298
0.453320	1.622651
0.453418	1.624601
0.453516	1.626987
0.453613	1.629647
0.453711	1.632432
0.453809	1.634991
0.453906	1.637101
0.454004	1.638767
0.454102	1.639508
0.454199	1.639295
0.454297	1.638264
0.454395	1.636528
0.454492	1.634579
0.454590	1.632074
0.454687	1.629499
0.454785	1.627098
0.454883	1.624973
0.454980	1.623191
0.455078	1.621747
0.455176	1.620710
0.455273	1.620185
0.455371	1.620163
0.455469	1.620778
0.455566	1.621999
0.455664	1.623790
0.455762	1.625944
0.455859	1.628438
0.455957	1.631163
0.456055	1.633870
0.456152	1.636415
0.456250	1.638640
0.456348	1.640568
0.456445	1.641876
0.456543	1.642649
0.456641	1.642749
0.456738	1.641445
0.456836	1.638876
0.456934	1.636001
0.457031	1.633209
0.457129	1.630745
0.457227	1.628903
0.457324	1.626844
0.457422	1.623942
0.457520	1.621012
0.457617	1.619323
0.457715	1.618574
0.457812	1.618444
0.457910	1.619131
0.458008	1.620495
0.458105	1.622530
0.458203	1.625065
0.458301	1.628009
0.458398	1.631079
0.458496	1.634110
0.458594	1.636875
0.458691	1.639137
0.458789	1.640647
0.458887	1.641541
0.458984	1.641663
0.459082	1.640979
0.459180	1.639588
0.459277	1.637818
0.459375	1.635603
0.459473	1.633000
0.459570	1.630208
0.459668	1.627649
0.459766	1.625553
0.459863	1.623696
0.459961	1.622295
0.460059	1.621353
0.460156	1.620802
0.460254	1.620919
0.460352	1.621567
0.460449	1.622941
0.460547	1.624652
0.460645	1.626900
0.460742	1.629239
0.460840	1.631600
0.460937	1.633858
0.461035	1.635672
0.461133	1.637039
0.461230	1.637826
0.461328	1.638526
0.461426	1.638977
0.461523	1.639106
0.461621	1.638628
0.461719	1.637714
0.461816	1.636279
0.461914	1.634716
0.462012	1.632413
0.462109	1.629518
0.462207	1.627060
0.462305	1.625063
0.462402	1.623623
0.462500	1.622603
0.462598	1.622295
0.462695	1.622491
0.462793	1.622982
0.462891	1.624277
0.462988	1.626009
0.463086	1.628235
0.463184	1.630678
0.463281	1.633046
0.463379	1.635145
0.463477	1.636607
0.463574	1.637377
0.463672	1.637533
0.463770	1.637393
0.463867	1.637435
0.463965	1.637571
0.464062	1.637632
0.464160	1.636946
0.464258	1.635730
0.464355	1.634492
0.464453	1.632014
0.464551	1.628341
0.464648	1.625220
0.464746	1.622902
0.464844	1.621279
0.464941	1.620353
0.465039	1.619959
0.465137	1.620270
0.465234	1.621100
0.465332	1.622766
0.465430	1.624875
0.465527	1.627267
0.465625	1.629932
0.465723	1.632394
0.465820	1.634620
0.465918	1.636519
0.466016	1.637757
0.466113	1.638485
0.466211	1.638708
0.466309	1.638676
0.466406	1.638536
0.466504	1.637857
0.466602	1.636799
0.466699	1.635091
0.466797	1.632928
0.466895	1.630501
0.466992	1.627860
0.467090	1.625247
0.467187	1.623025
0.467285	1.621316
0.467383	1.620171
0.467480	1.619757
0.467578	1.620097
0.467676	1.621252
0.467773	1.622972
0.467871	1.625207
0.467969	1.627872
0.468066	1.630573
0.468164	1.633155
0.468262	1.635526
0.468359	1.637436
0.468457	1.638678
0.468555	1.639038
0.468652	1.638497
0.468750	1.637255
0.468848	1.635825
0.468945	1.634374
0.469043	1.632713
0.469141	1.631032
0.469238	1.629283
0.469336	1.627685
0.469434	1.626072
0.469531	1.624427
0.469629	1.622789
0.469727	1.621662
0.469824	1.621183
0.469922	1.621359
0.470020	1.622196
0.470117	1.623599
0.470215	1.625448
0.470312	1.627617
0.470410	1.629873
0.470508	1.632206
0.470605	1.634293
0.470703	1.636416
0.470801	1.637976
0.470898	1.639217
0.470996	1.640039
0.471094	1.640545
0.471191	1.640500
0.471289	1.640038
0.471387	1.639010
0.471484	1.637326
0.471582	1.634592
0.471680	1.631238
0.471777	1.627964
0.471875	1.625096
0.471973	1.622708
0.472070	1.620765
0.472168	1.619767
0.472266	1.619569
0.472363	1.620056
0.472461	1.621279
0.472559	1.622971
0.472656	1.625112
0.472754	1.627380
0.472852	1.629917
0.472949	1.632408
0.473047	1.634804
0.473145	1.637106
0.473242	1.638935
0.473340	1.640430
0.473437	1.641080
0.473535	1.641012
0.473633	1.640186
0.473730	1.638652
0.473828	1.636504
0.473926	1.633931
0.474023	1.631025
0.474121	1.627898
0.474219	1.624670
0.474316	1.621863
0.474414	1.619916
0.474512	1.618850
0.474609	1.618879
0.474707	1.619740
0.474805	1.621343
0.474902	1.623638
0.475000	1.626246
0.475098	1.629070
0.475195	1.631930
0.475293	1.634617
0.475391	1.637006
0.475488	1.638870
0.475586	1.640037
0.475684	1.640251
0.475781	1.639609
0.475879	1.638349
0.475977	1.637023
0.476074	1.635435
0.476172	1.633398
0.476270	1.630436
0.476367	1.626801
0.476465	1.624332
0.476562	1.622689
0.476660	1.621399
0.476758	1.620350
0.476855	1.619934
0.476953	1.619904
0.477051	1.620779
0.477148	1.622185
0.477246	1.624187
0.477344	1.626721
0.477441	1.629543
0.477539	1.632536
0.477637	1.635350
0.477734	1.637697
0.477832	1.639260
0.477930	1.639810
0.478027	1.639425
0.478125	1.638693
0.478223	1.637594
0.478320	1.636482
0.478418	1.635118
0.478516	1.633673
0.478613	1.631898
0.478711	1.629830
0.478809	1.627853
0.478906	1.625751
0.479004	1.623919
0.479102	1.622644
0.479199	1.621653
0.479297	1.621154
0.479395	1.621288
0.479492	1.622109
0.479590	1.623385
0.479687	1.625232
0.479785	1.627422
0.479883	1.630023
0.479980	1.632699
0.480078	1.635332
0.480176	1.637640
0.480273	1.639608
0.480371	1.640892
0.480469	1.641502
0.480566	1.641525
0.480664	1.640783
0.480762	1.640013
0.480859	1.639023
0.480957	1.638047
0.481055	1.636103
0.481152	1.631862
0.481250	1.626082
0.481348	1.621891
0.481445	1.619167
0.481543	1.617641
0.481641	1.617023
0.481738	1.617220
0.481836	1.618350
0.481934	1.620121
0.482031	1.622656
0.482129	1.625476
0.482227	1.628593
0.482324	1.631739
0.482422	1.634758
0.482520	1.637339
0.482617	1.639438
0.482715	1.640597
0.482812	1.640982
0.482910	1.640856
0.483008	1.640167
0.483105	1.639072
0.483203	1.637234
0.483301	1.634604
0.483398	1.631672
0.483496	1.628859
0.483594	1.626079
0.483691	1.623890
0.483789	1.622227
0.483887	1.621146
0.483984	1.620518
0.484082	1.620515
0.484180	1.621181
0.484277	1.622373
0.484375	1.624083
0.484473	1.626265
0.484570	1.628768
0.484668	1.631249
0.484766	1.633872
0.484863	1.636148
0.484961	1.638045
0.485059	1.639675
0.485156	1.640718
0.485254	1.641176
0.485352	1.640935
0.485449	1.640199
0.485547	1.638910
0.485645	1.636957
0.485742	1.634669
0.485840	1.631789
0.485937	1.628847
0.486035	1.625909
0.486133	1.623074
0.486230	1.620912
0.486328	1.619441
0.486426	1.618919
0.486523	1.619242
0.486621	1.620162
0.486719	1.621759
0.486816	1.623769
0.486914	1.626187
0.487012	1.628903
0.487109	1.631725
0.487207	1.634539
0.487305	1.637229
0.487402	1.639426
0.487500	1.640973
0.487598	1.642031
0.487695	1.643197
0.487793	1.642407
0.487891	1.639182
0.487988	1.637588
0.488086	1.635968
0.488184	1.633509
0.488281	1.630706
0.488379	1.627802
0.488477	1.625144
0.488574	1.622813
0.488672	1.621090
0.488770	1.619832
0.488867	1.619503
0.488965	1.619669
0.489062	1.620706
0.489160	1.622372
0.489258	1.624531
0.489355	1.627200
0.489453	1.629821
0.489551	1.632453
0.489648	1.634675
0.489746	1.636692
0.489844	1.637843
0.489941	1.638442
0.490039	1.638463
0.490137	1.637798
0.490234	1.636832
0.490332	1.635721
0.490430	1.634205
0.490527	1.632703
0.490625	1.630969
0.490723	1.629069
0.490820	1.627074
0.490918	1.625184
0.491016	1.623500
0.491113	1.622169
0.491211	1.621406
0.491309	1.621203
0.491406	1.621756
0.491504	1.622913
0.491602	1.624621
0.491699	1.626878
0.491797	1.629572
0.491895	1.632299
0.491992	1.635133
0.492090	1.637473
0.492187	1.639324
0.492285	1.640353
0.492383	1.640537
0.492480	1.639853
0.492578	1.638892
0.492676	1.637886
0.492773	1.636740
0.492871	1.635234
0.492969	1.633019
0.493066	1.630163
0.493164	1.627411
0.493262	1.625235
0.493359	1.623426
0.493457	1.622036
0.493555	1.621242
0.493652	1.620828
0.493750	1.621147
0.493848	1.621872
0.493945	1.623155
0.494043	1.624752
0.494141	1.626747
0.494238	1.629003
0.494336	1.631348
0.494434	1.634026
0.494531	1.636680
0.494629	1.639108
0.494727	1.641113
0.494824	1.642094
0.494922	1.641892
0.495020	1.640862
0.495117	1.639443
0.495215	1.637275
0.495312	1.634452
0.495410	1.631457
0.495508	1.628659
0.495605	1.626170
0.495703	1.623986
0.495801	1.622109
0.495898	1.620808
0.495996	1.619977
0.496094	1.619990
0.496191	1.620671
0.496289	1.622109
0.496387	1.624168
0.496484	1.626600
0.496582	1.629258
0.496680	1.631777
0.496777	1.634219
0.496875	1.636157
0.496973	1.637586
0.497070	1.638329
0.497168	1.638457
0.497266	1.637975
0.497363	1.637014
0.497461	1.635757
0.497559	1.634248
0.497656	1.632467
0.497754	1.630542
0.497852	1.628701
0.497949	1.626752
0.498047	1.624847
0.498145	1.623105
0.498242	1.621804
0.498340	1.620947
0.498437	1.620587
0.498535	1.620943
0.498633	1.621901
0.498730	1.623633
0.498828	1.625825
0.498926	1.628313
0.499023	1.631163
0.499121	1.633917
0.499219	1.636661
0.499316	1.639143
0.499414	1.641136
0.499512	1.642398
0.499609	1.642878
0.499707	1.642473
0.499805	1.641347
0.499902	1.639664
0.500000	1.637396
0.500098	1.634603
0.500195	1.631537
0.500293	1.628531
0.500391	1.625664
0.500488	1.623203
0.500586	1.621594
0.500684	1.620775
0.500781	1.620743
0.500879	1.621199
0.500977	1.622103
0.501074	1.623403
0.501172	1.624951
0.501270	1.627029
0.501367	1.629106
0.501465	1.631423
0.501562	1.633620
0.501660	1.635611
0.501758	1.637106
0.501855	1.638269
0.501953	1.639073
0.502051	1.639428
0.502148	1.639363
0.502246	1.638581
0.502344	1.636877
0.502441	1.634455
0.502539	1.632137
0.502637	1.630041
0.502734	1.627920
0.502832	1.626110
0.502930	1.624578
0.503027	1.623217
0.503125	1.622312
0.503223	1.621817
0.503320	1.621810
0.503418	1.622476
0.503516	1.623603
0.503613	1.625172
0.503711	1.627261
0.503809	1.629677
0.503906	1.632128
0.504004	1.634764
0.504102	1.637432
0.504199	1.639534
0.504297	1.640920
0.504395	1.641197
0.504492	1.640585
0.504590	1.639642
0.504687	1.638317
0.504785	1.636748
0.504883	1.634628
0.504980	1.632197
0.505078	1.629670
0.505176	1.627113
0.505273	1.624798
0.505371	1.622826
0.505469	1.621339
0.505566	1.620688
0.505664	1.620596
0.505762	1.621227
0.505859	1.622533
0.505957	1.624469
0.506055	1.626712
0.506152	1.629189
0.506250	1.631862
0.506348	1.634396
0.506445	1.636801
0.506543	1.638888
0.506641	1.640377
0.506738	1.641381
0.506836	1.641875
0.506934	1.641405
0.507031	1.640014
0.507129	1.637710
0.507227	1.635361
0.507324	1.633024
0.507422	1.630711
0.507520	1.628277
0.507617	1.625856
0.507715	1.623595
0.507812	1.621722
0.507910	1.620384
0.508008	1.619774
0.508105	1.620031
0.508203	1.621022
0.508301	1.622696
0.508398	1.624938
0.508496	1.627449
0.508594	1.630121
0.508691	1.632526
0.508789	1.634720
0.508887	1.636493
0.508984	1.637675
0.509082	1.638288
0.509180	1.638082
0.509277	1.637754
0.509375	1.637145
0.509473	1.636370
0.509570	1.635066
0.509668	1.633253
0.509766	1.630986
0.509863	1.628313
0.509961	1.625736
0.510059	1.623547
0.510156	1.621838
0.510254	1.620804
0.510352	1.620291
0.510449	1.620620
0.510547	1.621573
0.510645	1.623133
0.510742	1.625124
0.510840	1.627612
0.510937	1.630266
0.511035	1.633072
0.511133	1.635946
0.511230	1.638431
0.511328	1.640462
0.511426	1.641755
0.511523	1.642020
0.511621	1.641489
0.511719	1.640415
0.511816	1.639419
0.511914	1.638130
0.512012	1.636430
0.512109	1.634094
0.512207	1.631695
0.512305	1.629279
0.512402	1.626962
0.512500	1.624886
0.512598	1.623359
0.512695	1.622365
0.512793	1.622179
0.512891	1.622597
0.512988	1.623618
0.513086	1.625235
0.513184	1.627093
0.513281	1.629173
0.513379	1.631382
0.513477	1.633448
0.513574	1.635174
0.513672	1.636611
0.513770	1.637744
0.513867	1.638488
0.513965	1.639222
0.514062	1.640278
0.514160	1.641720
0.514258	1.642920
0.514355	1.638999
0.514453	1.633262
0.514551	1.629610
0.514648	1.626583
0.514746	1.624231
0.514844	1.622163
0.514941	1.620886
0.515039	1.620499
0.515137	1.621100
0.515234	1.622292
0.515332	1.624128
0.515430	1.626438
0.515527	1.629084
0.515625	1.631739
0.515723	1.634445
0.515820	1.636775
0.515918	1.638517
0.516016	1.639503
0.516113	1.639789
0.516211	1.639645
0.516309	1.639083
0.516406	1.638208
0.516504	1.637148
0.516602	1.635649
0.516699	1.633908
0.516797	1.631847
0.516895	1.629468
0.516992	1.627166
0.517090	1.625272
0.517187	1.623571
0.517285	1.622334
0.517383	1.621474
0.517480	1.621179
0.517578	1.621440
0.517676	1.622345
0.517773	1.623901
0.517871	1.626177
0.517969	1.628749
0.518066	1.631732
0.518164	1.634603
0.518262	1.637214
0.518359	1.639242
0.518457	1.640693
0.518555	1.641272
0.518652	1.641245
0.518750	1.640466
0.518848	1.638825
0.518945	1.636680
0.519043	1.634243
0.519141	1.631842
0.519238	1.629603
0.519336	1.627364
0.519434	1.625017
0.519531	1.622906
0.519629	1.621036
0.519727	1.619568
0.519824	1.618818
0.519922	1.618828
0.520020	1.619667
0.520117	1.621284
0.520215	1.623215
0.520312	1.625682
0.520410	1.628375
0.520508	1.630983
0.520605	1.633297
0.520703	1.635342
0.520801	1.636976
0.520898	1.638088
0.520996	1.638527
0.521094	1.638434
0.521191	1.637658
0.521289	1.636199
0.521387	1.634208
0.521484	1.631916
0.521582	1.629588
0.521680	1.627326
0.521777	1.625336
0.521875	1.623713
0.521973	1.622626
0.522070	1.621902
0.522168	1.621642
0.522266	1.621722
0.522363	1.622255
0.522461	1.623229
0.522559	1.624631
0.522656	1.626668
0.522754	1.628917
0.522852	1.631464
0.522949	1.633917
0.523047	1.636318
0.523145	1.638451
0.523242	1.640027
0.523340	1.641032
0.523437	1.641078
0.523535	1.640090
0.523633	1.638668
0.523730	1.637046
0.523828	1.635470
0.523926	1.633347
0.524023	1.630472
0.524121	1.626828
0.524219	1.623608
0.524316	1.621099
0.524414	1.619350
0.524512	1.618350
0.524609	1.618269
0.524707	1.618721
0.524805	1.619790
0.524902	1.621535
0.525000	1.623565
0.525098	1.626069
0.525195	1.628613
0.525293	1.631149
0.525391	1.633606
0.525488	1.635896
0.525586	1.637915
0.525684	1.639525
0.525781	1.640819
0.525879	1.641355
0.525977	1.641251
0.526074	1.640587
0.526172	1.639578
0.526270	1.638234
0.526367	1.636618
0.526465	1.634617
0.526562	1.632112
0.526660	1.629377
0.526758	1.626442
0.526855	1.623583
0.526953	1.621280
0.527051	1.619870
0.527148	1.619293
0.527246	1.619472
0.527344	1.620170
0.527441	1.621551
0.527539	1.623581
0.527637	1.626092
0.527734	1.628881
0.527832	1.631920
0.527930	1.634758
0.528027	1.637270
0.528125	1.639392
0.528223	1.640682
0.528320	1.641332
0.528418	1.640917
0.528516	1.639847
0.528613	1.637673
0.528711	1.634878
0.528809	1.631863
0.528906	1.629451
0.529004	1.627573
0.529102	1.625745
0.529199	1.623971
0.529297	1.622442
0.529395	1.621260
0.529492	1.620740
0.529590	1.620790
0.529687	1.621739
0.529785	1.623279
0.529883	1.625366
0.529980	1.627849
0.530078	1.630428
0.530176	1.633115
0.530273	1.635467
0.530371	1.637307
0.530469	1.638617
0.530566	1.639373
0.530664	1.639554
0.530762	1.639234
0.530859	1.638510
0.530957	1.637670
0.531055	1.636587
0.531152	1.635169
0.531250	1.632987
0.531348	1.630341
0.531445	1.627616
0.531543	1.625030
0.531641	1.622685
0.531738	1.620864
0.531836	1.619655
0.531934	1.619205
0.532031	1.619509
0.532129	1.620559
0.532227	1.622389
0.532324	1.624793
0.532422	1.627488
0.532520	1.630252
0.532617	1.633254
0.532715	1.635930
0.532812	1.638466
0.532910	1.640520
0.533008	1.641799
0.533105	1.642458
0.533203	1.641953
0.533301	1.640619
0.533398	1.638326
0.533496	1.635722
0.533594	1.632972
0.533691	1.630453
0.533789	1.628394
0.533887	1.626487
0.533984	1.624596
0.534082	1.622542
0.534180	1.620859
0.534277	1.619716
0.534375	1.619562
0.534473	1.620300
0.534570	1.621824
0.534668	1.624036
0.534766	1.626600
0.534863	1.629542
0.534961	1.632365
0.535059	1.635237
0.535156	1.637578
0.535254	1.639382
0.535352	1.640519
0.535449	1.640999
0.535547	1.640877
0.535645	1.639471
0.535742	1.636502
0.535840	1.633469
0.535937	1.631364
0.536035	1.629060
0.536133	1.626335
0.536230	1.623767
0.536328	1.621592
0.536426	1.620083
0.536523	1.619100
0.536621	1.618743
0.536719	1.619068
0.536816	1.620109
0.536914	1.621686
0.537012	1.623925
0.537109	1.626411
0.537207	1.629286
0.537305	1.632076
0.537402	1.634693
0.537500	1.636774
0.537598	1.638246
0.537695	1.639192
0.537793	1.639788
0.537891	1.639879
0.537988	1.639423
0.538086	1.638452
0.538184	1.637181
0.538281	1.635519
0.538379	1.633406
0.538477	1.631093
0.538574	1.628392
0.538672	1.625724
0.538770	1.623280
0.538867	1.621125
0.538965	1.619886
0.539062	1.619336
0.539160	1.619564
0.539258	1.620544
0.539355	1.622076
0.539453	1.624014
0.539551	1.626329
0.539648	1.628814
0.539746	1.631487
0.539844	1.633977
0.539941	1.636343
0.540039	1.638291
0.540137	1.639538
0.540234	1.639994
0.540332	1.639897
0.540430	1.639109
0.540527	1.637811
0.540625	1.636164
0.540723	1.634240
0.540820	1.632195
0.540918	1.629795
0.541016	1.627378
0.541113	1.625087
0.541211	1.623054
0.541309	1.621381
0.541406	1.620452
0.541504	1.620137
0.541602	1.620518
0.541699	1.621572
0.541797	1.623267
0.541895	1.625500
0.541992	1.628090
0.542090	1.630810
0.542187	1.633554
0.542285	1.636075
0.542383	1.637928
0.542480	1.639224
0.542578	1.639897
0.542676	1.640170
0.542773	1.639616
0.542871	1.638798
0.542969	1.637382
0.543066	1.635141
0.543164	1.632525
0.543262	1.629906
0.543359	1.627602
0.543457	1.625460
0.543555	1.623756
0.543652	1.622562
0.543750	1.621800
0.543848	1.621620
0.543945	1.621838
0.544043	1.622500
0.544141	1.623469
0.544238	1.624912
0.544336	1.626503
0.544434	1.628469
0.544531	1.630554
0.544629	1.632917
0.544727	1.635300
0.544824	1.637544
0.544922	1.639417
0.545020	1.640732
0.545117	1.641290
0.545215	1.640776
0.545312	1.639199
0.545410	1.637344
0.545508	1.635346
0.545605	1.633210
0.545703	1.631071
0.545801	1.628723
0.545898	1.626666
0.545996	1.624672
0.546094	1.623088
0.546191	1.621911
0.546289	1.621396
0.546387	1.621559
0.546484	1.622468
0.546582	1.623985
0.546680	1.626136
0.546777	1.628654
0.546875	1.631228
0.546973	1.633858
0.547070	1.635969
0.547168	1.637896
0.547266	1.639062
0.547363	1.639601
0.547461	1.639487
0.547559	1.638659
0.547656	1.637627
0.547754	1.636282
0.547852	1.634390
0.547949	1.632051
0.548047	1.629380
0.548145	1.626705
0.548242	1.624234
0.548340	1.622163
0.548437	1.620922
0.548535	1.620293
0.548633	1.620344
0.548730	1.620988
0.548828	1.622003
0.548926	1.623566
0.549023	1.625478
0.549121	1.627633
0.549219	1.629830
0.549316	1.632105
0.549414	1.634125
0.549512	1.635961
0.549609	1.637418
0.549707	1.638401
0.549805	1.638859
0.549902	1.639025
0.550000	1.638599
0.550098	1.637697
0.550195	1.636354
0.550293	1.634767
0.550391	1.633322
0.550488	1.631558
0.550586	1.629379
0.550684	1.626953
0.550781	1.625083
0.550879	1.624143
0.550977	1.623638
0.551074	1.623040
0.551172	1.622615
0.551270	1.622525
0.551367	1.623357
0.551465	1.625100
0.551562	1.627304
0.551660	1.629856
0.551758	1.632406
0.551855	1.635025
0.551953	1.637299
0.552051	1.639172
0.552148	1.640644
0.552246	1.641287
0.552344	1.640749
0.552441	1.639088
0.552539	1.635761
0.552637	1.632801
0.552734	1.630882
0.552832	1.628881
0.552930	1.626481
0.553027	1.624338
0.553125	1.622597
0.553223	1.621509
0.553320	1.621061
0.553418	1.621190
0.553516	1.621996
0.553613	1.623430
0.553711	1.625434
0.553809	1.627814
0.553906	1.630375
0.554004	1.632959
0.554102	1.635127
0.554199	1.636607
0.554297	1.637432
0.554395	1.637532
0.554492	1.637816
0.554590	1.638249
0.554687	1.638817
0.554785	1.638793
0.554883	1.637952
0.554980	1.636229
0.555078	1.634154
0.555176	1.631653
0.555273	1.628798
0.555371	1.626018
0.555469	1.623445
0.555566	1.621503
0.555664	1.620317
0.555762	1.619707
0.555859	1.619964
0.555957	1.620968
0.556055	1.622698
0.556152	1.624886
0.556250	1.627608
0.556348	1.630419
0.556445	1.633573
0.556543	1.636425
0.556641	1.639056
0.556738	1.640996
0.556836	1.642102
0.556934	1.642247
0.557031	1.641483
0.557129	1.640007
0.557227	1.638100
0.557324	1.635808
0.557422	1.633355
0.557520	1.630703
0.557617	1.627840
0.557715	1.625037
0.557812	1.622725
0.557910	1.620851
0.558008	1.619588
0.558105	1.618949
0.558203	1.619123
0.558301	1.620023
0.558398	1.621764
0.558496	1.623873
0.558594	1.626484
0.558691	1.629187
0.558789	1.631890
0.558887	1.634310
0.558984	1.636359
0.559082	1.637895
0.559180	1.638833
0.559277	1.639273
0.559375	1.639111
0.559473	1.638398
0.559570	1.636807
0.559668	1.634955
0.559766	1.633027
0.559863	1.631148
0.559961	1.629078
0.560059	1.627003
0.560156	1.625164
0.560254	1.623452
0.560352	1.622412
0.560449	1.621628
0.560547	1.621579
0.560645	1.621931
0.560742	1.622981
0.560840	1.624548
0.560937	1.626588
0.561035	1.628911
0.561133	1.631236
0.561230	1.633548
0.561328	1.635541
0.561426	1.637181
0.561523	1.638440
0.561621	1.639404
0.561719	1.639775
0.561816	1.639571
0.561914	1.639160
0.562012	1.638543
0.562109	1.637614
0.562207	1.636420
0.562305	1.634784
0.562402	1.632508
0.562500	1.629332
0.562598	1.624038
0.562695	1.619545
0.562793	1.616807
0.562891	1.615695
0.562988	1.615895
0.563086	1.617056
0.563184	1.619119
0.563281	1.621806
0.563379	1.624994
0.563477	1.628532
0.563574	1.632042
0.563672	1.635523
0.563770	1.638441
0.563867	1.640488
0.563965	1.641795
0.564062	1.642277
0.564160	1.642005
0.564258	1.639742
0.564355	1.635697
0.564453	1.632249
0.564551	1.629957
0.564648	1.627992
0.564746	1.626088
0.564844	1.623856
0.564941	1.621882
0.565039	1.620444
0.565137	1.619405
0.565234	1.619059
0.565332	1.619311
0.565430	1.620211
0.565527	1.621837
0.565625	1.623836
0.565723	1.626355
0.565820	1.629249
0.565918	1.632166
0.566016	1.634921
0.566113	1.637369
0.566211	1.639031
0.566309	1.640178
0.566406	1.640787
0.566504	1.640898
0.566602	1.640397
0.566699	1.639093
0.566797	1.637458
0.566895	1.635703
0.566992	1.633488
0.567090	1.631298
0.567187	1.628745
0.567285	1.626343
0.567383	1.624017
0.567480	1.621843
0.567578	1.620256
0.567676	1.619350
0.567773	1.619089
0.567871	1.619619
0.567969	1.620844
0.568066	1.622790
0.568164	1.625139
0.568262	1.627837
0.568359	1.630834
0.568457	1.633572
0.568555	1.636052
0.568652	1.637927
0.568750	1.639107
0.568848	1.639569
0.568945	1.639559
0.569043	1.639368
0.569141	1.638942
0.569238	1.638095
0.569336	1.636737
0.569434	1.635279
0.569531	1.633372
0.569629	1.630834
0.569727	1.627979
0.569824	1.625211
0.569922	1.622677
0.570020	1.620936
0.570117	1.619952
0.570215	1.619914
0.570312	1.620612
0.570410	1.622019
0.570508	1.623871
0.570605	1.626186
0.570703	1.628762
0.570801	1.631531
0.570898	1.634282
0.570996	1.636592
0.571094	1.638129
0.571191	1.638780
0.571289	1.638739
0.571387	1.637922
0.571484	1.636727
0.571582	1.635434
0.571680	1.634310
0.571777	1.632959
0.571875	1.631872
0.571973	1.630732
0.572070	1.629618
0.572168	1.628336
0.572266	1.626740
0.572363	1.624984
0.572461	1.623329
0.572559	1.622267
0.572656	1.621901
0.572754	1.622236
0.572852	1.623341
0.572949	1.625000
0.573047	1.627158
0.573145	1.629722
0.573242	1.632183
0.573340	1.634747
0.573437	1.636832
0.573535	1.638476
0.573633	1.639606
0.573730	1.639954
0.573828	1.639760
0.573926	1.638924
0.574023	1.637599
0.574121	1.636148
0.574219	1.634488
0.574316	1.632273
0.574414	1.629800
0.574512	1.627607
0.574609	1.625647
0.574707	1.623964
0.574805	1.622731
0.574902	1.621643
0.575000	1.621099
0.575098	1.621225
0.575195	1.622002
0.575293	1.623662
0.575391	1.625852
0.575488	1.628415
0.575586	1.631411
0.575684	1.634279
0.575781	1.636652
0.575879	1.638262
0.575977	1.638939
0.576074	1.639188
0.576172	1.639221
0.576270	1.639239
0.576367	1.639003
0.576465	1.638239
0.576562	1.636375
0.576660	1.633490
0.576758	1.630020
0.576855	1.626676
0.576953	1.623761
0.577051	1.621625
0.577148	1.620299
0.577246	1.619724
0.577344	1.620078
0.577441	1.621225
0.577539	1.622966
0.577637	1.625246
0.577734	1.627840
0.577832	1.630768
0.577930	1.633632
0.578027	1.636408
0.578125	1.638563
0.578223	1.640399
0.578320	1.641098
0.578418	1.640768
0.578516	1.639681
0.578613	1.638292
0.578711	1.636849
0.578809	1.635105
0.578906	1.633127
0.579004	1.630999
0.579102	1.628803
0.579199	1.626476
0.579297	1.624548
0.579395	1.622997
0.579492	1.621995
0.579590	1.621461
0.579687	1.621681
0.579785	1.622403
0.579883	1.623605
0.579980	1.625394
0.580078	1.627579
0.580176	1.630013
0.580273	1.632461
0.580371	1.634783
0.580469	1.636948
0.580566	1.638512
0.580664	1.639418
0.580762	1.639454
0.580859	1.638797
0.580957	1.638050
0.581055	1.637068
0.581152	1.635661
0.581250	1.634052
0.581348	1.631641
0.581445	1.628937
0.581543	1.626576
0.581641	1.624677
0.581738	1.623202
0.581836	1.622146
0.581934	1.621371
0.582031	1.621239
0.582129	1.621503
0.582227	1.622190
0.582324	1.623461
0.582422	1.625238
0.582520	1.627373
0.582617	1.630045
0.582715	1.632674
0.582812	1.635322
0.582910	1.637693
0.583008	1.639171
0.583105	1.639368
0.583203	1.639051
0.583301	1.638603
0.583398	1.637989
0.583496	1.637022
0.583594	1.635489
0.583691	1.633798
0.583789	1.631859
0.583887	1.630207
0.583984	1.628485
0.584082	1.626711
0.584180	1.624945
0.584277	1.623283
0.584375	1.622101
0.584473	1.621346
0.584570	1.621480
0.584668	1.622181
0.584766	1.623626
0.584863	1.625686
0.584961	1.628097
0.585059	1.630749
0.585156	1.633507
0.585254	1.636139
0.585352	1.638337
0.585449	1.639932
0.585547	1.640890
0.585645	1.640822
0.585742	1.639899
0.585840	1.638546
0.585937	1.636670
0.586035	1.633912
0.586133	1.630996
0.586230	1.628768
0.586328	1.627215
0.586426	1.625991
0.586523	1.624734
0.586621	1.623505
0.586719	1.622714
0.586816	1.622328
0.586914	1.622555
0.587012	1.623593
0.587109	1.625199
0.587207	1.627336
0.587305	1.629854
0.587402	1.632482
0.587500	1.635035
0.587598	1.637040
0.587695	1.638217
0.587793	1.638362
0.587891	1.637853
0.587988	1.637104
0.588086	1.636463
0.588184	1.635883
0.588281	1.635297
0.588379	1.634712
0.588477	1.633905
0.588574	1.632606
0.588672	1.630863
0.588770	1.628753
0.588867	1.626586
0.588965	1.624756
0.589062	1.623275
0.589160	1.622375
0.589258	1.622044
0.589355	1.622434
0.589453	1.623433
0.589551	1.624889
0.589648	1.626956
0.589746	1.629440
0.589844	1.632022
0.589941	1.634775
0.590039	1.637360
0.590137	1.639459
0.590234	1.641028
0.590332	1.641622
0.590430	1.641327
0.590527	1.640325
0.590625	1.638715
0.590723	1.636615
0.590820	1.634420
0.590918	1.632143
0.591016	1.629902
0.591113	1.627427
0.591211	1.625167
0.591309	1.623064
0.591406	1.621346
0.591504	1.620124
0.591602	1.619623
0.591699	1.620026
0.591797	1.621246
0.591895	1.623021
0.591992	1.625280
0.592090	1.627826
0.592187	1.630556
0.592285	1.633220
0.592383	1.635469
0.592480	1.637505
0.592578	1.639076
0.592676	1.640256
0.592773	1.640706
0.592871	1.640524
0.592969	1.639311
0.593066	1.637018
0.593164	1.634188
0.593262	1.631657
0.593359	1.629263
0.593457	1.627086
0.593555	1.624885
0.593652	1.623018
0.593750	1.621476
0.593848	1.620338
0.593945	1.619873
0.594043	1.620200
0.594141	1.621150
0.594238	1.622866
0.594336	1.625064
0.594434	1.627755
0.594531	1.630479
0.594629	1.633163
0.594727	1.635886
0.594824	1.638109
0.594922	1.639783
0.595020	1.640476
0.595117	1.640116
0.595215	1.639212
0.595312	1.637879
0.595410	1.636258
0.595508	1.634537
0.595605	1.632599
0.595703	1.630767
0.595801	1.629028
0.595898	1.627201
0.595996	1.625661
0.596094	1.624244
0.596191	1.622995
0.596289	1.622084
0.596387	1.621648
0.596484	1.621729
0.596582	1.622410
0.596680	1.623714
0.596777	1.625644
0.596875	1.627793
0.596973	1.630468
0.597070	1.633134
0.597168	1.636110
0.597266	1.638337
0.597363	1.640459
0.597461	1.641351
0.597559	1.641672
0.597656	1.640729
0.597754	1.640779
0.597852	1.641188
0.597949	1.646890
0.598047	1.644060
0.598145	1.626399
0.598242	1.626009
0.598340	1.623976
0.598437	1.622619
0.598535	1.621111
0.598633	1.620273
0.598730	1.619742
0.598828	1.620225
0.598926	1.621244
0.599023	1.623350
0.599121	1.625647
0.599219	1.628575
0.599316	1.631511
0.599414	1.634562
0.599512	1.637258
0.599609	1.639652
0.599707	1.641458
0.599805	1.642794
0.599902	1.644180
0.600000	1.643509
0.600098	1.639193
0.600195	1.634797
0.600293	1.632852
0.600391	1.630797
0.600488	1.628645
0.600586	1.626738
0.600684	1.624862
0.600781	1.622960
0.600879	1.621257
0.600977	1.619985
0.601074	1.619184
0.601172	1.619062
0.601270	1.619636
0.601367	1.620881
0.601465	1.622621
0.601562	1.624839
0.601660	1.627406
0.601758	1.630134
0.601855	1.632934
0.601953	1.635574
0.602051	1.637945
0.602148	1.639834
0.602246	1.640932
0.602344	1.641054
0.602441	1.640134
0.602539	1.638599
0.602637	1.636772
0.602734	1.635103
0.602832	1.633532
0.602930	1.632159
0.603027	1.630589
0.603125	1.628760
0.603223	1.626736
0.603320	1.624616
0.603418	1.622822
0.603516	1.621656
0.603613	1.621184
0.603711	1.621738
0.603809	1.623027
0.603906	1.625121
0.604004	1.627672
0.604102	1.630609
0.604199	1.633400
0.604297	1.635899
0.604395	1.637625
0.604492	1.638906
0.604590	1.639964
0.604687	1.640803
0.604785	1.641305
0.604883	1.641242
0.604980	1.640749
0.605078	1.639949
0.605176	1.638881
0.605273	1.636200
0.605371	1.631292
0.605469	1.626204
0.605566	1.622370
0.605664	1.619259
0.605762	1.617293
0.605859	1.616513
0.605957	1.616693
0.606055	1.617932
0.606152	1.619828
0.606250	1.622442
0.606348	1.625457
0.606445	1.628655
0.606543	1.631743
0.606641	1.634675
0.606738	1.637156
0.606836	1.639109
0.606934	1.640143
0.607031	1.640027
0.607129	1.639218
0.607227	1.637947
0.607324	1.636713
0.607422	1.635273
0.607520	1.633259
0.607617	1.630680
0.607715	1.628056
0.607812	1.625541
0.607910	1.623240
0.608008	1.621455
0.608105	1.620172
0.608203	1.619349
0.608301	1.619247
0.608398	1.619955
0.608496	1.621180
0.608594	1.623131
0.608691	1.625526
0.608789	1.628318
0.608887	1.631326
0.608984	1.634272
0.609082	1.636812
0.609180	1.638562
0.609277	1.639390
0.609375	1.639942
0.609473	1.640106
0.609570	1.639872
0.609668	1.638589
0.609766	1.636564
0.609863	1.634111
0.609961	1.631437
0.610059	1.629109
0.610156	1.627111
0.610254	1.625578
0.610352	1.623768
0.610449	1.621871
0.610547	1.619909
0.610645	1.618842
0.610742	1.618910
0.610840	1.619831
0.610937	1.621462
0.611035	1.623710
0.611133	1.626349
0.611230	1.629151
0.611328	1.632173
0.611426	1.635200
0.611523	1.638089
0.611621	1.640574
0.611719	1.641829
0.611816	1.641224
0.611914	1.640107
0.612012	1.639118
0.612109	1.637494
0.612207	1.635299
0.612305	1.632383
0.612402	1.629549
0.612500	1.627001
0.612598	1.624863
0.612695	1.623063
0.612793	1.621623
0.612891	1.620676
0.612988	1.620167
0.613086	1.620222
0.613184	1.620887
0.613281	1.622063
0.613379	1.623953
0.613477	1.626179
0.613574	1.628809
0.613672	1.631741
0.613770	1.634644
0.613867	1.637220
0.613965	1.639317
0.614062	1.640880
0.614160	1.641831
0.614258	1.642071
0.614355	1.641588
0.614453	1.640181
0.614551	1.638108
0.614648	1.635408
0.614746	1.632734
0.614844	1.630731
0.614941	1.628791
0.615039	1.626684
0.615137	1.624662
0.615234	1.622794
0.615332	1.621468
0.615430	1.620512
0.615527	1.620124
0.615625	1.620376
0.615723	1.621222
0.615820	1.622620
0.615918	1.624474
0.616016	1.626707
0.616113	1.629111
0.616211	1.631722
0.616309	1.634268
0.616406	1.636604
0.616504	1.638606
0.616602	1.640123
0.616699	1.640840
0.616797	1.640983
0.616895	1.640398
0.616992	1.639139
0.617090	1.636810
0.617187	1.633912
0.617285	1.631101
0.617383	1.628391
0.617480	1.625960
0.617578	1.623853
0.617676	1.622065
0.617773	1.620695
0.617871	1.620167
0.617969	1.620222
0.618066	1.621079
0.618164	1.622483
0.618262	1.624426
0.618359	1.626746
0.618457	1.629131
0.618555	1.631633
0.618652	1.633868
0.618750	1.635929
0.618848	1.637477
0.618945	1.638751
0.619043	1.639448
0.619141	1.639553
0.619238	1.638900
0.619336	1.637805
0.619434	1.636312
0.619531	1.634412
0.619629	1.632417
0.619727	1.630478
0.619824	1.628437
0.619922	1.626567
0.620020	1.624876
0.620117	1.623438
0.620215	1.622223
0.620312	1.621572
0.620410	1.621137
0.620508	1.621691
0.620605	1.622725
0.620703	1.624479
0.620801	1.626832
0.620898	1.629449
0.620996	1.632550
0.621094	1.635706
0.621191	1.638764
0.621289	1.641307
0.621387	1.643166
0.621484	1.643871
0.621582	1.643450
0.621680	1.641351
0.621777	1.638588
0.621875	1.635941
0.621973	1.633440
0.622070	1.630772
0.622168	1.628095
0.622266	1.625471
0.622363	1.623222
0.622461	1.621186
0.622559	1.619726
0.622656	1.619048
0.622754	1.619212
0.622852	1.620006
0.622949	1.621565
0.623047	1.623577
0.623145	1.625921
0.623242	1.628422
0.623340	1.630950
0.623437	1.633243
0.623535	1.635358
0.623633	1.637104
0.623730	1.638205
0.623828	1.638906
0.623926	1.638819
0.624023	1.638063
0.624121	1.636984
0.624219	1.635717
0.624316	1.633826
0.624414	1.631674
0.624512	1.629272
0.624609	1.627046
0.624707	1.625075
0.624805	1.623416
0.624902	1.622263
0.625000	1.621648
0.625098	1.621747
0.625195	1.622172
0.625293	1.623143
0.625391	1.624488
0.625488	1.626346
0.625586	1.628651
0.625684	1.631259
0.625781	1.634108
0.625879	1.636832
0.625977	1.639366
0.626074	1.641051
0.626172	1.641857
0.626270	1.641907
0.626367	1.640967
0.626465	1.638978
0.626562	1.635989
0.626660	1.633225
0.626758	1.630880
0.626855	1.628989
0.626953	1.627525
0.627051	1.625979
0.627148	1.624497
0.627246	1.623019
0.627344	1.622024
0.627441	1.621395
0.627539	1.621405
0.627637	1.621932
0.627734	1.623124
0.627832	1.624877
0.627930	1.627020
0.628027	1.629334
0.628125	1.631719
0.628223	1.634006
0.628320	1.635981
0.628418	1.637577
0.628516	1.638673
0.628613	1.638870
0.628711	1.637976
0.628809	1.636007
0.628906	1.634210
0.629004	1.632478
0.629102	1.630728
0.629199	1.629017
0.629297	1.627267
0.629395	1.625815
0.629492	1.624303
0.629590	1.622927
0.629687	1.622110
0.629785	1.621640
0.629883	1.621674
0.629980	1.622316
0.630078	1.623627
0.630176	1.625436
0.630273	1.627555
0.630371	1.630157
0.630469	1.632682
0.630566	1.635302
0.630664	1.637551
0.630762	1.639448
0.630859	1.640375
0.630957	1.640841
0.631055	1.640334
0.631152	1.639660
0.631250	1.639208
0.631348	1.640992
0.631445	1.638019
0.631543	1.632207
0.631641	1.626362
0.631738	1.622109
0.631836	1.620663
0.631934	1.619087
0.632031	1.618208
0.632129	1.617661
0.632227	1.618168
0.632324	1.619053
0.632422	1.620945
0.632520	1.623213
0.632617	1.626210
0.632715	1.629294
0.632812	1.632546
0.632910	1.635608
0.633008	1.638426
0.633105	1.640653
0.633203	1.642087
0.633301	1.642516
0.633398	1.641796
0.633496	1.640013
0.633594	1.637651
0.633691	1.635371
0.633789	1.633308
0.633887	1.631093
0.633984	1.628854
0.634082	1.626486
0.634180	1.624226
0.634277	1.622127
0.634375	1.620480
0.634473	1.619462
0.634570	1.619158
0.634668	1.619640
0.634766	1.620758
0.634863	1.622513
0.634961	1.624864
0.635059	1.627463
0.635156	1.630547
0.635254	1.633623
0.635352	1.636540
0.635449	1.639055
0.635547	1.640937
0.635645	1.642042
0.635742	1.642317
0.635840	1.641975
0.635937	1.641021
0.636035	1.639482
0.636133	1.637126
0.636230	1.634279
0.636328	1.631412
0.636426	1.628565
0.636523	1.625717
0.636621	1.623054
0.636719	1.620852
0.636816	1.619150
0.636914	1.618266
0.637012	1.618298
0.637109	1.618971
0.637207	1.620361
0.637305	1.622486
0.637402	1.625055
0.637500	1.627964
0.637598	1.630977
0.637695	1.633928
0.637793	1.636460
0.637891	1.638536
0.637988	1.640186
0.638086	1.641106
0.638184	1.641698
0.638281	1.641357
0.638379	1.640342
0.638477	1.638566
0.638574	1.636361
0.638672	1.634384
0.638770	1.632195
0.638867	1.629852
0.638965	1.626916
0.639062	1.623773
0.639160	1.621357
0.639258	1.619654
0.639355	1.618849
0.639453	1.618906
0.639551	1.619640
0.639648	1.621193
0.639746	1.623355
0.639844	1.625906
0.639941	1.628773
0.640039	1.631696
0.640137	1.634462
0.640234	1.636742
0.640332	1.638462
0.640430	1.639425
0.640527	1.639551
0.640625	1.638971
0.640723	1.637837
0.640820	1.636415
0.640918	1.634565
0.641016	1.632554
0.641113	1.630607
0.641211	1.628738
0.641309	1.627113
0.641406	1.625656
0.641504	1.624165
0.641602	1.622995
0.641699	1.622004
0.641797	1.621538
0.641895	1.621656
0.641992	1.622219
0.642090	1.623500
0.642187	1.625160
0.642285	1.627470
0.642383	1.629956
0.642480	1.632482
0.642578	1.635208
0.642676	1.637531
0.642773	1.639376
0.642871	1.640747
0.642969	1.641564
0.643066	1.641850
0.643164	1.641637
0.643262	1.640197
0.643359	1.637720
0.643457	1.634922
0.643555	1.631798
0.643652	1.628874
0.643750	1.626596
0.643848	1.625008
0.643945	1.623931
0.644043	1.622818
0.644141	1.621613
0.644238	1.620678
0.644336	1.620458
0.644434	1.621069
0.644531	1.622613
0.644629	1.624721
0.644727	1.627138
0.644824	1.629722
0.644922	1.632368
0.645020	1.634621
0.645117	1.636528
0.645215	1.637992
0.645312	1.638986
0.645410	1.639514
0.645508	1.639442
0.645605	1.638941
0.645703	1.637558
0.645801	1.635761
0.645898	1.634066
0.645996	1.631880
0.646094	1.628745
0.646191	1.625488
0.646289	1.622745
0.646387	1.620887
0.646484	1.619862
0.646582	1.619599
0.646680	1.620014
0.646777	1.621304
0.646875	1.623023
0.646973	1.625266
0.647070	1.627954
0.647168	1.630722
0.647266	1.633335
0.647363	1.635741
0.647461	1.637461
0.647559	1.638573
0.647656	1.638758
0.647754	1.638413
0.647852	1.638027
0.647949	1.637540
0.648047	1.636714
0.648145	1.635605
0.648242	1.633962
0.648340	1.631567
0.648437	1.629444
0.648535	1.627287
0.648633	1.625385
0.648730	1.623657
0.648828	1.622447
0.648926	1.621874
0.649023	1.622164
0.649121	1.623168
0.649219	1.624724
0.649316	1.627109
0.649414	1.629656
0.649512	1.632245
0.649609	1.634818
0.649707	1.636838
0.649805	1.638379
0.649902	1.639279
0.650000	1.639686
0.650098	1.639588
0.650195	1.639218
0.650293	1.638421
0.650391	1.636921
0.650488	1.634895
0.650586	1.632523
0.650684	1.629947
0.650781	1.627411
0.650879	1.625020
0.650977	1.622901
0.651074	1.621075
0.651172	1.619982
0.651270	1.619661
0.651367	1.620054
0.651465	1.621272
0.651562	1.623165
0.651660	1.625636
0.651758	1.628532
0.651855	1.631630
0.651953	1.634649
0.652051	1.637133
0.652148	1.639121
0.652246	1.640246
0.652344	1.640714
0.652441	1.639937
0.652539	1.638873
0.652637	1.637568
0.652734	1.635849
0.652832	1.634210
0.652930	1.632361
0.653027	1.630477
0.653125	1.628344
0.653223	1.626311
0.653320	1.624344
0.653418	1.622819
0.653516	1.621512
0.653613	1.620784
0.653711	1.620488
0.653809	1.620850
0.653906	1.621924
0.654004	1.623614
0.654102	1.625836
0.654199	1.628392
0.654297	1.631088
0.654395	1.633699
0.654492	1.636015
0.654590	1.637839
0.654687	1.639047
0.654785	1.639672
0.654883	1.639827
0.654980	1.639495
0.655078	1.638719
0.655176	1.637323
0.655273	1.635501
0.655371	1.633308
0.655469	1.631174
0.655566	1.629011
0.655664	1.627102
0.655762	1.625058
0.655859	1.623108
0.655957	1.621558
0.656055	1.620718
0.656152	1.620836
0.656250	1.621501
0.656348	1.622899
0.656445	1.624817
0.656543	1.627113
0.656641	1.629634
0.656738	1.632195
0.656836	1.634580
0.656934	1.636647
0.657031	1.638536
0.657129	1.639660
0.657227	1.640556
0.657324	1.640729
0.657422	1.640415
0.657520	1.639564
0.657617	1.638274
0.657715	1.636316
0.657812	1.634200
0.657910	1.632150
0.658008	1.630066
0.658105	1.628139
0.658203	1.626265
0.658301	1.624631
0.658398	1.623311
0.658496	1.622400
0.658594	1.622105
0.658691	1.622456
0.658789	1.623524
0.658887	1.625174
0.658984	1.627277
0.659082	1.629385
0.659180	1.631664
0.659277	1.633724
0.659375	1.635605
0.659473	1.637101
0.659570	1.638264
0.659668	1.639170
0.659766	1.639469
0.659863	1.639374
0.659961	1.638781
0.660059	1.637677
0.660156	1.636305
0.660254	1.635132
0.660352	1.635024
0.660449	1.633684
0.660547	1.628416
0.660645	1.623990
0.660742	1.621519
0.660840	1.620178
0.660937	1.619803
0.661035	1.620077
0.661133	1.621045
0.661230	1.622588
0.661328	1.624715
0.661426	1.627298
0.661523	1.629901
0.661621	1.632566
0.661719	1.635038
0.661816	1.637056
0.661914	1.638662
0.662012	1.639693
0.662109	1.639836
0.662207	1.639135
0.662305	1.637547
0.662402	1.635374
0.662500	1.633350
0.662598	1.631740
0.662695	1.630240
0.662793	1.628618
0.662891	1.626765
0.662988	1.624910
0.663086	1.623478
0.663184	1.622497
0.663281	1.622107
0.663379	1.622259
0.663477	1.622989
0.663574	1.624240
0.663672	1.626050
0.663770	1.628240
0.663867	1.630592
0.663965	1.633317
0.664062	1.635804
0.664160	1.638318
0.664258	1.640619
0.664355	1.642889
0.664453	1.644605
0.664551	1.645168
0.664648	1.641753
0.664746	1.638175
0.664844	1.636106
0.664941	1.633353
0.665039	1.630889
0.665137	1.628878
0.665234	1.627332
0.665332	1.625841
0.665430	1.622894
0.665527	1.620402
0.665625	1.619638
0.665723	1.619922
0.665820	1.621238
0.665918	1.623030
0.666016	1.625524
0.666113	1.628020
0.666211	1.630788
0.666309	1.633380
0.666406	1.635653
0.666504	1.637396
0.666602	1.638700
0.666699	1.639301
0.666797	1.639271
0.666895	1.638481
0.666992	1.637081
0.667090	1.635174
0.667187	1.633109
0.667285	1.631146
0.667383	1.629275
0.667480	1.626989
0.667578	1.624582
0.667676	1.622833
0.667773	1.621584
0.667871	1.620947
0.667969	1.620959
0.668066	1.621513
0.668164	1.622637
0.668262	1.624400
0.668359	1.626470
0.668457	1.628934
0.668555	1.631643
0.668652	1.634219
0.668750	1.636697
0.668848	1.638683
0.668945	1.640030
0.669043	1.640779
0.669141	1.641020
0.669238	1.640786
0.669336	1.640245
0.669434	1.639390
0.669531	1.638091
0.669629	1.635820
0.669727	1.632933
0.669824	1.629944
0.669922	1.627158
0.670020	1.624898
0.670117	1.622942
0.670215	1.621532
0.670312	1.620790
0.670410	1.620640
0.670508	1.621293
0.670605	1.622671
0.670703	1.624757
0.670801	1.627356
0.670898	1.630320
0.670996	1.633185
0.671094	1.636178
0.671191	1.638625
0.671289	1.640088
0.671387	1.640207
0.671484	1.639462
0.671582	1.638533
0.671680	1.637423
0.671777	1.635973
0.671875	1.634628
0.671973	1.633009
0.672070	1.631482
0.672168	1.629699
0.672266	1.627844
0.672363	1.626026
0.672461	1.624241
0.672559	1.623071
0.672656	1.622421
0.672754	1.622329
0.672852	1.622956
0.672949	1.624073
0.673047	1.625828
0.673145	1.628028
0.673242	1.630677
0.673340	1.633255
0.673437	1.636006
0.673535	1.638390
0.673633	1.640101
0.673730	1.641074
0.673828	1.641115
0.673926	1.640560
0.674023	1.639719
0.674121	1.638589
0.674219	1.637534
0.674316	1.636018
0.674414	1.633046
0.674512	1.630052
0.674609	1.627530
0.674707	1.625532
0.674805	1.623600
0.674902	1.621680
0.675000	1.620246
0.675098	1.619503
0.675195	1.619775
0.675293	1.620855
0.675391	1.622791
0.675488	1.625208
0.675586	1.628090
0.675684	1.631037
0.675781	1.634031
0.675879	1.636580
0.675977	1.638607
0.676074	1.640002
0.676172	1.640465
0.676270	1.640252
0.676367	1.639230
0.676465	1.637610
0.676562	1.635562
0.676660	1.633529
0.676758	1.631440
0.676855	1.629385
0.676953	1.627598
0.677051	1.625980
0.677148	1.624516
0.677246	1.623240
0.677344	1.622163
0.677441	1.621606
0.677539	1.621545
0.677637	1.622259
0.677734	1.623426
0.677832	1.625263
0.677930	1.627494
0.678027	1.630050
0.678125	1.632629
0.678223	1.635359
0.678320	1.637667
0.678418	1.639574
0.678516	1.640644
0.678613	1.641136
0.678711	1.641167
0.678809	1.640657
0.678906	1.639454
0.679004	1.637910
0.679102	1.635741
0.679199	1.633282
0.679297	1.630598
0.679395	1.628115
0.679492	1.625802
0.679590	1.623700
0.679687	1.621861
0.679785	1.620383
0.679883	1.619547
0.679980	1.619425
0.680078	1.620181
0.680176	1.621479
0.680273	1.623452
0.680371	1.625864
0.680469	1.628419
0.680566	1.630963
0.680664	1.633492
0.680762	1.635462
0.680859	1.637156
0.680957	1.638429
0.681055	1.639215
0.681152	1.639349
0.681250	1.638623
0.681348	1.637458
0.681445	1.636151
0.681543	1.634663
0.681641	1.633121
0.681738	1.631481
0.681836	1.629661
0.681934	1.627809
0.682031	1.625939
0.682129	1.624253
0.682227	1.622780
0.682324	1.621778
0.682422	1.621362
0.682520	1.621673
0.682617	1.622917
0.682715	1.624652
0.682812	1.627054
0.682910	1.629654
0.683008	1.632548
0.683105	1.635198
0.683203	1.637583
0.683301	1.639440
0.683398	1.640419
0.683496	1.640323
0.683594	1.639537
0.683691	1.638504
0.683789	1.637077
0.683887	1.635365
0.683984	1.632968
0.684082	1.629936
0.684180	1.626666
0.684277	1.623957
0.684375	1.621941
0.684473	1.620753
0.684570	1.620155
0.684668	1.620283
0.684766	1.620861
0.684863	1.622001
0.684961	1.623442
0.685059	1.625282
0.685156	1.627372
0.685254	1.629539
0.685352	1.631951
0.685449	1.634120
0.685547	1.636141
0.685645	1.637816
0.685742	1.639201
0.685840	1.640412
0.685937	1.641311
0.686035	1.641503
0.686133	1.640419
0.686230	1.637859
0.686328	1.635055
0.686426	1.632354
0.686523	1.629271
0.686621	1.625273
0.686719	1.622156
0.686816	1.620139
0.686914	1.619186
0.687012	1.619208
0.687109	1.619923
0.687207	1.621255
0.687305	1.623090
0.687402	1.625269
0.687500	1.627741
0.687598	1.630555
0.687695	1.633447
0.687793	1.636271
0.687891	1.638798
0.687988	1.640697
0.688086	1.641307
0.688184	1.640549
0.688281	1.639287
0.688379	1.638006
0.688477	1.636552
0.688574	1.634853
0.688672	1.633020
0.688770	1.631163
0.688867	1.629300
0.688965	1.627408
0.689062	1.625767
0.689160	1.624298
0.689258	1.623128
0.689355	1.622506
0.689453	1.622309
0.689551	1.622619
0.689648	1.623680
0.689746	1.624995
0.689844	1.626802
0.689941	1.628788
0.690039	1.630886
0.690137	1.633064
0.690234	1.635018
0.690332	1.636679
0.690430	1.637964
0.690527	1.638733
0.690625	1.639000
0.690723	1.638748
0.690820	1.637980
0.690918	1.636842
0.691016	1.635370
0.691113	1.633631
0.691211	1.631802
0.691309	1.629853
0.691406	1.627719
0.691504	1.625621
0.691602	1.623759
0.691699	1.622339
0.691797	1.621684
0.691895	1.621717
0.691992	1.622495
0.692090	1.623992
0.692187	1.625935
0.692285	1.628267
0.692383	1.630778
0.692480	1.633183
0.692578	1.635388
0.692676	1.637065
0.692773	1.638387
0.692871	1.639368
0.692969	1.640181
0.693066	1.640253
0.693164	1.639642
0.693262	1.638375
0.693359	1.636742
0.693457	1.634676
0.693555	1.632583
0.693652	1.630435
0.693750	1.628380
0.693848	1.626522
0.693945	1.624835
0.694043	1.623361
0.694141	1.622119
0.694238	1.621197
0.694336	1.621007
0.694434	1.621606
0.694531	1.622932
0.694629	1.624938
0.694727	1.627275
0.694824	1.629937
0.694922	1.632565
0.695020	1.635038
0.695117	1.637070
0.695215	1.638743
0.695312	1.639980
0.695410	1.640821
0.695508	1.640747
0.695605	1.639542
0.695703	1.637918
0.695801	1.636007
0.695898	1.633891
0.695996	1.631544
0.696094	1.629358
0.696191	1.627089
0.696289	1.624790
0.696387	1.622920
0.696484	1.621472
0.696582	1.620654
0.696680	1.620356
0.696777	1.620662
0.696875	1.621560
0.696973	1.623225
0.697070	1.625290
0.697168	1.627882
0.697266	1.630555
0.697363	1.633421
0.697461	1.635926
0.697559	1.637934
0.697656	1.639176
0.697754	1.639461
0.697852	1.639418
0.697949	1.639077
0.698047	1.638200
0.698145	1.636587
0.698242	1.634451
0.698340	1.632054
0.698437	1.629618
0.698535	1.627369
0.698633	1.625325
0.698730	1.623299
0.698828	1.621741
0.698926	1.620876
0.699023	1.620480
0.699121	1.620905
0.699219	1.621967
0.699316	1.623545
0.699414	1.625562
0.699512	1.627971
0.699609	1.630668
0.699707	1.633255
0.699805	1.635885
0.699902	1.637865
0.700000	1.638994
0.700098	1.638983
0.700195	1.638637
0.700293	1.638477
0.700391	1.637873
0.700488	1.636887
0.700586	1.635616
0.700684	1.634210
0.700781	1.632466
0.700879	1.630520
0.700977	1.628458
0.701074	1.626265
0.701172	1.624325
0.701270	1.622711
0.701367	1.621814
0.701465	1.621587
0.701562	1.622112
0.701660	1.623319
0.701758	1.625104
0.701855	1.627439
0.701953	1.629989
0.702051	1.632768
0.702148	1.635503
0.702246	1.637997
0.702344	1.640276
0.702441	1.641885
0.702539	1.643006
0.702637	1.642842
0.702734	1.640891
0.702832	1.638413
0.702930	1.636310
0.703027	1.634757
0.703125	1.632964
0.703223	1.630765
0.703320	1.628120
0.703418	1.625556
0.703516	1.623150
0.703613	1.621192
0.703711	1.619630
0.703809	1.618921
0.703906	1.619025
0.704004	1.619900
0.704102	1.621748
0.704199	1.624141
0.704297	1.626910
0.704395	1.629853
0.704492	1.632588
0.704590	1.634819
0.704687	1.636411
0.704785	1.637372
0.704883	1.637830
0.704980	1.637975
0.705078	1.637479
0.705176	1.636525
0.705273	1.635155
0.705371	1.633494
0.705469	1.631780
0.705566	1.629906
0.705664	1.628087
0.705762	1.626229
0.705859	1.624423
0.705957	1.622687
0.706055	1.621488
0.706152	1.620941
0.706250	1.621129
0.706348	1.621930
0.706445	1.623319
0.706543	1.625113
0.706641	1.627356
0.706738	1.629868
0.706836	1.632701
0.706934	1.635543
0.707031	1.638011
0.707129	1.640058
0.707227	1.641162
0.707324	1.641485
0.707422	1.641352
0.707520	1.640543
0.707617	1.639202
0.707715	1.637422
0.707812	1.635293
0.707910	1.633012
0.708008	1.630101
0.708105	1.627136
0.708203	1.623907
0.708301	1.621252
0.708398	1.619302
0.708496	1.618440
0.708594	1.618324
0.708691	1.619149
0.708789	1.620645
0.708887	1.622597
0.708984	1.624876
0.709082	1.627459
0.709180	1.629995
0.709277	1.632312
0.709375	1.634529
0.709473	1.636300
0.709570	1.637588
0.709668	1.638566
0.709766	1.639115
0.709863	1.639434
0.709961	1.639451
0.710059	1.639182
0.710156	1.638351
0.710254	1.636598
0.710352	1.633617
0.710449	1.630255
0.710547	1.627119
0.710645	1.624527
0.710742	1.622419
0.710840	1.620872
0.710937	1.620148
0.711035	1.620026
0.711133	1.620946
0.711230	1.622722
0.711328	1.625218
0.711426	1.628383
0.711523	1.631956
0.711621	1.635245
0.711719	1.637549
0.711816	1.637237
0.711914	1.636537
0.712012	1.637572
0.712109	1.638355
0.712207	1.638200
0.712305	1.637074
0.712402	1.635469
0.712500	1.633660
0.712598	1.632069
0.712695	1.630533
0.712793	1.628921
0.712891	1.627068
0.712988	1.624963
0.713086	1.623167
0.713184	1.621919
0.713281	1.621188
0.713379	1.621287
0.713477	1.621979
0.713574	1.623426
0.713672	1.625382
0.713770	1.627701
0.713867	1.630200
0.713965	1.632696
0.714062	1.634858
0.714160	1.636542
0.714258	1.637632
0.714355	1.638144
0.714453	1.638005
0.714551	1.637438
0.714648	1.636511
0.714746	1.635348
0.714844	1.633753
0.714941	1.631895
0.715039	1.629780
0.715137	1.627676
0.715234	1.625564
0.715332	1.623768
0.715430	1.622213
0.715527	1.621110
0.715625	1.620610
0.715723	1.620612
0.715820	1.621466
0.715918	1.622999
0.716016	1.625194
0.716113	1.627758
0.716211	1.630858
0.716309	1.634092
0.716406	1.637371
0.716504	1.640235
0.716602	1.642015
0.716699	1.642228
0.716797	1.641148
0.716895	1.639674
0.716992	1.638785
0.717090	1.638402
0.717187	1.637998
0.717285	1.636556
0.717383	1.633678
0.717480	1.630163
0.717578	1.627035
0.717676	1.624754
0.717773	1.623026
0.717871	1.621779
0.717969	1.620523
0.718066	1.619670
0.718164	1.619313
0.718262	1.619750
0.718359	1.620902
0.718457	1.622960
0.718555	1.625535
0.718652	1.628389
0.718750	1.631578
0.718848	1.634621
0.718945	1.637607
0.719043	1.639890
0.719141	1.640891
0.719238	1.640718
0.719336	1.640216
0.719434	1.639388
0.719531	1.637223
0.719629	1.634091
0.719727	1.631082
0.719824	1.628455
0.719922	1.625791
0.720020	1.623369
0.720117	1.621245
0.720215	1.619806
0.720312	1.618870
0.720410	1.618672
0.720508	1.619172
0.720605	1.620275
0.720703	1.621930
0.720801	1.623788
0.720898	1.626130
0.720996	1.628522
0.721094	1.630943
0.721191	1.633476
0.721289	1.635908
0.721387	1.638116
0.721484	1.639925
0.721582	1.640985
0.721680	1.641291
0.721777	1.640769
0.721875	1.639362
0.721973	1.637487
0.722070	1.635694
0.722168	1.633880
0.722266	1.631473
0.722363	1.628643
0.722461	1.625938
0.722559	1.623960
0.722656	1.622267
0.722754	1.621039
0.722852	1.620243
0.722949	1.620180
0.723047	1.620722
0.723145	1.621859
0.723242	1.623483
0.723340	1.625666
0.723437	1.628124
0.723535	1.630849
0.723633	1.633654
0.723730	1.636093
0.723828	1.638426
0.723926	1.639940
0.724023	1.640809
0.724121	1.640971
0.724219	1.640392
0.724316	1.639245
0.724414	1.637761
0.724512	1.635952
0.724609	1.634766
0.724707	1.632767
0.724805	1.627435
0.724902	1.623564
0.725000	1.620959
0.725098	1.619197
0.725195	1.618143
0.725293	1.617730
0.725391	1.618067
0.725488	1.619189
0.725586	1.620893
0.725684	1.622981
0.725781	1.625519
0.725879	1.628188
0.725977	1.630819
0.726074	1.633415
0.726172	1.635483
0.726270	1.636942
0.726367	1.637809
0.726465	1.638110
0.726562	1.638000
0.726660	1.637574
0.726758	1.636848
0.726855	1.635849
0.726953	1.634600
0.727051	1.633209
0.727148	1.631466
0.727246	1.629419
0.727344	1.627047
0.727441	1.624774
0.727539	1.622852
0.727637	1.621262
0.727734	1.620380
0.727832	1.620134
0.727930	1.620602
0.728027	1.621769
0.728125	1.623439
0.728223	1.625621
0.728320	1.628220
0.728418	1.630833
0.728516	1.633487
0.728613	1.635813
0.728711	1.637720
0.728809	1.639049
0.728906	1.639673
0.729004	1.639573
0.729102	1.638891
0.729199	1.637609
0.729297	1.635555
0.729395	1.633508
0.729492	1.631342
0.729590	1.629103
0.729687	1.627171
0.729785	1.625155
0.729883	1.623229
0.729980	1.621821
0.730078	1.620664
0.730176	1.620248
0.730273	1.620557
0.730371	1.621603
0.730469	1.623372
0.730566	1.625612
0.730664	1.628178
0.730762	1.630871
0.730859	1.633525
0.730957	1.635984
0.731055	1.638001
0.731152	1.639576
0.731250	1.640353
0.731348	1.640321
0.731445	1.639555
0.731543	1.638385
0.731641	1.637100
0.731738	1.635918
0.731836	1.634669
0.731934	1.633159
0.732031	1.631204
0.732129	1.628830
0.732227	1.625850
0.732324	1.622868
0.732422	1.620420
0.732520	1.619275
0.732617	1.619372
0.732715	1.620397
0.732812	1.622176
0.732910	1.624588
0.733008	1.627281
0.733105	1.630063
0.733203	1.632719
0.733301	1.634960
0.733398	1.636774
0.733496	1.637830
0.733594	1.638131
0.733691	1.637944
0.733789	1.637070
0.733887	1.635739
0.733984	1.634115
0.734082	1.632255
0.734180	1.630302
0.734277	1.628256
0.734375	1.626133
0.734473	1.624218
0.734570	1.622553
0.734668	1.621359
0.734766	1.620642
0.734863	1.620624
0.734961	1.621259
0.735059	1.622550
0.735156	1.624433
0.735254	1.626772
0.735352	1.629487
0.735449	1.632296
0.735547	1.635199
0.735645	1.637811
0.735742	1.639880
0.735840	1.640780
0.735937	1.640301
0.736035	1.639107
0.736133	1.637542
0.736230	1.636092
0.736328	1.634887
0.736426	1.633510
0.736523	1.631843
0.736621	1.629853
0.736719	1.627752
0.736816	1.625648
0.736914	1.623574
0.737012	1.621911
0.737109	1.620526
0.737207	1.619756
0.737305	1.619767
0.737402	1.620293
0.737500	1.621686
0.737598	1.623614
0.737695	1.626049
0.737793	1.628699
0.737891	1.631594
0.737988	1.634408
0.738086	1.636939
0.738184	1.639126
0.738281	1.640555
0.738379	1.641012
0.738477	1.640488
0.738574	1.639165
0.738672	1.637230
0.738770	1.634827
0.738867	1.632192
0.738965	1.629446
0.739062	1.626901
0.739160	1.624682
0.739258	1.622995
0.739355	1.621522
0.739453	1.620506
0.739551	1.619986
0.739648	1.620214
0.739746	1.621085
0.739844	1.622626
0.739941	1.624823
0.740039	1.627420
0.740137	1.630126
0.740234	1.632879
0.740332	1.635343
0.740430	1.637334
0.740527	1.638668
0.740625	1.639155
0.740723	1.638798
0.740820	1.637948
0.740918	1.636664
0.741016	1.635317
0.741113	1.633804
0.741211	1.632358
0.741309	1.630857
0.741406	1.629511
0.741504	1.628118
0.741602	1.627057
0.741699	1.626161
0.741797	1.625079
0.741895	1.623919
0.741992	1.622857
0.742090	1.622229
0.742187	1.622300
0.742285	1.623344
0.742383	1.625225
0.742480	1.627567
0.742578	1.630307
0.742676	1.633072
0.742773	1.635473
0.742871	1.637613
0.742969	1.639100
0.743066	1.640196
0.743164	1.640887
0.743262	1.640805
0.743359	1.639791
0.743457	1.638207
0.743555	1.636045
0.743652	1.633220
0.743750	1.629891
0.743848	1.626923
0.743945	1.624499
0.744043	1.622406
0.744141	1.620753
0.744238	1.619558
0.744336	1.619148
0.744434	1.619438
0.744531	1.620355
0.744629	1.621939
0.744727	1.623997
0.744824	1.626467
0.744922	1.629170
0.745020	1.632006
0.745117	1.634913
0.745215	1.637672
0.745312	1.640171
0.745410	1.642053
0.745508	1.642489
0.745605	1.641813
0.745703	1.640460
0.745801	1.639295
0.745898	1.638089
0.745996	1.636438
0.746094	1.634291
0.746191	1.631232
0.746289	1.627780
0.746387	1.624644
0.746484	1.621961
0.746582	1.619945
0.746680	1.618700
0.746777	1.618167
0.746875	1.618066
0.746973	1.619029
0.747070	1.620624
0.747168	1.623016
0.747266	1.625696
0.747363	1.628701
0.747461	1.631769
0.747559	1.634723
0.747656	1.637236
0.747754	1.639191
0.747852	1.640288
0.747949	1.640322
0.748047	1.639246
0.748145	1.636563
0.748242	1.633261
0.748340	1.630694
0.748437	1.628818
0.748535	1.626987
0.748633	1.625257
0.748730	1.623640
0.748828	1.622447
0.748926	1.621830
0.749023	1.621421
0.749121	1.621728
0.749219	1.622677
0.749316	1.624071
0.749414	1.626070
0.749512	1.628387
0.749609	1.630721
0.749707	1.633031
0.749805	1.634905
0.749902	1.636373
0.750000	1.637581
0.750098	1.638368
0.750195	1.638676
0.750293	1.638668
0.750391	1.638559
0.750488	1.638225
0.750586	1.637754
0.750684	1.636892
0.750781	1.635249
0.750879	1.633220
0.750977	1.630687
0.751074	1.628234
0.751172	1.625675
0.751270	1.623266
0.751367	1.621620
0.751465	1.620594
0.751562	1.620505
0.751660	1.621183
0.751758	1.622710
0.751855	1.624948
0.751953	1.627726
0.752051	1.630842
0.752148	1.634030
0.752246	1.637140
0.752344	1.640017
0.752441	1.642361
0.752539	1.643795
0.752637	1.644088
0.752734	1.642591
0.752832	1.640206
0.752930	1.637903
0.753027	1.635615
0.753125	1.633477
0.753223	1.631546
0.753320	1.629283
0.753418	1.626692
0.753516	1.623655
0.753613	1.621005
0.753711	1.618996
0.753809	1.617622
0.753906	1.617464
0.754004	1.618066
0.754102	1.619593
0.754199	1.621802
0.754297	1.624400
0.754395	1.627180
0.754492	1.630034
0.754590	1.632790
0.754687	1.635126
0.754785	1.637105
0.754883	1.638747
0.754980	1.639867
0.755078	1.640342
0.755176	1.639888
0.755273	1.638341
0.755371	1.636633
0.755469	1.635251
0.755566	1.633815
0.755664	1.631678
0.755762	1.629044
0.755859	1.626134
0.755957	1.623309
0.756055	1.621047
0.756152	1.619483
0.756250	1.618830
0.756348	1.618957
0.756445	1.620026
0.756543	1.621824
0.756641	1.624120
0.756738	1.626794
0.756836	1.629549
0.756934	1.632292
0.757031	1.635096
0.757129	1.637526
0.757227	1.639520
0.757324	1.640996
0.757422	1.641442
0.757520	1.641590
0.757617	1.640990
0.757715	1.639205
0.757812	1.635639
0.757910	1.631434
0.758008	1.628663
0.758105	1.627175
0.758203	1.625894
0.758301	1.624970
0.758398	1.624034
0.758496	1.622667
0.758594	1.620959
0.758691	1.619732
0.758789	1.619513
0.758887	1.620409
0.758984	1.622220
0.759082	1.624737
0.759180	1.627851
0.759277	1.631039
0.759375	1.634053
0.759473	1.636888
0.759570	1.638892
0.759668	1.640508
0.759766	1.641172
0.759863	1.641235
0.759961	1.640039
0.760059	1.638382
0.760156	1.636301
0.760254	1.634031
0.760352	1.631210
0.760449	1.628248
0.760547	1.625856
0.760645	1.623857
0.760742	1.621972
0.760840	1.620293
0.760937	1.619296
0.761035	1.618855
0.761133	1.619228
0.761230	1.620377
0.761328	1.622049
0.761426	1.624430
0.761523	1.627013
0.761621	1.629936
0.761719	1.632882
0.761816	1.635510
0.761914	1.637818
0.762012	1.639626
0.762109	1.640778
0.762207	1.641322
0.762305	1.640893
0.762402	1.639949
0.762500	1.638666
0.762598	1.637269
0.762695	1.635221
0.762793	1.632885
0.762891	1.630351
0.762988	1.627703
0.763086	1.625142
0.763184	1.622946
0.763281	1.621012
0.763379	1.619909
0.763477	1.619280
0.763574	1.619441
0.763672	1.620368
0.763770	1.621772
0.763867	1.623873
0.763965	1.626371
0.764062	1.629179
0.764160	1.632314
0.764258	1.635561
0.764355	1.638808
0.764453	1.641854
0.764551	1.643731
0.764648	1.643571
0.764746	1.641649
0.764844	1.639284
0.764941	1.636120
0.765039	1.633418
0.765137	1.631987
0.765234	1.630403
0.765332	1.627627
0.765430	1.624889
0.765527	1.622511
0.765625	1.620820
0.765723	1.619880
0.765820	1.619635
0.765918	1.619973
0.766016	1.620951
0.766113	1.622430
0.766211	1.624452
0.766309	1.626659
0.766406	1.629016
0.766504	1.631384
0.766602	1.633657
0.766699	1.635719
0.766797	1.637517
0.766895	1.639167
0.766992	1.640730
0.767090	1.642405
0.767187	1.644000
0.767285	1.644941
0.767383	1.644015
0.767480	1.640888
0.767578	1.636421
0.767676	1.631510
0.767773	1.627155
0.767871	1.623563
0.767969	1.620779
0.768066	1.618779
0.768164	1.617654
0.768262	1.617567
0.768359	1.618102
0.768457	1.619516
0.768555	1.621476
0.768652	1.624017
0.768750	1.626814
0.768848	1.629653
0.768945	1.632377
0.769043	1.634719
0.769141	1.636591
0.769238	1.637909
0.769336	1.638637
0.769434	1.638748
0.769531	1.638164
0.769629	1.636818
0.769727	1.635039
0.769824	1.633152
0.769922	1.631414
0.770020	1.629538
0.770117	1.627527
0.770215	1.625675
0.770312	1.623917
0.770410	1.622602
0.770508	1.621623
0.770605	1.621327
0.770703	1.621420
0.770801	1.622075
0.770898	1.623363
0.770996	1.625137
0.771094	1.627284
0.771191	1.629664
0.771289	1.632053
0.771387	1.634274
0.771484	1.636146
0.771582	1.637668
0.771680	1.638694
0.771777	1.639191
0.771875	1.639324
0.771973	1.638958
0.772070	1.638047
0.772168	1.636649
0.772266	1.634758
0.772363	1.632550
0.772461	1.629988
0.772559	1.627572
0.772656	1.625072
0.772754	1.622853
0.772852	1.621093
0.772949	1.619963
0.773047	1.619692
0.773145	1.620104
0.773242	1.621283
0.773340	1.622952
0.773437	1.625205
0.773535	1.627638
0.773633	1.630395
0.773730	1.633224
0.773828	1.636071
0.773926	1.638523
0.774023	1.640594
0.774121	1.642048
0.774219	1.642741
0.774316	1.641879
0.774414	1.639061
0.774512	1.635498
0.774609	1.632708
0.774707	1.630908
0.774805	1.629216
0.774902	1.627749
0.775000	1.626326
0.775098	1.625052
0.775195	1.623785
0.775293	1.622711
0.775391	1.622143
0.775488	1.622176
0.775586	1.623024
0.775684	1.624419
0.775781	1.626354
0.775879	1.628657
0.775977	1.631156
0.776074	1.633849
0.776172	1.636187
0.776270	1.638109
0.776367	1.638884
0.776465	1.638723
0.776562	1.638064
0.776660	1.637166
0.776758	1.636353
0.776855	1.635453
0.776953	1.634184
0.777051	1.632438
0.777148	1.630774
0.777246	1.629307
0.777344	1.627497
0.777441	1.625292
0.777539	1.623264
0.777637	1.621594
0.777734	1.620695
0.777832	1.620565
0.777930	1.621321
0.778027	1.622710
0.778125	1.624526
0.778223	1.626965
0.778320	1.629596
0.778418	1.632236
0.778516	1.634709
0.778613	1.636993
0.778711	1.638833
0.778809	1.640115
0.778906	1.640937
0.779004	1.641050
0.779102	1.640438
0.779199	1.639213
0.779297	1.637395
0.779395	1.635220
0.779492	1.632788
0.779590	1.630429
0.779687	1.628050
0.779785	1.625929
0.779883	1.624041
0.779980	1.622750
0.780078	1.622029
0.780176	1.621968
0.780273	1.622546
0.780371	1.623601
0.780469	1.625108
0.780566	1.626938
0.780664	1.629103
0.780762	1.631172
0.780859	1.633236
0.780957	1.635097
0.781055	1.636766
0.781152	1.637776
0.781250	1.638725
0.781348	1.639237
0.781445	1.639417
0.781543	1.639206
0.781641	1.638519
0.781738	1.637439
0.781836	1.636549
0.781934	1.635546
0.782031	1.633388
0.782129	1.630630
0.782227	1.628582
0.782324	1.627248
0.782422	1.626498
0.782520	1.624677
0.782617	1.621508
0.782715	1.619871
0.782812	1.620016
0.782910	1.621481
0.783008	1.623594
0.783105	1.626166
0.783203	1.628753
0.783301	1.631260
0.783398	1.633605
0.783496	1.635591
0.783594	1.637264
0.783691	1.638306
0.783789	1.639009
0.783887	1.638995
0.783984	1.638491
0.784082	1.637541
0.784180	1.636086
0.784277	1.633754
0.784375	1.630955
0.784473	1.627773
0.784570	1.624671
0.784668	1.622083
0.784766	1.620122
0.784863	1.618899
0.784961	1.618397
0.785059	1.618733
0.785156	1.619691
0.785254	1.621480
0.785352	1.623768
0.785449	1.626550
0.785547	1.629584
0.785645	1.632823
0.785742	1.635832
0.785840	1.638264
0.785937	1.640206
0.786035	1.641363
0.786133	1.641836
0.786230	1.641035
0.786328	1.638817
0.786426	1.636373
0.786523	1.634040
0.786621	1.631913
0.786719	1.629903
0.786816	1.627950
0.786914	1.626016
0.787012	1.624302
0.787109	1.622689
0.787207	1.621597
0.787305	1.620966
0.787402	1.621122
0.787500	1.621788
0.787598	1.623226
0.787695	1.625185
0.787793	1.627835
0.787891	1.630598
0.787988	1.633638
0.788086	1.636553
0.788184	1.639149
0.788281	1.641179
0.788379	1.642297
0.788477	1.642540
0.788574	1.641824
0.788672	1.640314
0.788770	1.638511
0.788867	1.636516
0.788965	1.634346
0.789062	1.632114
0.789160	1.629764
0.789258	1.627298
0.789355	1.625217
0.789453	1.623333
0.789551	1.621768
0.789648	1.620850
0.789746	1.620377
0.789844	1.620524
0.789941	1.621353
0.790039	1.622879
0.790137	1.624827
0.790234	1.627295
0.790332	1.629987
0.790430	1.632696
0.790527	1.635207
0.790625	1.637385
0.790723	1.638840
0.790820	1.639798
0.790918	1.639947
0.791016	1.639337
0.791113	1.638263
0.791211	1.636971
0.791309	1.635350
0.791406	1.633086
0.791504	1.630572
0.791602	1.627956
0.791699	1.625006
0.791797	1.622368
0.791895	1.620655
0.791992	1.619556
0.792090	1.619319
0.792187	1.619691
0.792285	1.620794
0.792383	1.622442
0.792480	1.624463
0.792578	1.626988
0.792676	1.629573
0.792773	1.632111
0.792871	1.634389
0.792969	1.636407
0.793066	1.637859
0.793164	1.638939
0.793262	1.639338
0.793359	1.639311
0.793457	1.638665
0.793555	1.637731
0.793652	1.636615
0.793750	1.635164
0.793848	1.633521
0.793945	1.631555
0.794043	1.629342
0.794141	1.627170
0.794238	1.625334
0.794336	1.623857
0.794434	1.622918
0.794531	1.622351
0.794629	1.621766
0.794727	1.621674
0.794824	1.622484
0.794922	1.623984
0.795020	1.626165
0.795117	1.628535
0.795215	1.631087
0.795312	1.633892
0.795410	1.636320
0.795508	1.638657
0.795605	1.640517
0.795703	1.641831
0.795801	1.642501
0.795898	1.642456
0.795996	1.641665
0.796094	1.640077
0.796191	1.637080
0.796289	1.633842
0.796387	1.629872
0.796484	1.625822
0.796582	1.622844
0.796680	1.620557
0.796777	1.619173
0.796875	1.618458
0.796973	1.618482
0.797070	1.619427
0.797168	1.621117
0.797266	1.623458
0.797363	1.626288
0.797461	1.629415
0.797559	1.632706
0.797656	1.635711
0.797754	1.638721
0.797852	1.641207
0.797949	1.643059
0.798047	1.643501
0.798145	1.644244
0.798242	1.642247
0.798340	1.635586
0.798437	1.630340
0.798535	1.627835
0.798633	1.626924
0.798730	1.625670
0.798828	1.624117
0.798926	1.622388
0.799023	1.620933
0.799121	1.620133
0.799219	1.620102
0.799316	1.620579
0.799414	1.621932
0.799512	1.623749
0.799609	1.625961
0.799707	1.628543
0.799805	1.631179
0.799902	1.633851
0.800000	1.636355
0.800098	1.638715
0.800195	1.640826
0.800293	1.642687
0.800391	1.644356
0.800488	1.645099
0.800586	1.642424
0.800684	1.638520
0.800781	1.635865
0.800879	1.633606
0.800977	1.631373
0.801074	1.629130
0.801172	1.626553
0.801270	1.623781
0.801367	1.621371
0.801465	1.619632
0.801562	1.618563
0.801660	1.618445
0.801758	1.619277
0.801855	1.620908
0.801953	1.623049
0.802051	1.625690
0.802148	1.628567
0.802246	1.631327
0.802344	1.633907
0.802441	1.636133
0.802539	1.637809
0.802637	1.638701
0.802734	1.638787
0.802832	1.638241
0.802930	1.637042
0.803027	1.635689
0.803125	1.634249
0.803223	1.632775
0.803320	1.631042
0.803418	1.629020
0.803516	1.626872
0.803613	1.624812
0.803711	1.623010
0.803809	1.621465
0.803906	1.620168
0.804004	1.619322
0.804102	1.619305
0.804199	1.620091
0.804297	1.621587
0.804395	1.623846
0.804492	1.626732
0.804590	1.629803
0.804687	1.632781
0.804785	1.635345
0.804883	1.637371
0.804980	1.638675
0.805078	1.639660
0.805176	1.640075
0.805273	1.639794
0.805371	1.638836
0.805469	1.637326
0.805566	1.635792
0.805664	1.634377
0.805762	1.632790
0.805859	1.631030
0.805957	1.628873
0.806055	1.626805
0.806152	1.624601
0.806250	1.622656
0.806348	1.621146
0.806445	1.620127
0.806543	1.619795
0.806641	1.620281
0.806738	1.621597
0.806836	1.623428
0.806934	1.625833
0.807031	1.628433
0.807129	1.631190
0.807227	1.633753
0.807324	1.636084
0.807422	1.637997
0.807520	1.639347
0.807617	1.640153
0.807715	1.640329
0.807812	1.639829
0.807910	1.638679
0.808008	1.636991
0.808105	1.635170
0.808203	1.633399
0.808301	1.631501
0.808398	1.629585
0.808496	1.627373
0.808594	1.625104
0.808691	1.622834
0.808789	1.621003
0.808887	1.619770
0.808984	1.619370
0.809082	1.619992
0.809180	1.621649
0.809277	1.623796
0.809375	1.626349
0.809473	1.629042
0.809570	1.631772
0.809668	1.634240
0.809766	1.636676
0.809863	1.638711
0.809961	1.640310
0.810059	1.641059
0.810156	1.640833
0.810254	1.639551
0.810352	1.637424
0.810449	1.635423
0.810547	1.632529
0.810645	1.628709
0.810742	1.625929
0.810840	1.623765
0.810937	1.621898
0.811035	1.620631
0.811133	1.619878
0.811230	1.619769
0.811328	1.620247
0.811426	1.621368
0.811523	1.622965
0.811621	1.625123
0.811719	1.627567
0.811816	1.630187
0.811914	1.632798
0.812012	1.634995
0.812109	1.636976
0.812207	1.638229
0.812305	1.639105
0.812402	1.639220
0.812500	1.638539
0.812598	1.637427
0.812695	1.635777
0.812793	1.633840
0.812891	1.631546
0.812988	1.629451
0.813086	1.627226
0.813184	1.625379
0.813281	1.623597
0.813379	1.622031
0.813477	1.620848
0.813574	1.620160
0.813672	1.620004
0.813770	1.620607
0.813867	1.621666
0.813965	1.623430
0.814062	1.625787
0.814160	1.628450
0.814258	1.631487
0.814355	1.634648
0.814453	1.637510
0.814551	1.639847
0.814648	1.640907
0.814746	1.640969
0.814844	1.640832
0.814941	1.640545
0.815039	1.639564
0.815137	1.637670
0.815234	1.635129
0.815332	1.632156
0.815430	1.629147
0.815527	1.626633
0.815625	1.625064
0.815723	1.623973
0.815820	1.623216
0.815918	1.622307
0.816016	1.621371
0.816113	1.621142
0.816211	1.621935
0.816309	1.623437
0.816406	1.625327
0.816504	1.627564
0.816602	1.629896
0.816699	1.632020
0.816797	1.633904
0.816895	1.635276
0.816992	1.636229
0.817090	1.636896
0.817187	1.637422
0.817285	1.637935
0.817383	1.638380
0.817480	1.638562
0.817578	1.637950
0.817676	1.636062
0.817773	1.633235
0.817871	1.630187
0.817969	1.627256
0.818066	1.624391
0.818164	1.621904
0.818262	1.619995
0.818359	1.618915
0.818457	1.618731
0.818555	1.619529
0.818652	1.620980
0.818750	1.623267
0.818848	1.625782
0.818945	1.628646
0.819043	1.631482
0.819141	1.634265
0.819238	1.636843
0.819336	1.638798
0.819434	1.640262
0.819531	1.641212
0.819629	1.641782
0.819727	1.641804
0.819824	1.640583
0.819922	1.638556
0.820020	1.636120
0.820117	1.633194
0.820215	1.630273
0.820312	1.626850
0.820410	1.623957
0.820508	1.621621
0.820605	1.619978
0.820703	1.618901
0.820801	1.618462
0.820898	1.618967
0.820996	1.619962
0.821094	1.621664
0.821191	1.623798
0.821289	1.626237
0.821387	1.628862
0.821484	1.631350
0.821582	1.633619
0.821680	1.635405
0.821777	1.636570
0.821875	1.637425
0.821973	1.637592
0.822070	1.637635
0.822168	1.637212
0.822266	1.636258
0.822363	1.634811
0.822461	1.632882
0.822559	1.630711
0.822656	1.628651
0.822754	1.626461
0.822852	1.624387
0.822949	1.622684
0.823047	1.621392
0.823145	1.620671
0.823242	1.620386
0.823340	1.620701
0.823437	1.621851
0.823535	1.623557
0.823633	1.625917
0.823730	1.628756
0.823828	1.631710
0.823926	1.634598
0.824023	1.637271
0.824121	1.639629
0.824219	1.641101
0.824316	1.641704
0.824414	1.640726
0.824512	1.637974
0.824609	1.635250
0.824707	1.633371
0.824805	1.631617
0.824902	1.629895
0.825000	1.627882
0.825098	1.625825
0.825195	1.624201
0.825293	1.622784
0.825391	1.621612
0.825488	1.620515
0.825586	1.619746
0.825684	1.619428
0.825781	1.620046
0.825879	1.621377
0.825977	1.623575
0.826074	1.626177
0.826172	1.629249
0.826270	1.632478
0.826367	1.635806
0.826465	1.639110
0.826562	1.641748
0.826660	1.643005
0.826758	1.642774
0.826855	1.642169
0.826953	1.641374
0.827051	1.640143
0.827148	1.637374
0.827246	1.632851
0.827344	1.628127
0.827441	1.624754
0.827539	1.622354
0.827637	1.620515
0.827734	1.619377
0.827832	1.618755
0.827930	1.618684
0.828027	1.619033
0.828125	1.620117
0.828223	1.621775
0.828320	1.623905
0.828418	1.626456
0.828516	1.629165
0.828613	1.631676
0.828711	1.634023
0.828809	1.636038
0.828906	1.637371
0.829004	1.638199
0.829102	1.638572
0.829199	1.638767
0.829297	1.638504
0.829395	1.637155
0.829492	1.634767
0.829590	1.632259
0.829687	1.630116
0.829785	1.627935
0.829883	1.625886
0.829980	1.624117
0.830078	1.622492
0.830176	1.621352
0.830273	1.620551
0.830371	1.620373
0.830469	1.620590
0.830566	1.621395
0.830664	1.622891
0.830762	1.624961
0.830859	1.627533
0.830957	1.630381
0.831055	1.633425
0.831152	1.636214
0.831250	1.638515
0.831348	1.640362
0.831445	1.641690
0.831543	1.642156
0.831641	1.641846
0.831738	1.640822
0.831836	1.639089
0.831934	1.636461
0.832031	1.633311
0.832129	1.629926
0.832227	1.626938
0.832324	1.624177
0.832422	1.621731
0.832520	1.619868
0.832617	1.618622
0.832715	1.617944
0.832812	1.618082
0.832910	1.618833
0.833008	1.620411
0.833105	1.622557
0.833203	1.625169
0.833301	1.628032
0.833398	1.630794
0.833496	1.633554
0.833594	1.635962
0.833691	1.637803
0.833789	1.639085
0.833887	1.639766
0.833984	1.639702
0.834082	1.639050
0.834180	1.637804
0.834277	1.636182
0.834375	1.634202
0.834473	1.631675
0.834570	1.628737
0.834668	1.625916
0.834766	1.623312
0.834863	1.621314
0.834961	1.620055
0.835059	1.619462
0.835156	1.619510
0.835254	1.620231
0.835352	1.621615
0.835449	1.623617
0.835547	1.625827
0.835645	1.628474
0.835742	1.631219
0.835840	1.633991
0.835937	1.636552
0.836035	1.638672
0.836133	1.640126
0.836230	1.640818
0.836328	1.640927
0.836426	1.640627
0.836523	1.639593
0.836621	1.638157
0.836719	1.636508
0.836816	1.634535
0.836914	1.632442
0.837012	1.630055
0.837109	1.627701
0.837207	1.625592
0.837305	1.623924
0.837402	1.622609
0.837500	1.621848
0.837598	1.621828
0.837695	1.622357
0.837793	1.623331
0.837891	1.624858
0.837988	1.626868
0.838086	1.629147
0.838184	1.631653
0.838281	1.634155
0.838379	1.636738
0.838477	1.638880
0.838574	1.640519
0.838672	1.641259
0.838770	1.641367
0.838867	1.641012
0.838965	1.640514
0.839062	1.639468
0.839160	1.637399
0.839258	1.634607
0.839355	1.631299
0.839453	1.627880
0.839551	1.624892
0.839648	1.622602
0.839746	1.620917
0.839844	1.620086
0.839941	1.619873
0.840039	1.620350
0.840137	1.621609
0.840234	1.623254
0.840332	1.625407
0.840430	1.627767
0.840527	1.630266
0.840625	1.632785
0.840723	1.635135
0.840820	1.637339
0.840918	1.638971
0.841016	1.639959
0.841113	1.640090
0.841211	1.639268
0.841309	1.638115
0.841406	1.636847
0.841504	1.635498
0.841602	1.634084
0.841699	1.632392
0.841797	1.629999
0.841895	1.627182
0.841992	1.624231
0.842090	1.621903
0.842187	1.620012
0.842285	1.618944
0.842383	1.618567
0.842480	1.619084
0.842578	1.620676
0.842676	1.622772
0.842773	1.625434
0.842871	1.628482
0.842969	1.631553
0.843066	1.634644
0.843164	1.637494
0.843262	1.639968
0.843359	1.641875
0.843457	1.643169
0.843555	1.643191
0.843652	1.641270
0.843750	1.639458
0.843848	1.637811
0.843945	1.634104
0.844043	1.629916
0.844141	1.627713
0.844238	1.626735
0.844336	1.625879
0.844434	1.624662
0.844531	1.623287
0.844629	1.622190
0.844727	1.621733
0.844824	1.621840
0.844922	1.622508
0.845020	1.623696
0.845117	1.625327
0.845215	1.627234
0.845312	1.629267
0.845410	1.631657
0.845508	1.634046
0.845605	1.636319
0.845703	1.638554
0.845801	1.640381
0.845898	1.641463
0.845996	1.641366
0.846094	1.640231
0.846191	1.638382
0.846289	1.635958
0.846387	1.633541
0.846484	1.631389
0.846582	1.629322
0.846680	1.627328
0.846777	1.625031
0.846875	1.622808
0.846973	1.621005
0.847070	1.620020
0.847168	1.619926
0.847266	1.620653
0.847363	1.622188
0.847461	1.624158
0.847559	1.626714
0.847656	1.629239
0.847754	1.631804
0.847852	1.634107
0.847949	1.636053
0.848047	1.637711
0.848145	1.639159
0.848242	1.640397
0.848340	1.640948
0.848437	1.640810
0.848535	1.639946
0.848633	1.638512
0.848730	1.636578
0.848828	1.633621
0.848926	1.630013
0.849023	1.626611
0.849121	1.623810
0.849219	1.621642
0.849316	1.620214
0.849414	1.619430
0.849512	1.619364
0.849609	1.619971
0.849707	1.621365
0.849805	1.623092
0.849902	1.625359
0.850000	1.627901
0.850098	1.630341
0.850195	1.632632
0.850293	1.634692
0.850391	1.636317
0.850488	1.637487
0.850586	1.638025
0.850684	1.638061
0.850781	1.637641
0.850879	1.636503
0.850977	1.634977
0.851074	1.633095
0.851172	1.631440
0.851270	1.629692
0.851367	1.627920
0.851465	1.626081
0.851562	1.624602
0.851660	1.623337
0.851758	1.622566
0.851855	1.622324
0.851953	1.622650
0.852051	1.623564
0.852148	1.625023
0.852246	1.626877
0.852344	1.629196
0.852441	1.631739
0.852539	1.634479
0.852637	1.637196
0.852734	1.639316
0.852832	1.641036
0.852930	1.641884
0.853027	1.641893
0.853125	1.640988
0.853223	1.639500
0.853320	1.637954
0.853418	1.635979
0.853516	1.633888
0.853613	1.632068
0.853711	1.630501
0.853809	1.628582
0.853906	1.625464
0.854004	1.622555
0.854102	1.620499
0.854199	1.619422
0.854297	1.619203
0.854395	1.619680
0.854492	1.620987
0.854590	1.622925
0.854687	1.625423
0.854785	1.628101
0.854883	1.631077
0.854980	1.633952
0.855078	1.636530
0.855176	1.638537
0.855273	1.639902
0.855371	1.640480
0.855469	1.640413
0.855566	1.639990
0.855664	1.639120
0.855762	1.637694
0.855859	1.635497
0.855957	1.633137
0.856055	1.631073
0.856152	1.629008
0.856250	1.626937
0.856348	1.624824
0.856445	1.622934
0.856543	1.621480
0.856641	1.620533
0.856738	1.620211
0.856836	1.620732
0.856934	1.622170
0.857031	1.624512
0.857129	1.627229
0.857227	1.630356
0.857324	1.633205
0.857422	1.635757
0.857520	1.637779
0.857617	1.639390
0.857715	1.640528
0.857812	1.640818
0.857910	1.639625
0.858008	1.637353
0.858105	1.634567
0.858203	1.631874
0.858301	1.629469
0.858398	1.627168
0.858496	1.625270
0.858594	1.623480
0.858691	1.622110
0.858789	1.620981
0.858887	1.620423
0.858984	1.620433
0.859082	1.621222
0.859180	1.622459
0.859277	1.624220
0.859375	1.626354
0.859473	1.628797
0.859570	1.631114
0.859668	1.633382
0.859766	1.635292
0.859863	1.636830
0.859961	1.637987
0.860059	1.638787
0.860156	1.638825
0.860254	1.638291
0.860352	1.637112
0.860449	1.635570
0.860547	1.633839
0.860645	1.632146
0.860742	1.630537
0.860840	1.628973
0.860937	1.627446
0.861035	1.625706
0.861133	1.624057
0.861230	1.622538
0.861328	1.621643
0.861426	1.621538
0.861523	1.622018
0.861621	1.623269
0.861719	1.624970
0.861816	1.627093
0.861914	1.629453
0.862012	1.632040
0.862109	1.634568
0.862207	1.636917
0.862305	1.639059
0.862402	1.640569
0.862500	1.641270
0.862598	1.641278
0.862695	1.640509
0.862793	1.639460
0.862891	1.638266
0.862988	1.637152
0.863086	1.635900
0.863184	1.633875
0.863281	1.631284
0.863379	1.628753
0.863477	1.626276
0.863574	1.623865
0.863672	1.621480
0.863770	1.619890
0.863867	1.618981
0.863965	1.619413
0.864062	1.620714
0.864160	1.622827
0.864258	1.625257
0.864355	1.628191
0.864453	1.630990
0.864551	1.633874
0.864648	1.636459
0.864746	1.638789
0.864844	1.640697
0.864941	1.642165
0.865039	1.643478
0.865137	1.644165
0.865234	1.641637
0.865332	1.637386
0.865430	1.633676
0.865527	1.630147
0.865625	1.626938
0.865723	1.623964
0.865820	1.621562
0.865918	1.619701
0.866016	1.618503
0.866113	1.618098
0.866211	1.618317
0.866309	1.619480
0.866406	1.621285
0.866504	1.623774
0.866602	1.626775
0.866699	1.630223
0.866797	1.633692
0.866895	1.636678
0.866992	1.638380
0.867090	1.639210
0.867187	1.638917
0.867285	1.637911
0.867383	1.637489
0.867480	1.637635
0.867578	1.637567
0.867676	1.636653
0.867773	1.635293
0.867871	1.633199
0.867969	1.630813
0.868066	1.628276
0.868164	1.625895
0.868262	1.623591
0.868359	1.621816
0.868457	1.620424
0.868555	1.619753
0.868652	1.619828
0.868750	1.620790
0.868848	1.622368
0.868945	1.624367
0.869043	1.626846
0.869141	1.629372
0.869238	1.631887
0.869336	1.634050
0.869434	1.635901
0.869531	1.637034
0.869629	1.637542
0.869727	1.637374
0.869824	1.636682
0.869922	1.635623
0.870020	1.634456
0.870117	1.633059
0.870215	1.631642
0.870312	1.630131
0.870410	1.628443
0.870508	1.626708
0.870605	1.624820
0.870703	1.623019
0.870801	1.621631
0.870898	1.620763
0.870996	1.620551
0.871094	1.621057
0.871191	1.622119
0.871289	1.623763
0.871387	1.625814
0.871484	1.628123
0.871582	1.630550
0.871680	1.633142
0.871777	1.635748
0.871875	1.638312
0.871973	1.640706
0.872070	1.642535
0.872168	1.643485
0.872266	1.643503
0.872363	1.641968
0.872461	1.639493
0.872559	1.636226
0.872656	1.632733
0.872754	1.629548
0.872852	1.626730
0.872949	1.624120
0.873047	1.621864
0.873145	1.620031
0.873242	1.618949
0.873340	1.618593
0.873437	1.619219
0.873535	1.620562
0.873633	1.622655
0.873730	1.625362
0.873828	1.628476
0.873926	1.631683
0.874023	1.634882
0.874121	1.637501
0.874219	1.639298
0.874316	1.639993
0.874414	1.639810
0.874512	1.639068
0.874609	1.638114
0.874707	1.636947
0.874805	1.635432
0.874902	1.633903
0.875000	1.632090
0.875098	1.630112
0.875195	1.627787
0.875293	1.625601
0.875391	1.623617
0.875488	1.622085
0.875586	1.620729
0.875684	1.620153
0.875781	1.620134
0.875879	1.620923
0.875977	1.622248
0.876074	1.624253
0.876172	1.626576
0.876270	1.629068
0.876367	1.631746
0.876465	1.634148
0.876562	1.636392
0.876660	1.638062
0.876758	1.639397
0.876855	1.640253
0.876953	1.640408
0.877051	1.640016
0.877148	1.638895
0.877246	1.637371
0.877344	1.635535
0.877441	1.633618
0.877539	1.631514
0.877637	1.629052
0.877734	1.626243
0.877832	1.623474
0.877930	1.621182
0.878027	1.619358
0.878125	1.618464
0.878223	1.618385
0.878320	1.619223
0.878418	1.620815
0.878516	1.622842
0.878613	1.625536
0.878711	1.628479
0.878809	1.631542
0.878906	1.634670
0.879004	1.637609
0.879102	1.640149
0.879199	1.642203
0.879297	1.643360
0.879395	1.643154
0.879492	1.642233
0.879590	1.640713
0.879687	1.638120
0.879785	1.632297
0.879883	1.627459
0.879980	1.625013
0.880078	1.623334
0.880176	1.621688
0.880273	1.620150
0.880371	1.618982
0.880469	1.618334
0.880566	1.618542
0.880664	1.619370
0.880762	1.620866
0.880859	1.622986
0.880957	1.625590
0.881055	1.628402
0.881152	1.631312
0.881250	1.634080
0.881348	1.636741
0.881445	1.638939
0.881543	1.640514
0.881641	1.641260
0.881738	1.640996
0.881836	1.640579
0.881934	1.639479
0.882031	1.637739
0.882129	1.635561
0.882227	1.632866
0.882324	1.629280
0.882422	1.625282
0.882520	1.622108
0.882617	1.619461
0.882715	1.617856
0.882812	1.617018
0.882910	1.617217
0.883008	1.618059
0.883105	1.619701
0.883203	1.621771
0.883301	1.624338
0.883398	1.627231
0.883496	1.630249
0.883594	1.633321
0.883691	1.636267
0.883789	1.638826
0.883887	1.640686
0.883984	1.641535
0.884082	1.641145
0.884180	1.639800
0.884277	1.637791
0.884375	1.635722
0.884473	1.633999
0.884570	1.632380
0.884668	1.630726
0.884766	1.628724
0.884863	1.626634
0.884961	1.624619
0.885059	1.622663
0.885156	1.621134
0.885254	1.620076
0.885352	1.619679
0.885449	1.619848
0.885547	1.620856
0.885645	1.622480
0.885742	1.624555
0.885840	1.627049
0.885937	1.629783
0.886035	1.632601
0.886133	1.635246
0.886230	1.637426
0.886328	1.639082
0.886426	1.639921
0.886523	1.640227
0.886621	1.640019
0.886719	1.639133
0.886816	1.637350
0.886914	1.635478
0.887012	1.634031
0.887109	1.632300
0.887207	1.630324
0.887305	1.628271
0.887402	1.626381
0.887500	1.624775
0.887598	1.623212
0.887695	1.622019
0.887793	1.621541
0.887891	1.621882
0.887988	1.623018
0.888086	1.624781
0.888184	1.627164
0.888281	1.629781
0.888379	1.632597
0.888477	1.635310
0.888574	1.637758
0.888672	1.639675
0.888770	1.640533
0.888867	1.640480
0.888965	1.639241
0.889062	1.637520
0.889160	1.635418
0.889258	1.633260
0.889355	1.630928
0.889453	1.628931
0.889551	1.627179
0.889648	1.625804
0.889746	1.624179
0.889844	1.622339
0.889941	1.620980
0.890039	1.620376
0.890137	1.620453
0.890234	1.621271
0.890332	1.622807
0.890430	1.624573
0.890527	1.626953
0.890625	1.629779
0.890723	1.632586
0.890820	1.635591
0.890918	1.638609
0.891016	1.640957
0.891113	1.642404
0.891211	1.643175
0.891309	1.643082
0.891406	1.642098
0.891504	1.640658
0.891602	1.638773
0.891699	1.636489
0.891797	1.633413
0.891895	1.630335
0.891992	1.627425
0.892090	1.625303
0.892187	1.623604
0.892285	1.622276
0.892383	1.621608
0.892480	1.621495
0.892578	1.622309
0.892676	1.623609
0.892773	1.625443
0.892871	1.627948
0.892969	1.630468
0.893066	1.633283
0.893164	1.636082
0.893262	1.638556
0.893359	1.640585
0.893457	1.641803
0.893555	1.641817
0.893652	1.640752
0.893750	1.638829
0.893848	1.636973
0.893945	1.635553
0.894043	1.633892
0.894141	1.631884
0.894238	1.629987
0.894336	1.628295
0.894434	1.626296
0.894531	1.624065
0.894629	1.622073
0.894727	1.620925
0.894824	1.620411
0.894922	1.620661
0.895020	1.621769
0.895117	1.623472
0.895215	1.625848
0.895312	1.628670
0.895410	1.631664
0.895508	1.634708
0.895605	1.637569
0.895703	1.639932
0.895801	1.641183
0.895898	1.641185
0.895996	1.640212
0.896094	1.638655
0.896191	1.636222
0.896289	1.633862
0.896387	1.631876
0.896484	1.630141
0.896582	1.628533
0.896680	1.626890
0.896777	1.625103
0.896875	1.623669
0.896973	1.622498
0.897070	1.621736
0.897168	1.621573
0.897266	1.621920
0.897363	1.622916
0.897461	1.624423
0.897559	1.626407
0.897656	1.628774
0.897754	1.631222
0.897852	1.633685
0.897949	1.635782
0.898047	1.637330
0.898145	1.638205
0.898242	1.638352
0.898340	1.638023
0.898437	1.637479
0.898535	1.636475
0.898633	1.635212
0.898730	1.633774
0.898828	1.632274
0.898926	1.630781
0.899023	1.629174
0.899121	1.627425
0.899219	1.625696
0.899316	1.623947
0.899414	1.622673
0.899512	1.621646
0.899609	1.621376
0.899707	1.621653
0.899805	1.622679
0.899902	1.624120
0.900000	1.626195
0.900098	1.628471
0.900195	1.631066
0.900293	1.633604
0.900391	1.636008
0.900488	1.638177
0.900586	1.640005
0.900684	1.641682
0.900781	1.642915
0.900879	1.643086
0.900977	1.642081
0.901074	1.640193
0.901172	1.637749
0.901270	1.634626
0.901367	1.631974
0.901465	1.628577
0.901562	1.624964
0.901660	1.622295
0.901758	1.620574
0.901855	1.619773
0.901953	1.619740
0.902051	1.620509
0.902148	1.621913
0.902246	1.624031
0.902344	1.626603
0.902441	1.629604
0.902539	1.632849
0.902637	1.636182
0.902734	1.638653
0.902832	1.640038
0.902930	1.640517
0.903027	1.641107
0.903125	1.641165
0.903223	1.638747
0.903320	1.637624
0.903418	1.637028
0.903516	1.636328
0.903613	1.634802
0.903711	1.632795
0.903809	1.630529
0.903906	1.628374
0.904004	1.625672
0.904102	1.622767
0.904199	1.620371
0.904297	1.619073
0.904395	1.618668
0.904492	1.618855
0.904590	1.619634
0.904687	1.621197
0.904785	1.623088
0.904883	1.625510
0.904980	1.628324
0.905078	1.631159
0.905176	1.634047
0.905273	1.636711
0.905371	1.638949
0.905469	1.640409
0.905566	1.640892
0.905664	1.640486
0.905762	1.639623
0.905859	1.638420
0.905957	1.636854
0.906055	1.634964
0.906152	1.632805
0.906250	1.630159
0.906348	1.627736
0.906445	1.625421
0.906543	1.623430
0.906641	1.621722
0.906738	1.620737
0.906836	1.620313
0.906934	1.620620
0.907031	1.621662
0.907129	1.623500
0.907227	1.625823
0.907324	1.628468
0.907422	1.631325
0.907520	1.633988
0.907617	1.636279
0.907715	1.637938
0.907812	1.638870
0.907910	1.639060
0.908008	1.638823
0.908105	1.637916
0.908203	1.636270
0.908301	1.634520
0.908398	1.632939
0.908496	1.631152
0.908594	1.629129
0.908691	1.626746
0.908789	1.624581
0.908887	1.622459
0.908984	1.620830
0.909082	1.619996
0.909180	1.619862
0.909277	1.620614
0.909375	1.622168
0.909473	1.624284
0.909570	1.626778
0.909668	1.629745
0.909766	1.632682
0.909863	1.635578
0.909961	1.638189
0.910059	1.640144
0.910156	1.641317
0.910254	1.641770
0.910352	1.641200
0.910449	1.640065
0.910547	1.638916
0.910645	1.637599
0.910742	1.635541
0.910840	1.632211
0.910937	1.629050
0.911035	1.626620
0.911133	1.624381
0.911230	1.622557
0.911328	1.621170
0.911426	1.620213
0.911523	1.619795
0.911621	1.619890
0.911719	1.620640
0.911816	1.621977
0.911914	1.623854
0.912012	1.626202
0.912109	1.628866
0.912207	1.631768
0.912305	1.634507
0.912402	1.636966
0.912500	1.639078
0.912598	1.640719
0.912695	1.641713
0.912793	1.642020
0.912891	1.641615
0.912988	1.640358
0.913086	1.638564
0.913184	1.636974
0.913281	1.634986
0.913379	1.632117
0.913477	1.628659
0.913574	1.624812
0.913672	1.621671
0.913770	1.619591
0.913867	1.618741
0.913965	1.618860
0.914062	1.620017
0.914160	1.621729
0.914258	1.623919
0.914355	1.626519
0.914453	1.629359
0.914551	1.632154
0.914648	1.634938
0.914746	1.637229
0.914844	1.639213
0.914941	1.640570
0.915039	1.641816
0.915137	1.642198
0.915234	1.636446
0.915332	1.633136
0.915430	1.631750
0.915527	1.629900
0.915625	1.628462
0.915723	1.626765
0.915820	1.625391
0.915918	1.623826
0.916016	1.622658
0.916113	1.621623
0.916211	1.621023
0.916309	1.620850
0.916406	1.621324
0.916504	1.622199
0.916602	1.623845
0.916699	1.625978
0.916797	1.628374
0.916895	1.631332
0.916992	1.634576
0.917090	1.637910
0.917187	1.640975
0.917285	1.643037
0.917383	1.643740
0.917480	1.643329
0.917578	1.641946
0.917676	1.638977
0.917773	1.632576
0.917871	1.628693
0.917969	1.627946
0.918066	1.627430
0.918164	1.626326
0.918262	1.624936
0.918359	1.623583
0.918457	1.622536
0.918555	1.621672
0.918652	1.621160
0.918750	1.621240
0.918848	1.621853
0.918945	1.623344
0.919043	1.625335
0.919141	1.627757
0.919238	1.630342
0.919336	1.632951
0.919434	1.635343
0.919531	1.637472
0.919629	1.639193
0.919727	1.640141
0.919824	1.640318
0.919922	1.639824
0.920020	1.638607
0.920117	1.636892
0.920215	1.634660
0.920312	1.632417
0.920410	1.630319
0.920508	1.628389
0.920605	1.626517
0.920703	1.624874
0.920801	1.623464
0.920898	1.622387
0.920996	1.621761
0.921094	1.621595
0.921191	1.622058
0.921289	1.623059
0.921387	1.624521
0.921484	1.626334
0.921582	1.628643
0.921680	1.630973
0.921777	1.633537
0.921875	1.636018
0.921973	1.638338
0.922070	1.639964
0.922168	1.640832
0.922266	1.640837
0.922363	1.640315
0.922461	1.639560
0.922559	1.638911
0.922656	1.637077
0.922754	1.634864
0.922852	1.632360
0.922949	1.629795
0.923047	1.627394
0.923145	1.624972
0.923242	1.622716
0.923340	1.621021
0.923437	1.619896
0.923535	1.619427
0.923633	1.619660
0.923730	1.620614
0.923828	1.622243
0.923926	1.624473
0.924023	1.627170
0.924121	1.630147
0.924219	1.633108
0.924316	1.635983
0.924414	1.638234
0.924512	1.639883
0.924609	1.640472
0.924707	1.640248
0.924805	1.639191
0.924902	1.637725
0.925000	1.636064
0.925098	1.634438
0.925195	1.632666
0.925293	1.630660
0.925391	1.628546
0.925488	1.626393
0.925586	1.624288
0.925684	1.622417
0.925781	1.621024
0.925879	1.620294
0.925977	1.620450
0.926074	1.621228
0.926172	1.622891
0.926270	1.624875
0.926367	1.627470
0.926465	1.630269
0.926562	1.632919
0.926660	1.635639
0.926758	1.637773
0.926855	1.639460
0.926953	1.640562
0.927051	1.640993
0.927148	1.640555
0.927246	1.639539
0.927344	1.637976
0.927441	1.636234
0.927539	1.634228
0.927637	1.632214
0.927734	1.630210
0.927832	1.628522
0.927930	1.626866
0.928027	1.625204
0.928125	1.623629
0.928223	1.622449
0.928320	1.621849
0.928418	1.622173
0.928516	1.622928
0.928613	1.624374
0.928711	1.626264
0.928809	1.628367
0.928906	1.630700
0.929004	1.633173
0.929102	1.635511
0.929199	1.637731
0.929297	1.639438
0.929395	1.640243
0.929492	1.640021
0.929590	1.638526
0.929687	1.636674
0.929785	1.635174
0.929883	1.633823
0.929980	1.632073
0.930078	1.630173
0.930176	1.628135
0.930273	1.625476
0.930371	1.623744
0.930469	1.622569
0.930566	1.621979
0.930664	1.621972
0.930762	1.622404
0.930859	1.623522
0.930957	1.625077
0.931055	1.627223
0.931152	1.629577
0.931250	1.632123
0.931348	1.634670
0.931445	1.636828
0.931543	1.638506
0.931641	1.639733
0.931738	1.640415
0.931836	1.640855
0.931934	1.640873
0.932031	1.640487
0.932129	1.639307
0.932227	1.637468
0.932324	1.634883
0.932422	1.631837
0.932520	1.628902
0.932617	1.626191
0.932715	1.623658
0.932812	1.621648
0.932910	1.620192
0.933008	1.619372
0.933105	1.619436
0.933203	1.620169
0.933301	1.621557
0.933398	1.623502
0.933496	1.626013
0.933594	1.628747
0.933691	1.631545
0.933789	1.634412
0.933887	1.636956
0.933984	1.639008
0.934082	1.640203
0.934180	1.640350
0.934277	1.639835
0.934375	1.638909
0.934473	1.637668
0.934570	1.636164
0.934668	1.634135
0.934766	1.631807
0.934863	1.629327
0.934961	1.627113
0.935059	1.625116
0.935156	1.623274
0.935254	1.621914
0.935352	1.621057
0.935449	1.620713
0.935547	1.621288
0.935645	1.622462
0.935742	1.624275
0.935840	1.626697
0.935937	1.629377
0.936035	1.632154
0.936133	1.634986
0.936230	1.637529
0.936328	1.639555
0.936426	1.640518
0.936523	1.640155
0.936621	1.638740
0.936719	1.637206
0.936816	1.636032
0.936914	1.634752
0.937012	1.633490
0.937109	1.631224
0.937207	1.628489
0.937305	1.626137
0.937402	1.624712
0.937500	1.623888
0.937598	1.623551
0.937695	1.623283
0.937793	1.623091
0.937891	1.623211
0.937988	1.623943
0.938086	1.625283
0.938184	1.627302
0.938281	1.629582
0.938379	1.632327
0.938477	1.635189
0.938574	1.637967
0.938672	1.640323
0.938770	1.641026
0.938867	1.641020
0.938965	1.641361
0.939062	1.641234
0.939160	1.639981
0.939258	1.638158
0.939355	1.636275
0.939453	1.634251
0.939551	1.631400
0.939648	1.628178
0.939746	1.625285
0.939844	1.622721
0.939941	1.621018
0.940039	1.619909
0.940137	1.619568
0.940234	1.619950
0.940332	1.621002
0.940430	1.622741
0.940527	1.624951
0.940625	1.627585
0.940723	1.630384
0.940820	1.633248
0.940918	1.635969
0.941016	1.638135
0.941113	1.639509
0.941211	1.639795
0.941309	1.638844
0.941406	1.637511
0.941504	1.635974
0.941602	1.634307
0.941699	1.632265
0.941797	1.630323
0.941895	1.628446
0.941992	1.626842
0.942090	1.625395
0.942187	1.624070
0.942285	1.623266
0.942383	1.622731
0.942480	1.622852
0.942578	1.623538
0.942676	1.624821
0.942773	1.626514
0.942871	1.628704
0.942969	1.631126
0.943066	1.633831
0.943164	1.636485
0.943262	1.638498
0.943359	1.639236
0.943457	1.639122
0.943555	1.639308
0.943652	1.638931
0.943750	1.638097
0.943848	1.636995
0.943945	1.635991
0.944043	1.634929
0.944141	1.633681
0.944238	1.632362
0.944336	1.631074
0.944434	1.628881
0.944531	1.624840
0.944629	1.621537
0.944727	1.619622
0.944824	1.618719
0.944922	1.618544
0.945020	1.619217
0.945117	1.620601
0.945215	1.622678
0.945312	1.625429
0.945410	1.628389
0.945508	1.631603
0.945605	1.634746
0.945703	1.637657
0.945801	1.640132
0.945898	1.641907
0.945996	1.642844
0.946094	1.642751
0.946191	1.641318
0.946289	1.639241
0.946387	1.636264
0.946484	1.633012
0.946582	1.629987
0.946680	1.626971
0.946777	1.624262
0.946875	1.621799
0.946973	1.619857
0.947070	1.618678
0.947168	1.618043
0.947266	1.618223
0.947363	1.619247
0.947461	1.620749
0.947559	1.622870
0.947656	1.625328
0.947754	1.627891
0.947852	1.630678
0.947949	1.633319
0.948047	1.635909
0.948145	1.637939
0.948242	1.639498
0.948340	1.640219
0.948437	1.640516
0.948535	1.640688
0.948633	1.640802
0.948730	1.640581
0.948828	1.639123
0.948926	1.636409
0.949023	1.632751
0.949121	1.629153
0.949219	1.626074
0.949316	1.623200
0.949414	1.621190
0.949512	1.619585
0.949609	1.618448
0.949707	1.618280
0.949805	1.618929
0.949902	1.620443
0.950000	1.622423
0.950098	1.624687
0.950195	1.627279
0.950293	1.629854
0.950391	1.632489
0.950488	1.634779
0.950586	1.636717
0.950684	1.638129
0.950781	1.638944
0.950879	1.638992
0.950977	1.638440
0.951074	1.637627
0.951172	1.636531
0.951270	1.634917
0.951367	1.632778
0.951465	1.630058
0.951562	1.627329
0.951660	1.624934
0.951758	1.623014
0.951855	1.621556
0.951953	1.620765
0.952051	1.620554
0.952148	1.620868
0.952246	1.621756
0.952344	1.623179
0.952441	1.624960
0.952539	1.627370
0.952637	1.629947
0.952734	1.632572
0.952832	1.635027
0.952930	1.637258
0.953027	1.638873
0.953125	1.639999
0.953223	1.640428
0.953320	1.640478
0.953418	1.640026
0.953516	1.639203
0.953613	1.637676
0.953711	1.635526
0.953809	1.633142
0.953906	1.630932
0.954004	1.628877
0.954102	1.626565
0.954199	1.624323
0.954297	1.622500
0.954395	1.620921
0.954492	1.619843
0.954590	1.619533
0.954687	1.620072
0.954785	1.621435
0.954883	1.623487
0.954980	1.626087
0.955078	1.628910
0.955176	1.631827
0.955273	1.634603
0.955371	1.636844
0.955469	1.638372
0.955566	1.639372
0.955664	1.639907
0.955762	1.640048
0.955859	1.639565
0.955957	1.638553
0.956055	1.637096
0.956152	1.635419
0.956250	1.633469
0.956348	1.631052
0.956445	1.628165
0.956543	1.625222
0.956641	1.622586
0.956738	1.620572
0.956836	1.619381
0.956934	1.618917
0.957031	1.619270
0.957129	1.620365
0.957227	1.622178
0.957324	1.624303
0.957422	1.626970
0.957520	1.629687
0.957617	1.632503
0.957715	1.635104
0.957812	1.637547
0.957910	1.639393
0.958008	1.640431
0.958105	1.640734
0.958203	1.640650
0.958301	1.639885
0.958398	1.638508
0.958496	1.636710
0.958594	1.634858
0.958691	1.632865
0.958789	1.630821
0.958887	1.628713
0.958984	1.626388
0.959082	1.624302
0.959180	1.622304
0.959277	1.620856
0.959375	1.620132
0.959473	1.620320
0.959570	1.621104
0.959668	1.622718
0.959766	1.624870
0.959863	1.627311
0.959961	1.630017
0.960059	1.632860
0.960156	1.635378
0.960254	1.637610
0.960352	1.639331
0.960449	1.640613
0.960547	1.641112
0.960645	1.640885
0.960742	1.639841
0.960840	1.638057
0.960937	1.635962
0.961035	1.633743
0.961133	1.630981
0.961230	1.628177
0.961328	1.625415
0.961426	1.623080
0.961523	1.621280
0.961621	1.620070
0.961719	1.619539
0.961816	1.619750
0.961914	1.620712
0.962012	1.622257
0.962109	1.624232
0.962207	1.626504
0.962305	1.628944
0.962402	1.631259
0.962500	1.633400
0.962598	1.635400
0.962695	1.636935
0.962793	1.637942
0.962891	1.638379
0.962988	1.638387
0.963086	1.637826
0.963184	1.636964
0.963281	1.635855
0.963379	1.634722
0.963477	1.633491
0.963574	1.632283
0.963672	1.630670
0.963770	1.628801
0.963867	1.626850
0.963965	1.625047
0.964062	1.623533
0.964160	1.622572
0.964258	1.622378
0.964355	1.623070
0.964453	1.624516
0.964551	1.626495
0.964648	1.629022
0.964746	1.631618
0.964844	1.634400
0.964941	1.636762
0.965039	1.638601
0.965137	1.639576
0.965234	1.639847
0.965332	1.639473
0.965430	1.638720
0.965527	1.637591
0.965625	1.636339
0.965723	1.634861
0.965820	1.633228
0.965918	1.631304
0.966016	1.629140
0.966113	1.626874
0.966211	1.624651
0.966309	1.622746
0.966406	1.621461
0.966504	1.620821
0.966602	1.621055
0.966699	1.621998
0.966797	1.623544
0.966895	1.625675
0.966992	1.628059
0.967090	1.630661
0.967187	1.633105
0.967285	1.635233
0.967383	1.636955
0.967480	1.638348
0.967578	1.639130
0.967676	1.639454
0.967773	1.639108
0.967871	1.638135
0.967969	1.636316
0.968066	1.634107
0.968164	1.631958
0.968262	1.629967
0.968359	1.627957
0.968457	1.626132
0.968555	1.624280
0.968652	1.622826
0.968750	1.621692
0.968848	1.621180
0.968945	1.621182
0.969043	1.621921
0.969141	1.623299
0.969238	1.625282
0.969336	1.627713
0.969434	1.630419
0.969531	1.633240
0.969629	1.635756
0.969727	1.637970
0.969824	1.639343
0.969922	1.640127
0.970020	1.640253
0.970117	1.639982
0.970215	1.639159
0.970312	1.637945
0.970410	1.636607
0.970508	1.635054
0.970605	1.633177
0.970703	1.631142
0.970801	1.628820
0.970898	1.626451
0.970996	1.624179
0.971094	1.622096
0.971191	1.620464
0.971289	1.620108
0.971387	1.620514
0.971484	1.621758
0.971582	1.623606
0.971680	1.625892
0.971777	1.628486
0.971875	1.631285
0.971973	1.634097
0.972070	1.636640
0.972168	1.638869
0.972266	1.640235
0.972363	1.640806
0.972461	1.640592
0.972559	1.639908
0.972656	1.638533
0.972754	1.636760
0.972852	1.634671
0.972949	1.632328
0.973047	1.629659
0.973145	1.626615
0.973242	1.623804
0.973340	1.621431
0.973437	1.619752
0.973535	1.618865
0.973633	1.618928
0.973730	1.619846
0.973828	1.621725
0.973926	1.624051
0.974023	1.627000
0.974121	1.630104
0.974219	1.633271
0.974316	1.636062
0.974414	1.638408
0.974512	1.639676
0.974609	1.639796
0.974707	1.639028
0.974805	1.637830
0.974902	1.636863
0.975000	1.635962
0.975098	1.635016
0.975195	1.633874
0.975293	1.632627
0.975391	1.631367
0.975488	1.630089
0.975586	1.628343
0.975684	1.626052
0.975781	1.623583
0.975879	1.621620
0.975977	1.620473
0.976074	1.620196
0.976172	1.620563
0.976270	1.621971
0.976367	1.623794
0.976465	1.626114

