LabVIEW Measurement	
Writer_Version	2
Reader_Version	2
Separator	Tab
Decimal_Separator	.
Multi_Headings	Yes
X_Columns	One
Time_Pref	Absolute
Operator	W-Tunnel
Date	1904/01/01
Time	01:00:00
***End_of_Header***	
	
Channels	1	
Samples	10000	
Date	2024/05/17	
Time	18:33:11.4179413562497959956	
Y_Unit_Label	Volts	
X_Dimension	Time	
X0	0.0000000000000000E+0	
Delta_X	9.765625E-5	
***End_of_Header***		
X_Value	Voltage	Comment
0.000000	1.643442
9.765625E-5	1.646673
0.000195	1.650801
0.000293	1.656151
0.000391	1.662955
0.000488	1.673025
0.000586	1.683600
0.000684	1.703014
0.000781	1.695514
0.000879	1.688170
0.000977	1.693895
0.001074	1.709427
0.001172	1.711732
0.001270	1.692653
0.001367	1.692262
0.001465	1.702530
0.001562	1.712796
0.001660	1.715067
0.001758	1.700196
0.001855	1.679619
0.001953	1.676970
0.002051	1.684507
0.002148	1.694635
0.002246	1.709098
0.002344	1.697412
0.002441	1.685450
0.002539	1.700959
0.002637	1.713944
0.002734	1.694464
0.002832	1.688296
0.002930	1.696933
0.003027	1.708780
0.003125	1.728231
0.003223	1.709860
0.003320	1.716588
0.003418	1.743220
0.003516	1.719587
0.003613	1.668123
0.003711	1.621050
0.003809	1.637637
0.003906	1.714790
0.004004	1.662449
0.004102	1.698045
0.004199	1.713527
0.004297	1.720223
0.004395	1.712634
0.004492	1.717944
0.004590	1.734055
0.004687	1.709988
0.004785	1.709341
0.004883	1.668820
0.004980	1.729243
0.005078	1.729211
0.005176	1.700759
0.005273	1.625933
0.005371	1.584734
0.005469	1.537082
0.005566	1.522046
0.005664	1.473249
0.005762	1.505778
0.005859	1.559500
0.005957	1.578560
0.006055	1.615540
0.006152	1.631135
0.006250	1.657748
0.006348	1.671145
0.006445	1.677228
0.006543	1.688149
0.006641	1.664185
0.006738	1.608115
0.006836	1.519306
0.006934	1.531570
0.007031	1.550935
0.007129	1.557413
0.007227	1.564231
0.007324	1.566011
0.007422	1.598216
0.007520	1.615842
0.007617	1.587560
0.007715	1.587056
0.007812	1.596523
0.007910	1.587451
0.008008	1.619180
0.008105	1.658153
0.008203	1.659223
0.008301	1.663591
0.008398	1.625769
0.008496	1.639176
0.008594	1.642149
0.008691	1.610616
0.008789	1.591620
0.008887	1.554595
0.008984	1.532871
0.009082	1.517994
0.009180	1.495994
0.009277	1.462465
0.009375	1.463879
0.009473	1.469549
0.009570	1.528130
0.009668	1.506745
0.009766	1.475648
0.009863	1.491632
0.009961	1.470102
0.010059	1.437936
0.010156	1.411053
0.010254	1.453658
0.010352	1.433238
0.010449	1.382060
0.010547	1.370230
0.010645	1.380775
0.010742	1.486080
0.010840	1.520929
0.010937	1.502839
0.011035	1.517288
0.011133	1.511345
0.011230	1.480497
0.011328	1.467275
0.011426	1.458981
0.011523	1.446806
0.011621	1.473412
0.011719	1.487358
0.011816	1.441948
0.011914	1.423153
0.012012	1.409115
0.012109	1.491180
0.012207	1.507098
0.012305	1.494910
0.012402	1.458903
0.012500	1.438826
0.012598	1.408792
0.012695	1.403933
0.012793	1.466756
0.012891	1.509787
0.012988	1.549988
0.013086	1.549122
0.013184	1.554692
0.013281	1.560531
0.013379	1.541321
0.013477	1.573051
0.013574	1.584206
0.013672	1.557264
0.013770	1.603525
0.013867	1.606445
0.013965	1.629334
0.014062	1.659654
0.014160	1.630691
0.014258	1.572980
0.014355	1.562885
0.014453	1.525639
0.014551	1.539893
0.014648	1.513136
0.014746	1.478468
0.014844	1.490206
0.014941	1.464738
0.015039	1.481563
0.015137	1.464632
0.015234	1.460569
0.015332	1.443766
0.015430	1.450339
0.015527	1.474311
0.015625	1.478909
0.015723	1.482842
0.015820	1.503489
0.015918	1.541874
0.016016	1.559273
0.016113	1.572542
0.016211	1.588106
0.016309	1.620435
0.016406	1.637475
0.016504	1.615751
0.016602	1.517100
0.016699	1.473441
0.016797	1.479434
0.016895	1.472461
0.016992	1.437023
0.017090	1.534121
0.017187	1.601786
0.017285	1.614338
0.017383	1.597325
0.017480	1.562169
0.017578	1.552364
0.017676	1.565718
0.017773	1.567541
0.017871	1.537106
0.017969	1.535923
0.018066	1.562098
0.018164	1.555632
0.018262	1.561311
0.018359	1.589858
0.018457	1.603904
0.018555	1.623297
0.018652	1.618910
0.018750	1.579659
0.018848	1.528621
0.018945	1.507481
0.019043	1.544757
0.019141	1.608938
0.019238	1.631284
0.019336	1.634461
0.019434	1.623729
0.019531	1.585179
0.019629	1.590966
0.019727	1.623041
0.019824	1.629507
0.019922	1.655723
0.020020	1.673969
0.020117	1.666086
0.020215	1.666196
0.020312	1.665473
0.020410	1.656083
0.020508	1.653572
0.020605	1.647673
0.020703	1.624552
0.020801	1.602887
0.020898	1.650399
0.020996	1.668637
0.021094	1.675753
0.021191	1.677277
0.021289	1.703167
0.021387	1.696551
0.021484	1.699392
0.021582	1.709390
0.021680	1.672733
0.021777	1.672989
0.021875	1.670112
0.021973	1.645428
0.022070	1.629292
0.022168	1.624255
0.022266	1.666340
0.022363	1.631967
0.022461	1.644934
0.022559	1.700956
0.022656	1.721878
0.022754	1.732182
0.022852	1.737425
0.022949	1.734658
0.023047	1.731218
0.023145	1.711561
0.023242	1.674053
0.023340	1.659533
0.023437	1.660037
0.023535	1.598329
0.023633	1.603390
0.023730	1.617741
0.023828	1.622312
0.023926	1.598903
0.024023	1.591494
0.024121	1.571117
0.024219	1.523584
0.024316	1.537324
0.024414	1.538087
0.024512	1.613491
0.024609	1.597615
0.024707	1.600776
0.024805	1.611755
0.024902	1.592280
0.025000	1.612174
0.025098	1.559706
0.025195	1.557235
0.025293	1.536711
0.025391	1.586016
0.025488	1.582203
0.025586	1.585959
0.025684	1.583209
0.025781	1.603312
0.025879	1.652280
0.025977	1.662987
0.026074	1.672524
0.026172	1.671595
0.026270	1.668636
0.026367	1.668776
0.026465	1.669222
0.026562	1.673883
0.026660	1.676461
0.026758	1.643794
0.026855	1.607963
0.026953	1.641885
0.027051	1.623098
0.027148	1.611888
0.027246	1.596256
0.027344	1.567703
0.027441	1.592270
0.027539	1.596243
0.027637	1.606510
0.027734	1.617920
0.027832	1.651881
0.027930	1.686925
0.028027	1.673416
0.028125	1.706836
0.028223	1.714701
0.028320	1.694571
0.028418	1.672436
0.028516	1.679540
0.028613	1.668780
0.028711	1.601940
0.028809	1.569948
0.028906	1.545720
0.029004	1.618411
0.029102	1.626432
0.029199	1.610222
0.029297	1.621368
0.029395	1.615659
0.029492	1.594302
0.029590	1.520596
0.029687	1.492039
0.029785	1.521785
0.029883	1.562654
0.029980	1.576626
0.030078	1.588488
0.030176	1.544187
0.030273	1.560076
0.030371	1.630664
0.030469	1.635847
0.030566	1.663389
0.030664	1.687757
0.030762	1.681810
0.030859	1.642634
0.030957	1.595068
0.031055	1.574175
0.031152	1.571698
0.031250	1.567777
0.031348	1.616579
0.031445	1.616427
0.031543	1.613315
0.031641	1.624797
0.031738	1.623703
0.031836	1.620526
0.031934	1.629257
0.032031	1.635667
0.032129	1.639843
0.032227	1.640232
0.032324	1.594044
0.032422	1.572386
0.032520	1.583308
0.032617	1.597580
0.032715	1.609641
0.032812	1.580798
0.032910	1.537110
0.033008	1.471214
0.033105	1.446053
0.033203	1.460720
0.033301	1.575167
0.033398	1.601701
0.033496	1.577019
0.033594	1.572612
0.033691	1.675335
0.033789	1.659109
0.033887	1.595149
0.033984	1.589824
0.034082	1.594395
0.034180	1.622119
0.034277	1.625953
0.034375	1.635458
0.034473	1.631920
0.034570	1.638020
0.034668	1.644310
0.034766	1.642786
0.034863	1.641713
0.034961	1.651282
0.035059	1.644663
0.035156	1.622669
0.035254	1.627550
0.035352	1.584458
0.035449	1.519332
0.035547	1.458816
0.035645	1.464465
0.035742	1.519655
0.035840	1.530372
0.035937	1.542203
0.036035	1.527432
0.036133	1.501819
0.036230	1.486401
0.036328	1.434008
0.036426	1.442062
0.036523	1.486364
0.036621	1.508375
0.036719	1.533650
0.036816	1.560743
0.036914	1.548280
0.037012	1.519030
0.037109	1.527632
0.037207	1.579624
0.037305	1.611845
0.037402	1.621125
0.037500	1.649983
0.037598	1.650836
0.037695	1.650945
0.037793	1.636671
0.037891	1.633673
0.037988	1.637015
0.038086	1.641803
0.038184	1.646665
0.038281	1.652284
0.038379	1.647657
0.038477	1.642328
0.038574	1.640987
0.038672	1.647584
0.038770	1.658524
0.038867	1.663460
0.038965	1.663874
0.039062	1.659186
0.039160	1.620988
0.039258	1.567589
0.039355	1.541647
0.039453	1.547204
0.039551	1.530264
0.039648	1.606900
0.039746	1.675356
0.039844	1.674883
0.039941	1.685018
0.040039	1.700057
0.040137	1.755229
0.040234	1.727746
0.040332	1.731609
0.040430	1.698794
0.040527	1.655703
0.040625	1.628574
0.040723	1.665251
0.040820	1.683828
0.040918	1.705636
0.041016	1.689336
0.041113	1.693827
0.041211	1.679664
0.041309	1.660421
0.041406	1.672226
0.041504	1.660118
0.041602	1.607796
0.041699	1.615236
0.041797	1.613049
0.041895	1.622085
0.041992	1.640478
0.042090	1.640043
0.042187	1.590379
0.042285	1.603821
0.042383	1.631037
0.042480	1.584578
0.042578	1.590176
0.042676	1.586919
0.042773	1.564789
0.042871	1.548563
0.042969	1.573770
0.043066	1.560741
0.043164	1.556264
0.043262	1.577313
0.043359	1.577346
0.043457	1.546736
0.043555	1.528611
0.043652	1.522843
0.043750	1.564426
0.043848	1.588830
0.043945	1.554539
0.044043	1.519995
0.044141	1.537137
0.044238	1.566436
0.044336	1.516361
0.044434	1.453381
0.044531	1.431060
0.044629	1.448006
0.044727	1.400614
0.044824	1.436671
0.044922	1.492343
0.045020	1.493613
0.045117	1.545395
0.045215	1.591626
0.045312	1.566623
0.045410	1.516921
0.045508	1.515999
0.045605	1.504714
0.045703	1.452364
0.045801	1.370682
0.045898	1.353745
0.045996	1.358399
0.046094	1.455786
0.046191	1.546101
0.046289	1.572905
0.046387	1.604101
0.046484	1.631649
0.046582	1.639177
0.046680	1.657952
0.046777	1.626327
0.046875	1.664506
0.046973	1.682084
0.047070	1.679190
0.047168	1.680173
0.047266	1.684421
0.047363	1.684642
0.047461	1.667922
0.047559	1.652485
0.047656	1.639118
0.047754	1.591365
0.047852	1.596880
0.047949	1.624443
0.048047	1.560298
0.048145	1.580567
0.048242	1.630763
0.048340	1.651337
0.048437	1.629464
0.048535	1.629818
0.048633	1.613444
0.048730	1.619200
0.048828	1.573307
0.048926	1.568425
0.049023	1.604163
0.049121	1.603675
0.049219	1.670143
0.049316	1.652407
0.049414	1.657858
0.049512	1.672834
0.049609	1.675867
0.049707	1.660203
0.049805	1.581802
0.049902	1.613869
0.050000	1.602595
0.050098	1.605343
0.050195	1.603956
0.050293	1.525123
0.050391	1.508276
0.050488	1.523943
0.050586	1.517854
0.050684	1.535163
0.050781	1.551711
0.050879	1.554521
0.050977	1.543791
0.051074	1.553485
0.051172	1.557980
0.051270	1.543002
0.051367	1.517095
0.051465	1.468507
0.051562	1.499421
0.051660	1.483647
0.051758	1.503397
0.051855	1.503248
0.051953	1.525184
0.052051	1.529399
0.052148	1.551769
0.052246	1.522281
0.052344	1.557131
0.052441	1.554861
0.052539	1.567656
0.052637	1.590985
0.052734	1.586708
0.052832	1.598712
0.052930	1.611630
0.053027	1.622606
0.053125	1.598207
0.053223	1.596895
0.053320	1.585898
0.053418	1.582848
0.053516	1.586990
0.053613	1.591302
0.053711	1.594449
0.053809	1.599144
0.053906	1.603005
0.054004	1.608371
0.054102	1.613015
0.054199	1.619140
0.054297	1.624645
0.054395	1.631223
0.054492	1.636644
0.054590	1.643684
0.054687	1.648862
0.054785	1.655958
0.054883	1.662573
0.054980	1.670584
0.055078	1.672464
0.055176	1.682859
0.055273	1.667638
0.055371	1.654088
0.055469	1.680951
0.055566	1.685965
0.055664	1.685723
0.055762	1.682393
0.055859	1.690025
0.055957	1.696330
0.056055	1.705120
0.056152	1.702598
0.056250	1.701876
0.056348	1.699099
0.056445	1.696678
0.056543	1.701613
0.056641	1.708552
0.056738	1.722348
0.056836	1.732248
0.056934	1.707610
0.057031	1.694138
0.057129	1.690251
0.057227	1.698453
0.057324	1.701191
0.057422	1.682851
0.057520	1.655995
0.057617	1.629492
0.057715	1.696579
0.057812	1.661595
0.057910	1.670157
0.058008	1.666426
0.058105	1.647082
0.058203	1.642693
0.058301	1.672406
0.058398	1.709355
0.058496	1.705642
0.058594	1.704433
0.058691	1.716175
0.058789	1.704268
0.058887	1.677051
0.058984	1.641387
0.059082	1.627493
0.059180	1.647856
0.059277	1.590321
0.059375	1.611322
0.059473	1.596370
0.059570	1.588531
0.059668	1.588084
0.059766	1.588619
0.059863	1.545135
0.059961	1.503307
0.060059	1.552749
0.060156	1.608197
0.060254	1.613664
0.060352	1.590150
0.060449	1.649859
0.060547	1.622508
0.060645	1.624193
0.060742	1.628126
0.060840	1.648113
0.060937	1.664790
0.061035	1.681890
0.061133	1.670938
0.061230	1.658066
0.061328	1.660554
0.061426	1.669017
0.061523	1.649866
0.061621	1.631118
0.061719	1.570135
0.061816	1.572183
0.061914	1.636892
0.062012	1.654461
0.062109	1.678078
0.062207	1.610730
0.062305	1.562789
0.062402	1.519760
0.062500	1.461043
0.062598	1.450117
0.062695	1.414880
0.062793	1.447554
0.062891	1.499582
0.062988	1.455291
0.063086	1.444688
0.063184	1.471461
0.063281	1.499781
0.063379	1.577308
0.063477	1.592428
0.063574	1.570730
0.063672	1.532952
0.063770	1.479260
0.063867	1.488950
0.063965	1.498783
0.064062	1.520935
0.064160	1.528121
0.064258	1.539468
0.064355	1.554722
0.064453	1.564434
0.064551	1.583352
0.064648	1.590790
0.064746	1.595058
0.064844	1.600625
0.064941	1.603504
0.065039	1.607617
0.065137	1.610419
0.065234	1.615066
0.065332	1.619710
0.065430	1.627577
0.065527	1.636776
0.065625	1.647122
0.065723	1.660736
0.065820	1.668067
0.065918	1.681834
0.066016	1.679446
0.066113	1.667591
0.066211	1.680277
0.066309	1.681195
0.066406	1.678868
0.066504	1.623704
0.066602	1.630452
0.066699	1.612222
0.066797	1.572379
0.066895	1.580983
0.066992	1.581828
0.067090	1.527295
0.067187	1.538046
0.067285	1.543653
0.067383	1.525874
0.067480	1.526645
0.067578	1.558755
0.067676	1.605945
0.067773	1.571052
0.067871	1.581779
0.067969	1.608872
0.068066	1.621828
0.068164	1.625354
0.068262	1.643620
0.068359	1.655008
0.068457	1.667842
0.068555	1.669385
0.068652	1.675207
0.068750	1.678769
0.068848	1.692723
0.068945	1.699690
0.069043	1.711988
0.069141	1.702228
0.069238	1.701589
0.069336	1.707356
0.069434	1.674128
0.069531	1.685509
0.069629	1.681943
0.069727	1.669692
0.069824	1.657731
0.069922	1.634808
0.070020	1.650710
0.070117	1.655461
0.070215	1.663550
0.070312	1.686955
0.070410	1.710020
0.070508	1.718780
0.070605	1.705762
0.070703	1.670082
0.070801	1.615482
0.070898	1.582030
0.070996	1.575870
0.071094	1.578185
0.071191	1.569114
0.071289	1.533534
0.071387	1.563489
0.071484	1.632611
0.071582	1.633344
0.071680	1.631946
0.071777	1.634839
0.071875	1.617882
0.071973	1.590321
0.072070	1.566970
0.072168	1.569262
0.072266	1.567857
0.072363	1.601012
0.072461	1.626653
0.072559	1.619358
0.072656	1.667427
0.072754	1.625174
0.072852	1.630419
0.072949	1.630057
0.073047	1.616313
0.073145	1.600780
0.073242	1.590329
0.073340	1.601424
0.073437	1.571742
0.073535	1.600099
0.073633	1.623529
0.073730	1.639836
0.073828	1.622213
0.073926	1.649915
0.074023	1.677210
0.074121	1.664574
0.074219	1.639443
0.074316	1.616663
0.074414	1.580202
0.074512	1.556042
0.074609	1.545226
0.074707	1.582511
0.074805	1.540626
0.074902	1.478554
0.075000	1.470756
0.075098	1.475536
0.075195	1.498851
0.075293	1.471999
0.075391	1.539102
0.075488	1.583638
0.075586	1.598535
0.075684	1.581337
0.075781	1.571960
0.075879	1.536457
0.075977	1.525450
0.076074	1.550639
0.076172	1.515322
0.076270	1.483215
0.076367	1.498787
0.076465	1.569639
0.076562	1.569397
0.076660	1.607273
0.076758	1.615975
0.076855	1.615491
0.076953	1.611280
0.077051	1.576849
0.077148	1.501930
0.077246	1.466036
0.077344	1.538989
0.077441	1.582848
0.077539	1.602405
0.077637	1.620825
0.077734	1.614948
0.077832	1.620276
0.077930	1.613911
0.078027	1.606444
0.078125	1.598576
0.078223	1.585288
0.078320	1.554165
0.078418	1.521535
0.078516	1.566430
0.078613	1.575495
0.078711	1.601477
0.078809	1.575911
0.078906	1.543678
0.079004	1.590745
0.079102	1.626619
0.079199	1.573327
0.079297	1.545070
0.079395	1.553673
0.079492	1.582494
0.079590	1.594750
0.079687	1.556654
0.079785	1.516746
0.079883	1.510855
0.079980	1.580746
0.080078	1.577811
0.080176	1.563303
0.080273	1.590049
0.080371	1.636674
0.080469	1.638721
0.080566	1.632449
0.080664	1.646705
0.080762	1.611596
0.080859	1.596092
0.080957	1.570475
0.081055	1.505531
0.081152	1.529135
0.081250	1.558136
0.081348	1.501911
0.081445	1.442284
0.081543	1.425299
0.081641	1.518383
0.081738	1.549553
0.081836	1.510584
0.081934	1.495864
0.082031	1.461586
0.082129	1.438707
0.082227	1.419255
0.082324	1.420688
0.082422	1.361132
0.082520	1.369990
0.082617	1.427244
0.082715	1.495900
0.082812	1.549981
0.082910	1.587420
0.083008	1.635371
0.083105	1.629981
0.083203	1.646983
0.083301	1.643687
0.083398	1.655304
0.083496	1.665854
0.083594	1.649733
0.083691	1.639162
0.083789	1.647906
0.083887	1.648135
0.083984	1.638287
0.084082	1.648348
0.084180	1.677573
0.084277	1.669801
0.084375	1.699108
0.084473	1.666886
0.084570	1.627416
0.084668	1.611109
0.084766	1.621115
0.084863	1.671682
0.084961	1.683210
0.085059	1.686959
0.085156	1.673070
0.085254	1.679549
0.085352	1.690094
0.085449	1.700409
0.085547	1.710743
0.085645	1.714639
0.085742	1.709012
0.085840	1.712956
0.085937	1.730981
0.086035	1.731363
0.086133	1.697032
0.086230	1.695723
0.086328	1.684801
0.086426	1.701559
0.086523	1.740910
0.086621	1.734405
0.086719	1.693507
0.086816	1.654741
0.086914	1.674282
0.087012	1.634197
0.087109	1.595528
0.087207	1.625705
0.087305	1.648941
0.087402	1.664322
0.087500	1.670443
0.087598	1.680074
0.087695	1.692489
0.087793	1.707451
0.087891	1.720913
0.087988	1.684574
0.088086	1.662987
0.088184	1.665697
0.088281	1.652381
0.088379	1.664078
0.088477	1.660545
0.088574	1.672866
0.088672	1.659026
0.088770	1.638278
0.088867	1.629166
0.088965	1.640522
0.089062	1.630414
0.089160	1.629136
0.089258	1.610711
0.089355	1.489463
0.089453	1.493858
0.089551	1.571610
0.089648	1.572983
0.089746	1.496042
0.089844	1.509903
0.089941	1.554876
0.090039	1.552581
0.090137	1.579439
0.090234	1.589059
0.090332	1.570883
0.090430	1.533873
0.090527	1.549563
0.090625	1.534833
0.090723	1.524662
0.090820	1.508129
0.090918	1.506561
0.091016	1.566553
0.091113	1.562708
0.091211	1.564572
0.091309	1.529176
0.091406	1.559899
0.091504	1.603033
0.091602	1.596193
0.091699	1.583746
0.091797	1.449602
0.091895	1.429982
0.091992	1.434944
0.092090	1.496981
0.092187	1.524486
0.092285	1.491881
0.092383	1.453326
0.092480	1.359635
0.092578	1.340560
0.092676	1.410939
0.092773	1.507444
0.092871	1.548843
0.092969	1.496919
0.093066	1.505346
0.093164	1.527560
0.093262	1.513091
0.093359	1.563849
0.093457	1.563212
0.093555	1.569144
0.093652	1.568701
0.093750	1.605739
0.093848	1.634900
0.093945	1.649325
0.094043	1.654927
0.094141	1.664701
0.094238	1.678157
0.094336	1.633176
0.094434	1.606739
0.094531	1.605927
0.094629	1.530059
0.094727	1.584806
0.094824	1.634268
0.094922	1.622997
0.095020	1.642887
0.095117	1.620002
0.095215	1.562876
0.095312	1.558482
0.095410	1.581968
0.095508	1.531332
0.095605	1.515521
0.095703	1.537279
0.095801	1.616753
0.095898	1.681848
0.095996	1.635833
0.096094	1.615081
0.096191	1.633336
0.096289	1.632560
0.096387	1.641174
0.096484	1.643669
0.096582	1.636012
0.096680	1.618315
0.096777	1.633623
0.096875	1.666149
0.096973	1.617144
0.097070	1.623231
0.097168	1.593344
0.097266	1.569300
0.097363	1.583025
0.097461	1.560399
0.097559	1.561547
0.097656	1.580062
0.097754	1.574647
0.097852	1.551635
0.097949	1.533748
0.098047	1.465072
0.098145	1.486715
0.098242	1.521499
0.098340	1.529269
0.098437	1.588352
0.098535	1.558380
0.098633	1.483648
0.098730	1.459609
0.098828	1.523515
0.098926	1.499960
0.099023	1.499892
0.099121	1.553069
0.099219	1.521167
0.099316	1.488305
0.099414	1.486439
0.099512	1.516442
0.099609	1.539556
0.099707	1.575257
0.099805	1.580336
0.099902	1.572343
0.100000	1.565287
0.100098	1.612254
0.100195	1.593538
0.100293	1.589197
0.100391	1.574981
0.100488	1.542235
0.100586	1.538589
0.100684	1.606923
0.100781	1.555577
0.100879	1.414363
0.100977	1.474320
0.101074	1.487470
0.101172	1.476896
0.101270	1.558592
0.101367	1.602923
0.101465	1.608128
0.101562	1.595918
0.101660	1.585166
0.101758	1.563892
0.101855	1.522338
0.101953	1.558424
0.102051	1.582268
0.102148	1.586747
0.102246	1.582761
0.102344	1.594614
0.102441	1.585914
0.102539	1.602358
0.102637	1.625981
0.102734	1.623677
0.102832	1.592308
0.102930	1.568357
0.103027	1.570298
0.103125	1.578945
0.103223	1.580417
0.103320	1.572515
0.103418	1.517339
0.103516	1.439235
0.103613	1.459737
0.103711	1.552582
0.103809	1.546772
0.103906	1.597939
0.104004	1.640449
0.104102	1.636230
0.104199	1.612445
0.104297	1.636806
0.104395	1.675230
0.104492	1.671218
0.104590	1.680765
0.104687	1.654575
0.104785	1.638070
0.104883	1.615042
0.104980	1.605044
0.105078	1.598664
0.105176	1.641162
0.105273	1.649248
0.105371	1.653911
0.105469	1.665725
0.105566	1.663131
0.105664	1.652669
0.105762	1.645493
0.105859	1.667217
0.105957	1.698881
0.106055	1.692716
0.106152	1.673655
0.106250	1.667850
0.106348	1.679043
0.106445	1.669122
0.106543	1.656675
0.106641	1.671966
0.106738	1.622215
0.106836	1.577594
0.106934	1.533375
0.107031	1.507762
0.107129	1.582229
0.107227	1.619527
0.107324	1.566552
0.107422	1.523191
0.107520	1.542232
0.107617	1.509381
0.107715	1.489864
0.107812	1.526319
0.107910	1.503579
0.108008	1.496277
0.108105	1.512603
0.108203	1.561088
0.108301	1.587788
0.108398	1.565773
0.108496	1.608631
0.108594	1.622882
0.108691	1.611970
0.108789	1.636420
0.108887	1.629482
0.108984	1.565226
0.109082	1.552677
0.109180	1.533595
0.109277	1.548885
0.109375	1.578678
0.109473	1.583143
0.109570	1.641126
0.109668	1.667123
0.109766	1.663903
0.109863	1.649314
0.109961	1.634354
0.110059	1.611651
0.110156	1.622597
0.110254	1.616653
0.110352	1.612240
0.110449	1.596510
0.110547	1.578558
0.110645	1.544527
0.110742	1.593039
0.110840	1.626983
0.110937	1.609370
0.111035	1.623191
0.111133	1.624883
0.111230	1.607307
0.111328	1.592370
0.111426	1.580027
0.111523	1.581634
0.111621	1.532438
0.111719	1.575720
0.111816	1.575915
0.111914	1.554272
0.112012	1.583142
0.112109	1.581613
0.112207	1.608144
0.112305	1.572216
0.112402	1.550031
0.112500	1.582789
0.112598	1.584997
0.112695	1.591160
0.112793	1.627109
0.112891	1.656697
0.112988	1.634873
0.113086	1.591709
0.113184	1.560723
0.113281	1.583281
0.113379	1.578116
0.113477	1.529653
0.113574	1.524027
0.113672	1.537723
0.113770	1.501807
0.113867	1.476012
0.113965	1.456300
0.114062	1.449602
0.114160	1.410906
0.114258	1.330937
0.114355	1.325932
0.114453	1.379724
0.114551	1.389296
0.114648	1.398714
0.114746	1.373509
0.114844	1.382417
0.114941	1.449126
0.115039	1.460076
0.115137	1.456829
0.115234	1.452576
0.115332	1.467234
0.115430	1.476291
0.115527	1.485969
0.115625	1.487131
0.115723	1.450857
0.115820	1.485943
0.115918	1.514900
0.116016	1.514794
0.116113	1.529456
0.116211	1.559493
0.116309	1.556065
0.116406	1.569328
0.116504	1.587682
0.116602	1.598093
0.116699	1.601892
0.116797	1.596718
0.116895	1.586498
0.116992	1.559346
0.117090	1.548718
0.117187	1.550833
0.117285	1.537241
0.117383	1.555468
0.117480	1.537555
0.117578	1.505144
0.117676	1.505686
0.117773	1.551730
0.117871	1.588974
0.117969	1.595650
0.118066	1.606934
0.118164	1.615612
0.118262	1.625313
0.118359	1.625323
0.118457	1.633792
0.118555	1.636843
0.118652	1.643992
0.118750	1.636207
0.118848	1.640494
0.118945	1.607901
0.119043	1.591976
0.119141	1.593494
0.119238	1.550863
0.119336	1.568156
0.119434	1.607777
0.119531	1.658944
0.119629	1.675387
0.119727	1.673082
0.119824	1.668940
0.119922	1.668539
0.120020	1.665864
0.120117	1.667341
0.120215	1.676414
0.120312	1.681740
0.120410	1.686312
0.120508	1.684840
0.120605	1.677482
0.120703	1.661092
0.120801	1.641125
0.120898	1.639665
0.120996	1.610707
0.121094	1.610469
0.121191	1.534198
0.121289	1.594025
0.121387	1.618469
0.121484	1.633999
0.121582	1.644199
0.121680	1.621034
0.121777	1.605866
0.121875	1.615513
0.121973	1.650163
0.122070	1.651754
0.122168	1.674548
0.122266	1.650333
0.122363	1.662109
0.122461	1.617787
0.122559	1.590565
0.122656	1.592824
0.122754	1.596134
0.122852	1.644750
0.122949	1.647714
0.123047	1.639733
0.123145	1.639318
0.123242	1.644055
0.123340	1.642493
0.123437	1.641087
0.123535	1.634797
0.123633	1.637862
0.123730	1.636329
0.123828	1.644638
0.123926	1.618499
0.124023	1.655121
0.124121	1.699494
0.124219	1.714799
0.124316	1.689552
0.124414	1.670112
0.124512	1.678144
0.124609	1.652647
0.124707	1.683288
0.124805	1.677562
0.124902	1.687158
0.125000	1.680887
0.125098	1.663713
0.125195	1.683296
0.125293	1.666159
0.125391	1.644532
0.125488	1.653767
0.125586	1.664026
0.125684	1.713787
0.125781	1.712579
0.125879	1.712874
0.125977	1.683348
0.126074	1.571936
0.126172	1.580988
0.126270	1.622929
0.126367	1.598963
0.126465	1.584930
0.126562	1.601829
0.126660	1.645273
0.126758	1.639625
0.126855	1.638451
0.126953	1.634550
0.127051	1.624818
0.127148	1.636673
0.127246	1.679227
0.127344	1.665331
0.127441	1.675448
0.127539	1.705785
0.127637	1.673311
0.127734	1.682403
0.127832	1.702525
0.127930	1.691476
0.128027	1.707080
0.128125	1.685205
0.128223	1.676645
0.128320	1.639664
0.128418	1.648930
0.128516	1.595273
0.128613	1.530531
0.128711	1.495398
0.128809	1.526299
0.128906	1.554783
0.129004	1.595633
0.129102	1.600709
0.129199	1.553940
0.129297	1.545131
0.129395	1.560884
0.129492	1.615353
0.129590	1.579103
0.129687	1.548085
0.129785	1.546540
0.129883	1.534159
0.129980	1.489807
0.130078	1.457930
0.130176	1.469242
0.130273	1.499170
0.130371	1.507225
0.130469	1.556234
0.130566	1.568252
0.130664	1.556500
0.130762	1.540393
0.130859	1.553613
0.130957	1.565526
0.131055	1.588161
0.131152	1.597955
0.131250	1.611818
0.131348	1.622131
0.131445	1.634249
0.131543	1.643427
0.131641	1.652650
0.131738	1.657667
0.131836	1.665134
0.131934	1.670674
0.132031	1.675237
0.132129	1.679007
0.132227	1.685037
0.132324	1.687766
0.132422	1.693808
0.132520	1.701672
0.132617	1.719086
0.132715	1.729455
0.132812	1.722367
0.132910	1.703024
0.133008	1.698996
0.133105	1.688917
0.133203	1.691933
0.133301	1.679359
0.133398	1.670330
0.133496	1.667408
0.133594	1.666458
0.133691	1.667175
0.133789	1.671704
0.133887	1.675259
0.133984	1.681571
0.134082	1.683815
0.134180	1.696476
0.134277	1.686967
0.134375	1.669566
0.134473	1.674467
0.134570	1.670725
0.134668	1.683366
0.134766	1.687864
0.134863	1.695175
0.134961	1.693112
0.135059	1.691938
0.135156	1.691758
0.135254	1.696041
0.135352	1.700261
0.135449	1.709658
0.135547	1.720516
0.135645	1.729685
0.135742	1.723694
0.135840	1.720435
0.135937	1.703338
0.136035	1.690800
0.136133	1.673129
0.136230	1.656285
0.136328	1.667041
0.136426	1.685403
0.136523	1.676508
0.136621	1.686839
0.136719	1.694698
0.136816	1.690920
0.136914	1.677831
0.137012	1.657426
0.137109	1.662298
0.137207	1.657512
0.137305	1.664277
0.137402	1.664595
0.137500	1.660434
0.137598	1.625194
0.137695	1.573810
0.137793	1.580427
0.137891	1.618929
0.137988	1.598674
0.138086	1.579508
0.138184	1.575184
0.138281	1.618849
0.138379	1.659387
0.138477	1.680616
0.138574	1.651361
0.138672	1.578040
0.138770	1.566306
0.138867	1.586051
0.138965	1.616277
0.139062	1.633855
0.139160	1.668496
0.139258	1.687393
0.139355	1.676088
0.139453	1.670554
0.139551	1.666830
0.139648	1.673397
0.139746	1.674215
0.139844	1.689676
0.139941	1.684760
0.140039	1.661052
0.140137	1.671951
0.140234	1.669488
0.140332	1.665206
0.140430	1.662037
0.140527	1.662093
0.140625	1.662932
0.140723	1.666109
0.140820	1.673236
0.140918	1.686058
0.141016	1.693840
0.141113	1.696846
0.141211	1.692959
0.141309	1.640689
0.141406	1.641392
0.141504	1.617416
0.141602	1.633317
0.141699	1.640333
0.141797	1.668911
0.141895	1.682423
0.141992	1.705751
0.142090	1.698957
0.142187	1.667595
0.142285	1.670063
0.142383	1.705983
0.142480	1.728782
0.142578	1.732262
0.142676	1.716213
0.142773	1.701749
0.142871	1.688725
0.142969	1.682380
0.143066	1.663413
0.143164	1.604656
0.143262	1.560868
0.143359	1.566699
0.143457	1.550435
0.143555	1.567920
0.143652	1.574193
0.143750	1.562971
0.143848	1.575540
0.143945	1.615306
0.144043	1.619933
0.144141	1.654730
0.144238	1.635805
0.144336	1.610443
0.144434	1.638139
0.144531	1.619114
0.144629	1.598940
0.144727	1.596139
0.144824	1.563868
0.144922	1.566725
0.145020	1.600258
0.145117	1.584857
0.145215	1.584345
0.145312	1.573736
0.145410	1.642892
0.145508	1.665778
0.145605	1.664018
0.145703	1.606818
0.145801	1.536485
0.145898	1.553936
0.145996	1.596436
0.146094	1.619577
0.146191	1.612572
0.146289	1.636801
0.146387	1.611394
0.146484	1.622515
0.146582	1.659447
0.146680	1.633526
0.146777	1.623942
0.146875	1.642030
0.146973	1.632028
0.147070	1.666678
0.147168	1.639599
0.147266	1.595350
0.147363	1.539020
0.147461	1.524048
0.147559	1.551960
0.147656	1.562105
0.147754	1.544284
0.147852	1.519423
0.147949	1.468458
0.148047	1.432840
0.148145	1.481312
0.148242	1.483307
0.148340	1.405509
0.148437	1.327059
0.148535	1.316603
0.148633	1.359909
0.148730	1.456966
0.148828	1.513959
0.148926	1.544374
0.149023	1.521982
0.149121	1.504230
0.149219	1.504917
0.149316	1.454302
0.149414	1.423110
0.149512	1.417468
0.149609	1.445195
0.149707	1.467767
0.149805	1.506824
0.149902	1.505869
0.150000	1.553271
0.150098	1.562818
0.150195	1.590206
0.150293	1.623458
0.150391	1.625757
0.150488	1.631750
0.150586	1.633139
0.150684	1.637192
0.150781	1.640415
0.150879	1.647377
0.150977	1.655153
0.151074	1.664452
0.151172	1.670699
0.151270	1.673148
0.151367	1.674944
0.151465	1.677922
0.151562	1.680983
0.151660	1.683354
0.151758	1.680635
0.151855	1.677025
0.151953	1.674833
0.152051	1.673242
0.152148	1.671341
0.152246	1.671275
0.152344	1.672401
0.152441	1.675743
0.152539	1.679900
0.152637	1.685477
0.152734	1.690357
0.152832	1.696936
0.152930	1.701673
0.153027	1.708778
0.153125	1.716264
0.153223	1.713588
0.153320	1.719556
0.153418	1.698293
0.153516	1.693694
0.153613	1.690057
0.153711	1.691624
0.153809	1.693738
0.153906	1.697581
0.154004	1.698909
0.154102	1.703510
0.154199	1.706083
0.154297	1.704638
0.154395	1.696121
0.154492	1.686456
0.154590	1.688106
0.154687	1.711054
0.154785	1.722265
0.154883	1.721832
0.154980	1.710492
0.155078	1.706519
0.155176	1.705329
0.155273	1.706866
0.155371	1.710487
0.155469	1.716744
0.155566	1.717454
0.155664	1.712848
0.155762	1.706796
0.155859	1.704436
0.155957	1.695119
0.156055	1.694358
0.156152	1.693151
0.156250	1.693425
0.156348	1.649744
0.156445	1.635307
0.156543	1.570478
0.156641	1.570291
0.156738	1.626638
0.156836	1.657658
0.156934	1.682787
0.157031	1.689414
0.157129	1.687584
0.157227	1.673726
0.157324	1.667715
0.157422	1.625813
0.157520	1.658553
0.157617	1.674913
0.157715	1.636799
0.157812	1.639105
0.157910	1.639287
0.158008	1.632534
0.158105	1.626249
0.158203	1.622267
0.158301	1.618832
0.158398	1.624359
0.158496	1.626439
0.158594	1.612434
0.158691	1.604140
0.158789	1.615634
0.158887	1.611814
0.158984	1.643844
0.159082	1.640573
0.159180	1.625251
0.159277	1.623774
0.159375	1.630521
0.159473	1.629067
0.159570	1.634319
0.159668	1.625747
0.159766	1.642373
0.159863	1.663850
0.159961	1.636164
0.160059	1.662594
0.160156	1.666112
0.160254	1.647365
0.160352	1.634162
0.160449	1.627776
0.160547	1.623330
0.160645	1.623890
0.160742	1.625850
0.160840	1.630472
0.160937	1.635147
0.161035	1.640883
0.161133	1.645746
0.161230	1.650056
0.161328	1.652851
0.161426	1.652256
0.161523	1.650945
0.161621	1.649738
0.161719	1.648153
0.161816	1.647346
0.161914	1.647227
0.162012	1.647872
0.162109	1.648525
0.162207	1.648933
0.162305	1.648789
0.162402	1.648946
0.162500	1.649649
0.162598	1.650983
0.162695	1.652924
0.162793	1.656113
0.162891	1.660016
0.162988	1.663953
0.163086	1.667534
0.163184	1.671763
0.163281	1.673766
0.163379	1.672912
0.163477	1.669963
0.163574	1.666873
0.163672	1.666601
0.163770	1.672450
0.163867	1.666723
0.163965	1.669487
0.164062	1.675761
0.164160	1.678822
0.164258	1.682763
0.164355	1.684213
0.164453	1.685833
0.164551	1.687391
0.164648	1.694783
0.164746	1.710087
0.164844	1.712107
0.164941	1.680538
0.165039	1.704139
0.165137	1.708471
0.165234	1.708237
0.165332	1.708352
0.165430	1.706213
0.165527	1.706277
0.165625	1.705435
0.165723	1.707375
0.165820	1.708324
0.165918	1.709365
0.166016	1.706925
0.166113	1.709650
0.166211	1.714370
0.166309	1.721195
0.166406	1.725089
0.166504	1.738754
0.166602	1.749327
0.166699	1.754551
0.166797	1.760366
0.166895	1.728574
0.166992	1.705684
0.167090	1.724486
0.167187	1.730593
0.167285	1.658049
0.167383	1.711171
0.167480	1.754925
0.167578	1.726812
0.167676	1.708818
0.167773	1.712369
0.167871	1.718769
0.167969	1.690900
0.168066	1.651122
0.168164	1.662458
0.168262	1.656723
0.168359	1.661279
0.168457	1.653602
0.168555	1.650337
0.168652	1.632842
0.168750	1.646147
0.168848	1.646357
0.168945	1.639357
0.169043	1.660938
0.169141	1.676035
0.169238	1.683513
0.169336	1.663982
0.169434	1.644729
0.169531	1.620092
0.169629	1.590239
0.169727	1.589178
0.169824	1.569611
0.169922	1.566294
0.170020	1.568752
0.170117	1.576373
0.170215	1.568992
0.170312	1.523050
0.170410	1.480581
0.170508	1.508903
0.170605	1.494574
0.170703	1.511165
0.170801	1.513455
0.170898	1.531199
0.170996	1.507890
0.171094	1.492940
0.171191	1.504117
0.171289	1.491681
0.171387	1.511048
0.171484	1.516487
0.171582	1.506183
0.171680	1.468349
0.171777	1.461390
0.171875	1.444727
0.171973	1.442169
0.172070	1.472972
0.172168	1.503647
0.172266	1.531488
0.172363	1.595142
0.172461	1.625556
0.172559	1.557424
0.172656	1.479237
0.172754	1.485508
0.172852	1.488407
0.172949	1.498107
0.173047	1.518675
0.173145	1.507538
0.173242	1.553435
0.173340	1.598998
0.173437	1.590041
0.173535	1.431745
0.173633	1.464082
0.173730	1.543244
0.173828	1.578318
0.173926	1.618949
0.174023	1.614431
0.174121	1.631786
0.174219	1.632766
0.174316	1.637367
0.174414	1.567502
0.174512	1.597313
0.174609	1.645824
0.174707	1.657982
0.174805	1.660141
0.174902	1.648008
0.175000	1.649026
0.175098	1.648348
0.175195	1.671456
0.175293	1.657223
0.175391	1.676572
0.175488	1.687244
0.175586	1.676288
0.175684	1.686001
0.175781	1.687261
0.175879	1.679936
0.175977	1.681339
0.176074	1.685637
0.176172	1.662967
0.176270	1.686912
0.176367	1.689688
0.176465	1.708843
0.176562	1.722811
0.176660	1.665098
0.176758	1.629003
0.176855	1.658236
0.176953	1.656034
0.177051	1.629272
0.177148	1.649380
0.177246	1.661440
0.177344	1.636418
0.177441	1.640656
0.177539	1.693938
0.177637	1.705174
0.177734	1.708480
0.177832	1.714621
0.177930	1.723633
0.178027	1.733570
0.178125	1.740917
0.178223	1.732139
0.178320	1.715667
0.178418	1.692063
0.178516	1.692070
0.178613	1.710174
0.178711	1.708516
0.178809	1.690818
0.178906	1.674975
0.179004	1.661178
0.179102	1.623920
0.179199	1.629739
0.179297	1.591583
0.179395	1.563704
0.179492	1.601649
0.179590	1.634835
0.179687	1.610489
0.179785	1.589571
0.179883	1.638687
0.179980	1.660289
0.180078	1.661952
0.180176	1.650557
0.180273	1.651113
0.180371	1.657933
0.180469	1.638844
0.180566	1.591223
0.180664	1.582588
0.180762	1.585952
0.180859	1.604377
0.180957	1.576333
0.181055	1.550247
0.181152	1.555815
0.181250	1.543660
0.181348	1.523392
0.181445	1.521881
0.181543	1.522318
0.181641	1.541409
0.181738	1.564454
0.181836	1.590230
0.181934	1.575578
0.182031	1.554765
0.182129	1.560278
0.182227	1.516507
0.182324	1.460395
0.182422	1.455597
0.182520	1.479962
0.182617	1.492499
0.182715	1.500282
0.182812	1.480534
0.182910	1.451736
0.183008	1.436750
0.183105	1.451601
0.183203	1.466701
0.183301	1.472715
0.183398	1.471095
0.183496	1.464023
0.183594	1.459707
0.183691	1.460221
0.183789	1.434546
0.183887	1.414090
0.183984	1.420350
0.184082	1.474078
0.184180	1.534406
0.184277	1.569115
0.184375	1.591988
0.184473	1.615406
0.184570	1.589864
0.184668	1.611566
0.184766	1.632287
0.184863	1.593560
0.184961	1.545675
0.185059	1.494238
0.185156	1.514255
0.185254	1.552699
0.185352	1.581585
0.185449	1.571721
0.185547	1.561477
0.185645	1.548644
0.185742	1.544510
0.185840	1.535403
0.185937	1.492993
0.186035	1.503200
0.186133	1.516173
0.186230	1.520963
0.186328	1.556699
0.186426	1.589747
0.186523	1.601707
0.186621	1.624150
0.186719	1.619799
0.186816	1.573074
0.186914	1.571731
0.187012	1.560524
0.187109	1.543219
0.187207	1.583182
0.187305	1.591739
0.187402	1.616034
0.187500	1.622919
0.187598	1.638067
0.187695	1.668181
0.187793	1.682063
0.187891	1.679630
0.187988	1.670368
0.188086	1.665625
0.188184	1.654589
0.188281	1.646394
0.188379	1.641554
0.188477	1.642066
0.188574	1.648809
0.188672	1.655228
0.188770	1.665133
0.188867	1.670260
0.188965	1.670440
0.189062	1.671246
0.189160	1.669940
0.189258	1.670683
0.189355	1.674883
0.189453	1.679789
0.189551	1.688093
0.189648	1.693791
0.189746	1.707333
0.189844	1.714806
0.189941	1.709926
0.190039	1.714250
0.190137	1.721818
0.190234	1.712508
0.190332	1.707289
0.190430	1.709142
0.190527	1.682963
0.190625	1.671838
0.190723	1.665463
0.190820	1.680267
0.190918	1.698823
0.191016	1.702757
0.191113	1.668843
0.191211	1.651222
0.191309	1.613831
0.191406	1.608410
0.191504	1.607261
0.191602	1.602054
0.191699	1.617253
0.191797	1.615481
0.191895	1.597889
0.191992	1.610897
0.192090	1.627017
0.192187	1.679976
0.192285	1.714678
0.192383	1.720162
0.192480	1.728933
0.192578	1.633316
0.192676	1.664013
0.192773	1.741066
0.192871	1.741022
0.192969	1.733184
0.193066	1.705267
0.193164	1.716366
0.193262	1.708189
0.193359	1.716119
0.193457	1.682244
0.193555	1.650590
0.193652	1.648581
0.193750	1.695195
0.193848	1.677122
0.193945	1.643661
0.194043	1.637806
0.194141	1.657784
0.194238	1.657167
0.194336	1.636259
0.194434	1.573237
0.194531	1.568952
0.194629	1.609804
0.194727	1.630402
0.194824	1.630393
0.194922	1.608653
0.195020	1.607268
0.195117	1.614976
0.195215	1.612370
0.195312	1.620127
0.195410	1.594813
0.195508	1.573572
0.195605	1.568506
0.195703	1.579826
0.195801	1.561073
0.195898	1.517681
0.195996	1.505966
0.196094	1.512481
0.196191	1.534032
0.196289	1.523021
0.196387	1.536679
0.196484	1.560901
0.196582	1.568069
0.196680	1.575806
0.196777	1.551686
0.196875	1.585265
0.196973	1.628831
0.197070	1.570723
0.197168	1.612669
0.197266	1.620268
0.197363	1.591476
0.197461	1.568332
0.197559	1.531325
0.197656	1.512475
0.197754	1.504904
0.197852	1.473248
0.197949	1.464116
0.198047	1.487242
0.198145	1.507061
0.198242	1.501836
0.198340	1.489364
0.198437	1.466132
0.198535	1.418988
0.198633	1.405222
0.198730	1.445904
0.198828	1.473238
0.198926	1.473128
0.199023	1.470808
0.199121	1.452936
0.199219	1.469739
0.199316	1.519817
0.199414	1.535583
0.199512	1.512491
0.199609	1.542297
0.199707	1.586933
0.199805	1.598437
0.199902	1.601051
0.200000	1.536621
0.200098	1.554103
0.200195	1.586691
0.200293	1.593929
0.200391	1.594031
0.200488	1.593819
0.200586	1.596425
0.200684	1.608187
0.200781	1.604971
0.200879	1.586063
0.200977	1.573935
0.201074	1.557198
0.201172	1.557767
0.201270	1.566043
0.201367	1.575270
0.201465	1.583419
0.201562	1.591169
0.201660	1.597208
0.201758	1.602375
0.201855	1.605660
0.201953	1.607665
0.202051	1.607784
0.202148	1.607379
0.202246	1.606927
0.202344	1.607469
0.202441	1.608999
0.202539	1.611512
0.202637	1.614797
0.202734	1.618866
0.202832	1.623611
0.202930	1.629197
0.203027	1.634869
0.203125	1.639307
0.203223	1.640820
0.203320	1.639175
0.203418	1.636066
0.203516	1.632837
0.203613	1.629175
0.203711	1.626362
0.203809	1.625794
0.203906	1.626612
0.204004	1.627731
0.204102	1.628948
0.204199	1.630027
0.204297	1.631264
0.204395	1.632553
0.204492	1.633690
0.204590	1.634819
0.204687	1.635883
0.204785	1.636985
0.204883	1.638570
0.204980	1.640574
0.205078	1.643236
0.205176	1.646548
0.205273	1.650156
0.205371	1.653675
0.205469	1.657582
0.205566	1.661404
0.205664	1.665686
0.205762	1.669537
0.205859	1.673578
0.205957	1.676803
0.206055	1.680864
0.206152	1.682450
0.206250	1.681992
0.206348	1.684290
0.206445	1.688321
0.206543	1.692544
0.206641	1.700278
0.206738	1.706262
0.206836	1.715757
0.206934	1.714944
0.207031	1.717800
0.207129	1.719569
0.207227	1.716801
0.207324	1.720113
0.207422	1.719841
0.207520	1.717142
0.207617	1.724878
0.207715	1.731999
0.207812	1.721103
0.207910	1.722944
0.208008	1.725369
0.208105	1.735131
0.208203	1.732794
0.208301	1.733472
0.208398	1.734220
0.208496	1.715959
0.208594	1.720165
0.208691	1.725846
0.208789	1.732744
0.208887	1.726730
0.208984	1.698823
0.209082	1.690388
0.209180	1.661994
0.209277	1.660368
0.209375	1.648130
0.209473	1.661182
0.209570	1.660623
0.209668	1.659820
0.209766	1.689226
0.209863	1.698854
0.209961	1.684015
0.210059	1.668623
0.210156	1.644207
0.210254	1.632158
0.210352	1.648332
0.210449	1.649580
0.210547	1.648846
0.210645	1.636058
0.210742	1.653833
0.210840	1.643149
0.210937	1.642480
0.211035	1.659931
0.211133	1.642702
0.211230	1.656247
0.211328	1.660325
0.211426	1.645107
0.211523	1.653119
0.211621	1.658888
0.211719	1.667428
0.211816	1.612348
0.211914	1.619400
0.212012	1.657913
0.212109	1.655276
0.212207	1.637844
0.212305	1.623458
0.212402	1.624885
0.212500	1.605010
0.212598	1.580221
0.212695	1.623921
0.212793	1.639178
0.212891	1.650145
0.212988	1.646973
0.213086	1.631150
0.213184	1.622783
0.213281	1.609528
0.213379	1.611556
0.213477	1.593618
0.213574	1.588161
0.213672	1.606510
0.213770	1.604476
0.213867	1.590137
0.213965	1.578793
0.214062	1.578585
0.214160	1.545699
0.214258	1.523540
0.214355	1.574154
0.214453	1.597671
0.214551	1.592241
0.214648	1.586765
0.214746	1.594737
0.214844	1.607000
0.214941	1.611378
0.215039	1.615839
0.215137	1.619726
0.215234	1.620887
0.215332	1.620109
0.215430	1.612932
0.215527	1.617519
0.215625	1.631990
0.215723	1.625171
0.215820	1.628170
0.215918	1.593761
0.216016	1.546337
0.216113	1.545912
0.216211	1.542441
0.216309	1.583516
0.216406	1.587388
0.216504	1.607760
0.216602	1.625606
0.216699	1.640708
0.216797	1.597303
0.216895	1.560594
0.216992	1.512013
0.217090	1.514831
0.217187	1.524666
0.217285	1.525980
0.217383	1.516397
0.217480	1.552117
0.217578	1.540316
0.217676	1.491937
0.217773	1.445096
0.217871	1.363386
0.217969	1.360086
0.218066	1.415355
0.218164	1.443285
0.218262	1.429732
0.218359	1.428318
0.218457	1.437706
0.218555	1.467964
0.218652	1.500278
0.218750	1.538041
0.218848	1.566313
0.218945	1.574661
0.219043	1.598663
0.219141	1.620887
0.219238	1.639535
0.219336	1.652856
0.219434	1.622008
0.219531	1.624975
0.219629	1.626440
0.219727	1.636003
0.219824	1.641608
0.219922	1.644116
0.220020	1.650948
0.220117	1.655906
0.220215	1.661061
0.220312	1.670960
0.220410	1.670835
0.220508	1.670417
0.220605	1.661676
0.220703	1.656362
0.220801	1.656684
0.220898	1.659246
0.220996	1.659701
0.221094	1.667035
0.221191	1.670584
0.221289	1.688302
0.221387	1.700706
0.221484	1.706238
0.221582	1.713540
0.221680	1.693508
0.221777	1.688996
0.221875	1.690566
0.221973	1.694931
0.222070	1.694827
0.222168	1.699990
0.222266	1.710617
0.222363	1.723810
0.222461	1.720267
0.222559	1.687777
0.222656	1.693691
0.222754	1.649743
0.222852	1.664199
0.222949	1.706411
0.223047	1.686680
0.223145	1.685584
0.223242	1.639581
0.223340	1.633358
0.223437	1.619799
0.223535	1.599933
0.223633	1.597671
0.223730	1.609859
0.223828	1.597895
0.223926	1.581030
0.224023	1.573378
0.224121	1.537100
0.224219	1.542553
0.224316	1.534255
0.224414	1.547619
0.224512	1.577232
0.224609	1.621912
0.224707	1.651004
0.224805	1.698175
0.224902	1.700406
0.225000	1.700999
0.225098	1.711783
0.225195	1.693721
0.225293	1.669019
0.225391	1.652760
0.225488	1.623091
0.225586	1.557558
0.225684	1.510438
0.225781	1.460186
0.225879	1.476017
0.225977	1.486610
0.226074	1.451332
0.226172	1.478270
0.226270	1.531482
0.226367	1.546736
0.226465	1.595214
0.226562	1.628097
0.226660	1.572316
0.226758	1.613440
0.226855	1.661285
0.226953	1.545776
0.227051	1.578615
0.227148	1.618668
0.227246	1.605355
0.227344	1.595772
0.227441	1.578567
0.227539	1.619127
0.227637	1.620459
0.227734	1.591309
0.227832	1.583345
0.227930	1.578613
0.228027	1.588676
0.228125	1.574439
0.228223	1.531986
0.228320	1.552029
0.228418	1.539334
0.228516	1.595410
0.228613	1.599514
0.228711	1.603772
0.228809	1.591771
0.228906	1.613737
0.229004	1.613653
0.229102	1.578588
0.229199	1.549335
0.229297	1.522837
0.229395	1.488454
0.229492	1.441923
0.229590	1.403315
0.229687	1.372549
0.229785	1.359642
0.229883	1.394571
0.229980	1.421675
0.230078	1.410068
0.230176	1.493957
0.230273	1.540635
0.230371	1.537455
0.230469	1.528356
0.230566	1.437151
0.230664	1.479702
0.230762	1.555750
0.230859	1.541536
0.230957	1.573619
0.231055	1.604140
0.231152	1.637502
0.231250	1.664380
0.231348	1.631761
0.231445	1.614613
0.231543	1.623723
0.231641	1.611504
0.231738	1.593006
0.231836	1.598399
0.231934	1.610283
0.232031	1.612865
0.232129	1.668552
0.232227	1.660957
0.232324	1.663494
0.232422	1.639511
0.232520	1.658508
0.232617	1.690718
0.232715	1.688993
0.232812	1.676590
0.232910	1.675905
0.233008	1.682208
0.233105	1.684009
0.233203	1.694914
0.233301	1.679058
0.233398	1.678541
0.233496	1.657000
0.233594	1.634025
0.233691	1.634698
0.233789	1.643371
0.233887	1.652680
0.233984	1.663145
0.234082	1.667308
0.234180	1.667586
0.234277	1.671626
0.234375	1.673476
0.234473	1.674447
0.234570	1.669817
0.234668	1.666954
0.234766	1.670417
0.234863	1.663272
0.234961	1.631794
0.235059	1.631419
0.235156	1.620405
0.235254	1.583336
0.235352	1.561247
0.235449	1.587681
0.235547	1.605074
0.235645	1.620920
0.235742	1.585439
0.235840	1.549171
0.235937	1.607333
0.236035	1.620301
0.236133	1.622154
0.236230	1.621503
0.236328	1.621125
0.236426	1.621559
0.236523	1.623484
0.236621	1.626162
0.236719	1.630266
0.236816	1.635755
0.236914	1.641656
0.237012	1.647803
0.237109	1.654462
0.237207	1.662455
0.237305	1.669309
0.237402	1.678356
0.237500	1.683803
0.237598	1.686330
0.237695	1.695795
0.237793	1.694175
0.237891	1.697436
0.237988	1.690443
0.238086	1.704347
0.238184	1.708308
0.238281	1.673319
0.238379	1.672136
0.238477	1.630922
0.238574	1.584130
0.238672	1.578901
0.238770	1.611968
0.238867	1.669413
0.238965	1.605502
0.239062	1.643155
0.239160	1.683582
0.239258	1.702201
0.239355	1.667686
0.239453	1.669918
0.239551	1.654876
0.239648	1.619147
0.239746	1.597426
0.239844	1.623269
0.239941	1.610934
0.240039	1.617568
0.240137	1.651140
0.240234	1.671141
0.240332	1.668859
0.240430	1.651972
0.240527	1.607955
0.240625	1.613651
0.240723	1.615712
0.240820	1.626963
0.240918	1.633790
0.241016	1.635264
0.241113	1.655022
0.241211	1.626473
0.241309	1.592552
0.241406	1.601137
0.241504	1.582703
0.241602	1.601534
0.241699	1.624784
0.241797	1.624092
0.241895	1.620036
0.241992	1.647911
0.242090	1.702105
0.242187	1.644068
0.242285	1.643116
0.242383	1.640167
0.242480	1.646929
0.242578	1.672417
0.242676	1.648887
0.242773	1.669535
0.242871	1.681064
0.242969	1.634702
0.243066	1.665913
0.243164	1.671495
0.243262	1.699405
0.243359	1.706589
0.243457	1.695050
0.243555	1.688215
0.243652	1.679444
0.243750	1.686735
0.243848	1.675854
0.243945	1.640669
0.244043	1.651821
0.244141	1.636848
0.244238	1.642947
0.244336	1.653548
0.244434	1.667876
0.244531	1.691833
0.244629	1.653799
0.244727	1.625817
0.244824	1.596468
0.244922	1.603216
0.245020	1.549747
0.245117	1.475768
0.245215	1.567059
0.245312	1.589360
0.245410	1.589187
0.245508	1.589385
0.245605	1.589480
0.245703	1.590338
0.245801	1.590029
0.245898	1.589725
0.245996	1.588974
0.246094	1.588350
0.246191	1.588195
0.246289	1.589012
0.246387	1.590790
0.246484	1.593776
0.246582	1.597810
0.246680	1.603057
0.246777	1.609214
0.246875	1.616114
0.246973	1.622420
0.247070	1.628506
0.247168	1.633441
0.247266	1.639278
0.247363	1.644893
0.247461	1.653109
0.247559	1.657342
0.247656	1.660325
0.247754	1.662718
0.247852	1.664931
0.247949	1.669684
0.248047	1.676184
0.248145	1.682734
0.248242	1.687866
0.248340	1.693393
0.248437	1.706413
0.248535	1.700876
0.248633	1.696822
0.248730	1.710787
0.248828	1.719785
0.248926	1.701202
0.249023	1.673512
0.249121	1.691666
0.249219	1.684015
0.249316	1.683359
0.249414	1.684187
0.249512	1.709006
0.249609	1.726500
0.249707	1.712896
0.249805	1.647023
0.249902	1.601049
0.250000	1.625221
0.250098	1.654723
0.250195	1.673704
0.250293	1.621424
0.250391	1.536687
0.250488	1.571897
0.250586	1.575657
0.250684	1.569262
0.250781	1.621988
0.250879	1.599565
0.250977	1.660651
0.251074	1.664985
0.251172	1.656611
0.251270	1.622121
0.251367	1.626014
0.251465	1.626041
0.251562	1.612687
0.251660	1.645142
0.251758	1.677306
0.251855	1.677553
0.251953	1.702879
0.252051	1.692228
0.252148	1.700443
0.252246	1.694957
0.252344	1.682886
0.252441	1.680948
0.252539	1.694320
0.252637	1.613250
0.252734	1.688594
0.252832	1.697917
0.252930	1.635204
0.253027	1.693120
0.253125	1.651291
0.253223	1.683661
0.253320	1.659218
0.253418	1.670861
0.253516	1.661949
0.253613	1.653307
0.253711	1.618322
0.253809	1.611098
0.253906	1.576361
0.254004	1.576625
0.254102	1.556968
0.254199	1.575277
0.254297	1.597793
0.254395	1.621722
0.254492	1.607639
0.254590	1.632128
0.254687	1.615847
0.254785	1.608482
0.254883	1.596841
0.254980	1.598743
0.255078	1.624595
0.255176	1.623546
0.255273	1.605584
0.255371	1.593919
0.255469	1.628222
0.255566	1.615289
0.255664	1.615357
0.255762	1.615230
0.255859	1.625418
0.255957	1.633992
0.256055	1.675392
0.256152	1.678882
0.256250	1.678593
0.256348	1.638205
0.256445	1.608188
0.256543	1.612601
0.256641	1.622739
0.256738	1.665160
0.256836	1.697362
0.256934	1.683673
0.257031	1.679758
0.257129	1.683495
0.257227	1.689808
0.257324	1.716040
0.257422	1.703182
0.257520	1.694302
0.257617	1.674174
0.257715	1.678183
0.257812	1.671624
0.257910	1.667319
0.258008	1.691045
0.258105	1.647272
0.258203	1.668139
0.258301	1.676984
0.258398	1.681626
0.258496	1.672841
0.258594	1.631804
0.258691	1.625460
0.258789	1.604968
0.258887	1.581061
0.258984	1.547062
0.259082	1.603959
0.259180	1.569545
0.259277	1.578892
0.259375	1.612831
0.259473	1.551849
0.259570	1.518774
0.259668	1.458363
0.259766	1.448415
0.259863	1.446839
0.259961	1.418292
0.260059	1.504611
0.260156	1.522706
0.260254	1.598102
0.260352	1.628062
0.260449	1.565014
0.260547	1.540092
0.260645	1.490295
0.260742	1.472273
0.260840	1.457297
0.260937	1.452462
0.261035	1.415967
0.261133	1.426533
0.261230	1.424125
0.261328	1.424843
0.261426	1.444802
0.261523	1.420604
0.261621	1.383375
0.261719	1.430431
0.261816	1.479797
0.261914	1.505310
0.262012	1.549750
0.262109	1.517236
0.262207	1.476159
0.262305	1.480513
0.262402	1.498567
0.262500	1.506381
0.262598	1.474615
0.262695	1.426476
0.262793	1.413190
0.262891	1.461123
0.262988	1.541060
0.263086	1.582394
0.263184	1.564631
0.263281	1.556154
0.263379	1.560337
0.263477	1.571315
0.263574	1.576727
0.263672	1.609857
0.263770	1.611015
0.263867	1.603819
0.263965	1.665559
0.264062	1.673904
0.264160	1.660874
0.264258	1.663320
0.264355	1.656911
0.264453	1.657857
0.264551	1.652924
0.264648	1.643385
0.264746	1.631671
0.264844	1.628482
0.264941	1.622575
0.265039	1.622230
0.265137	1.626849
0.265234	1.638056
0.265332	1.634802
0.265430	1.628767
0.265527	1.617220
0.265625	1.615341
0.265723	1.651848
0.265820	1.639944
0.265918	1.651844
0.266016	1.669176
0.266113	1.672064
0.266211	1.671784
0.266309	1.664867
0.266406	1.650125
0.266504	1.640959
0.266602	1.636199
0.266699	1.635191
0.266797	1.635068
0.266895	1.636116
0.266992	1.637625
0.267090	1.640660
0.267187	1.644196
0.267285	1.648957
0.267383	1.654503
0.267480	1.661424
0.267578	1.668052
0.267676	1.673734
0.267773	1.677354
0.267871	1.681815
0.267969	1.687676
0.268066	1.695692
0.268164	1.704368
0.268262	1.712718
0.268359	1.713599
0.268457	1.720645
0.268555	1.709433
0.268652	1.716082
0.268750	1.723327
0.268848	1.740685
0.268945	1.726921
0.269043	1.683928
0.269141	1.707839
0.269238	1.670955
0.269336	1.649261
0.269434	1.690840
0.269531	1.658654
0.269629	1.644771
0.269727	1.645173
0.269824	1.594530
0.269922	1.630471
0.270020	1.683982
0.270117	1.691483
0.270215	1.711831
0.270312	1.740355
0.270410	1.745492
0.270508	1.663864
0.270605	1.627576
0.270703	1.626844
0.270801	1.642178
0.270898	1.640790
0.270996	1.675464
0.271094	1.591695
0.271191	1.609078
0.271289	1.621377
0.271387	1.631790
0.271484	1.618569
0.271582	1.611726
0.271680	1.651057
0.271777	1.583834
0.271875	1.568642
0.271973	1.579165
0.272070	1.538715
0.272168	1.535606
0.272266	1.542513
0.272363	1.589365
0.272461	1.637967
0.272559	1.620022
0.272656	1.598067
0.272754	1.620199
0.272852	1.629158
0.272949	1.614669
0.273047	1.595305
0.273145	1.593876
0.273242	1.564529
0.273340	1.639858
0.273437	1.716577
0.273535	1.689004
0.273633	1.654455
0.273730	1.668083
0.273828	1.650471
0.273926	1.655252
0.274023	1.697714
0.274121	1.707854
0.274219	1.672093
0.274316	1.650397
0.274414	1.634180
0.274512	1.612344
0.274609	1.631360
0.274707	1.618628
0.274805	1.644055
0.274902	1.618804
0.275000	1.608254
0.275098	1.626811
0.275195	1.679113
0.275293	1.664080
0.275391	1.658458
0.275488	1.674005
0.275586	1.692705
0.275684	1.702266
0.275781	1.686496
0.275879	1.729637
0.275977	1.683651
0.276074	1.650756
0.276172	1.686225
0.276270	1.642156
0.276367	1.635635
0.276465	1.655789
0.276562	1.645691
0.276660	1.628958
0.276758	1.670255
0.276855	1.644157
0.276953	1.646250
0.277051	1.589056
0.277148	1.570342
0.277246	1.568182
0.277344	1.581319
0.277441	1.598798
0.277539	1.612925
0.277637	1.644543
0.277734	1.615014
0.277832	1.637742
0.277930	1.650544
0.278027	1.630501
0.278125	1.622463
0.278223	1.613719
0.278320	1.575140
0.278418	1.519736
0.278516	1.502052
0.278613	1.517380
0.278711	1.535998
0.278809	1.562997
0.278906	1.573008
0.279004	1.578836
0.279102	1.582577
0.279199	1.587568
0.279297	1.590734
0.279395	1.594486
0.279492	1.596586
0.279590	1.600559
0.279687	1.604749
0.279785	1.609590
0.279883	1.612642
0.279980	1.614660
0.280078	1.615696
0.280176	1.618856
0.280273	1.622314
0.280371	1.627583
0.280469	1.632151
0.280566	1.637575
0.280664	1.640919
0.280762	1.644957
0.280859	1.646775
0.280957	1.650597
0.281055	1.651898
0.281152	1.656399
0.281250	1.657874
0.281348	1.665271
0.281445	1.668565
0.281543	1.682999
0.281641	1.681633
0.281738	1.708983
0.281836	1.716825
0.281934	1.689904
0.282031	1.708605
0.282129	1.708330
0.282227	1.718046
0.282324	1.713441
0.282422	1.699998
0.282520	1.690971
0.282617	1.688617
0.282715	1.684047
0.282812	1.685451
0.282910	1.687941
0.283008	1.694135
0.283105	1.695535
0.283203	1.698924
0.283301	1.699017
0.283398	1.701071
0.283496	1.699148
0.283594	1.703614
0.283691	1.699093
0.283789	1.666087
0.283887	1.664551
0.283984	1.693318
0.284082	1.660918
0.284180	1.680278
0.284277	1.733038
0.284375	1.684412
0.284473	1.655900
0.284570	1.658876
0.284668	1.661659
0.284766	1.631595
0.284863	1.618029
0.284961	1.629819
0.285059	1.623272
0.285156	1.638383
0.285254	1.698998
0.285352	1.715199
0.285449	1.723614
0.285547	1.737094
0.285645	1.741335
0.285742	1.743654
0.285840	1.735741
0.285937	1.736219
0.286035	1.717242
0.286133	1.687316
0.286230	1.694981
0.286328	1.715797
0.286426	1.682929
0.286523	1.623811
0.286621	1.590004
0.286719	1.599583
0.286816	1.588154
0.286914	1.593144
0.287012	1.626731
0.287109	1.626333
0.287207	1.631873
0.287305	1.619716
0.287402	1.606717
0.287500	1.590214
0.287598	1.586868
0.287695	1.598894
0.287793	1.592058
0.287891	1.582879
0.287988	1.605895
0.288086	1.601757
0.288184	1.589463
0.288281	1.545182
0.288379	1.510108
0.288477	1.531539
0.288574	1.548090
0.288672	1.567624
0.288770	1.550791
0.288867	1.523490
0.288965	1.526043
0.289062	1.540466
0.289160	1.543399
0.289258	1.544730
0.289355	1.518460
0.289453	1.495230
0.289551	1.466464
0.289648	1.498195
0.289746	1.467024
0.289844	1.463830
0.289941	1.420563
0.290039	1.440608
0.290137	1.450759
0.290234	1.431038
0.290332	1.427276
0.290430	1.436169
0.290527	1.468309
0.290625	1.479040
0.290723	1.506416
0.290820	1.512883
0.290918	1.496196
0.291016	1.531727
0.291113	1.561000
0.291211	1.577213
0.291309	1.590258
0.291406	1.603269
0.291504	1.629864
0.291602	1.627121
0.291699	1.597967
0.291797	1.550472
0.291895	1.468308
0.291992	1.464911
0.292090	1.493400
0.292187	1.530211
0.292285	1.541557
0.292383	1.543577
0.292480	1.545144
0.292578	1.548569
0.292676	1.555876
0.292773	1.564809
0.292871	1.572809
0.292969	1.580559
0.293066	1.587757
0.293164	1.588249
0.293262	1.569624
0.293359	1.540550
0.293457	1.546980
0.293555	1.572743
0.293652	1.615319
0.293750	1.634740
0.293848	1.635664
0.293945	1.648738
0.294043	1.648677
0.294141	1.654500
0.294238	1.635998
0.294336	1.634242
0.294434	1.643950
0.294531	1.636885
0.294629	1.629592
0.294727	1.630238
0.294824	1.635764
0.294922	1.644735
0.295020	1.650194
0.295117	1.653877
0.295215	1.662060
0.295312	1.668356
0.295410	1.667883
0.295508	1.672141
0.295605	1.683982
0.295703	1.688306
0.295801	1.685541
0.295898	1.667538
0.295996	1.675328
0.296094	1.690238
0.296191	1.699224
0.296289	1.650800
0.296387	1.667621
0.296484	1.699075
0.296582	1.717817
0.296680	1.671139
0.296777	1.639831
0.296875	1.664559
0.296973	1.670727
0.297070	1.663943
0.297168	1.682815
0.297266	1.696682
0.297363	1.685721
0.297461	1.698780
0.297559	1.682159
0.297656	1.660055
0.297754	1.631422
0.297852	1.599308
0.297949	1.664103
0.298047	1.653679
0.298145	1.657368
0.298242	1.642520
0.298340	1.552810
0.298437	1.557333
0.298535	1.572185
0.298633	1.594656
0.298730	1.603457
0.298828	1.595843
0.298926	1.591077
0.299023	1.641939
0.299121	1.682014
0.299219	1.708356
0.299316	1.702901
0.299414	1.707586
0.299512	1.703376
0.299609	1.683206
0.299707	1.714155
0.299805	1.725147
0.299902	1.714755
0.300000	1.691166
0.300098	1.690752
0.300195	1.666657
0.300293	1.664792
0.300391	1.651088
0.300488	1.637229
0.300586	1.644011
0.300684	1.629811
0.300781	1.616520
0.300879	1.607448
0.300977	1.632483
0.301074	1.627876
0.301172	1.651246
0.301270	1.626082
0.301367	1.593344
0.301465	1.583713
0.301562	1.675970
0.301660	1.683224
0.301758	1.614375
0.301855	1.591751
0.301953	1.562979
0.302051	1.555389
0.302148	1.530341
0.302246	1.522671
0.302344	1.515420
0.302441	1.539904
0.302539	1.540911
0.302637	1.539502
0.302734	1.478105
0.302832	1.469023
0.302930	1.486599
0.303027	1.474304
0.303125	1.516163
0.303223	1.550404
0.303320	1.533449
0.303418	1.519933
0.303516	1.477549
0.303613	1.474207
0.303711	1.487043
0.303809	1.476262
0.303906	1.414395
0.304004	1.369007
0.304102	1.360881
0.304199	1.409720
0.304297	1.404437
0.304395	1.389172
0.304492	1.359870
0.304590	1.417761
0.304687	1.459810
0.304785	1.479279
0.304883	1.505312
0.304980	1.489684
0.305078	1.487838
0.305176	1.472145
0.305273	1.461920
0.305371	1.457708
0.305469	1.462946
0.305566	1.470951
0.305664	1.471005
0.305762	1.489723
0.305859	1.533607
0.305957	1.537830
0.306055	1.561342
0.306152	1.571161
0.306250	1.589668
0.306348	1.634942
0.306445	1.625282
0.306543	1.647810
0.306641	1.634831
0.306738	1.608188
0.306836	1.619952
0.306934	1.583087
0.307031	1.576743
0.307129	1.588505
0.307227	1.567550
0.307324	1.546082
0.307422	1.542425
0.307520	1.529700
0.307617	1.548156
0.307715	1.557455
0.307812	1.557258
0.307910	1.542184
0.308008	1.542366
0.308105	1.559750
0.308203	1.573553
0.308301	1.584841
0.308398	1.561529
0.308496	1.569148
0.308594	1.596375
0.308691	1.573322
0.308789	1.571079
0.308887	1.565973
0.308984	1.540607
0.309082	1.549484
0.309180	1.592002
0.309277	1.642517
0.309375	1.676321
0.309473	1.671398
0.309570	1.657581
0.309668	1.688573
0.309766	1.682530
0.309863	1.659535
0.309961	1.631971
0.310059	1.617208
0.310156	1.623378
0.310254	1.592632
0.310352	1.567951
0.310449	1.555407
0.310547	1.601676
0.310645	1.589235
0.310742	1.627649
0.310840	1.677710
0.310937	1.663787
0.311035	1.691803
0.311133	1.698171
0.311230	1.657833
0.311328	1.645845
0.311426	1.678384
0.311523	1.690970
0.311621	1.699205
0.311719	1.700929
0.311816	1.704154
0.311914	1.708024
0.312012	1.707606
0.312109	1.709654
0.312207	1.711620
0.312305	1.700243
0.312402	1.696911
0.312500	1.700113
0.312598	1.700353
0.312695	1.705376
0.312793	1.657558
0.312891	1.608540
0.312988	1.654080
0.313086	1.659376
0.313184	1.677024
0.313281	1.688604
0.313379	1.627204
0.313477	1.613746
0.313574	1.617976
0.313672	1.625135
0.313770	1.630202
0.313867	1.577473
0.313965	1.563183
0.314062	1.551494
0.314160	1.573639
0.314258	1.588827
0.314355	1.579331
0.314453	1.599766
0.314551	1.590806
0.314648	1.558642
0.314746	1.533980
0.314844	1.521290
0.314941	1.544169
0.315039	1.559578
0.315137	1.561691
0.315234	1.544861
0.315332	1.529971
0.315430	1.517599
0.315527	1.504768
0.315625	1.471201
0.315723	1.461241
0.315820	1.529494
0.315918	1.536114
0.316016	1.557090
0.316113	1.575644
0.316211	1.595292
0.316309	1.645075
0.316406	1.637850
0.316504	1.603293
0.316602	1.582082
0.316699	1.622084
0.316797	1.623506
0.316895	1.614592
0.316992	1.614162
0.317090	1.648692
0.317187	1.649249
0.317285	1.623663
0.317383	1.639853
0.317480	1.637737
0.317578	1.599523
0.317676	1.597943
0.317773	1.573769
0.317871	1.528208
0.317969	1.546516
0.318066	1.584402
0.318164	1.568219
0.318262	1.534246
0.318359	1.594471
0.318457	1.639796
0.318555	1.652453
0.318652	1.644023
0.318750	1.635896
0.318848	1.631568
0.318945	1.632444
0.319043	1.634989
0.319141	1.640033
0.319238	1.641694
0.319336	1.645467
0.319434	1.651232
0.319531	1.657198
0.319629	1.659881
0.319727	1.661272
0.319824	1.662727
0.319922	1.664663
0.320020	1.666816
0.320117	1.669247
0.320215	1.671323
0.320312	1.670605
0.320410	1.669446
0.320508	1.669333
0.320605	1.670310
0.320703	1.672583
0.320801	1.676890
0.320898	1.681554
0.320996	1.680575
0.321094	1.676134
0.321191	1.677111
0.321289	1.678491
0.321387	1.680082
0.321484	1.681669
0.321582	1.685324
0.321680	1.684219
0.321777	1.699309
0.321875	1.723743
0.321973	1.700671
0.322070	1.696003
0.322168	1.680433
0.322266	1.654937
0.322363	1.596160
0.322461	1.603400
0.322559	1.713768
0.322656	1.714219
0.322754	1.686854
0.322852	1.684143
0.322949	1.682006
0.323047	1.687357
0.323145	1.687045
0.323242	1.687947
0.323340	1.687773
0.323437	1.690612
0.323535	1.692822
0.323633	1.696919
0.323730	1.700676
0.323828	1.706727
0.323926	1.712983
0.324023	1.722533
0.324121	1.730235
0.324219	1.732435
0.324316	1.735552
0.324414	1.724547
0.324512	1.679615
0.324609	1.701882
0.324707	1.698372
0.324805	1.710068
0.324902	1.712022
0.325000	1.731307
0.325098	1.754982
0.325195	1.727191
0.325293	1.716317
0.325391	1.687764
0.325488	1.683265
0.325586	1.679263
0.325684	1.719490
0.325781	1.723022
0.325879	1.692311
0.325977	1.736584
0.326074	1.741877
0.326172	1.751203
0.326270	1.699512
0.326367	1.662815
0.326465	1.683545
0.326562	1.722227
0.326660	1.719875
0.326758	1.733369
0.326855	1.777006
0.326953	1.770441
0.327051	1.723456
0.327148	1.710031
0.327246	1.691067
0.327344	1.662077
0.327441	1.645946
0.327539	1.656225
0.327637	1.719864
0.327734	1.683186
0.327832	1.675615
0.327930	1.643193
0.328027	1.616118
0.328125	1.628633
0.328223	1.631036
0.328320	1.661286
0.328418	1.629765
0.328516	1.616845
0.328613	1.624645
0.328711	1.612223
0.328809	1.606105
0.328906	1.609351
0.329004	1.609668
0.329102	1.613485
0.329199	1.617080
0.329297	1.623690
0.329395	1.632226
0.329492	1.645640
0.329590	1.662473
0.329687	1.661841
0.329785	1.665277
0.329883	1.667805
0.329980	1.672385
0.330078	1.681867
0.330176	1.685179
0.330273	1.688406
0.330371	1.694525
0.330469	1.697537
0.330566	1.701618
0.330664	1.706029
0.330762	1.715202
0.330859	1.720265
0.330957	1.718629
0.331055	1.717330
0.331152	1.716294
0.331250	1.712281
0.331348	1.714490
0.331445	1.713584
0.331543	1.710904
0.331641	1.703955
0.331738	1.700989
0.331836	1.697633
0.331934	1.694613
0.332031	1.698708
0.332129	1.698133
0.332227	1.703191
0.332324	1.745615
0.332422	1.725067
0.332520	1.684121
0.332617	1.697871
0.332715	1.676288
0.332812	1.632848
0.332910	1.571878
0.333008	1.595677
0.333105	1.557735
0.333203	1.533454
0.333301	1.575482
0.333398	1.583226
0.333496	1.563254
0.333594	1.556761
0.333691	1.568343
0.333789	1.584541
0.333887	1.556054
0.333984	1.549845
0.334082	1.550118
0.334180	1.535566
0.334277	1.519140
0.334375	1.534927
0.334473	1.554144
0.334570	1.564090
0.334668	1.547493
0.334766	1.543864
0.334863	1.532280
0.334961	1.513890
0.335059	1.516134
0.335156	1.533462
0.335254	1.527066
0.335352	1.508612
0.335449	1.513014
0.335547	1.518315
0.335645	1.529551
0.335742	1.537328
0.335840	1.546200
0.335937	1.552781
0.336035	1.557980
0.336133	1.563517
0.336230	1.567919
0.336328	1.577966
0.336426	1.568611
0.336523	1.531111
0.336621	1.517585
0.336719	1.546609
0.336816	1.592060
0.336914	1.624515
0.337012	1.596653
0.337109	1.631158
0.337207	1.660790
0.337305	1.656526
0.337402	1.663749
0.337500	1.664413
0.337598	1.686275
0.337695	1.692004
0.337793	1.695137
0.337891	1.691337
0.337988	1.698893
0.338086	1.640390
0.338184	1.662675
0.338281	1.667140
0.338379	1.659044
0.338477	1.690035
0.338574	1.662741
0.338672	1.678015
0.338770	1.641898
0.338867	1.646780
0.338965	1.680207
0.339062	1.728681
0.339160	1.682335
0.339258	1.684560
0.339355	1.696535
0.339453	1.715775
0.339551	1.708509
0.339648	1.706935
0.339746	1.717032
0.339844	1.720138
0.339941	1.727085
0.340039	1.703011
0.340137	1.667765
0.340234	1.673728
0.340332	1.691230
0.340430	1.653270
0.340527	1.644728
0.340625	1.590599
0.340723	1.591605
0.340820	1.618774
0.340918	1.650171
0.341016	1.637802
0.341113	1.586520
0.341211	1.638650
0.341309	1.655914
0.341406	1.655546
0.341504	1.591589
0.341602	1.569415
0.341699	1.548519
0.341797	1.488825
0.341895	1.500429
0.341992	1.555808
0.342090	1.599129
0.342187	1.530472
0.342285	1.498927
0.342383	1.543481
0.342480	1.551867
0.342578	1.538373
0.342676	1.539499
0.342773	1.525465
0.342871	1.473533
0.342969	1.496431
0.343066	1.500253
0.343164	1.450232
0.343262	1.476990
0.343359	1.509679
0.343457	1.527183
0.343555	1.505213
0.343652	1.478390
0.343750	1.487963
0.343848	1.494635
0.343945	1.453693
0.344043	1.430382
0.344141	1.424485
0.344238	1.418480
0.344336	1.441025
0.344434	1.445338
0.344531	1.437439
0.344629	1.466106
0.344727	1.474297
0.344824	1.493328
0.344922	1.512098
0.345020	1.554475
0.345117	1.511818
0.345215	1.514207
0.345312	1.587735
0.345410	1.637861
0.345508	1.645593
0.345605	1.579695
0.345703	1.528678
0.345801	1.512593
0.345898	1.520312
0.345996	1.561605
0.346094	1.580858
0.346191	1.567139
0.346289	1.621594
0.346387	1.634501
0.346484	1.618629
0.346582	1.601902
0.346680	1.586381
0.346777	1.577966
0.346875	1.583450
0.346973	1.589018
0.347070	1.564218
0.347168	1.551584
0.347266	1.566839
0.347363	1.611867
0.347461	1.596550
0.347559	1.598391
0.347656	1.609074
0.347754	1.590025
0.347852	1.588040
0.347949	1.586376
0.348047	1.589286
0.348145	1.590432
0.348242	1.593690
0.348340	1.596004
0.348437	1.599949
0.348535	1.602953
0.348633	1.606388
0.348730	1.607988
0.348828	1.609762
0.348926	1.611316
0.349023	1.613899
0.349121	1.616836
0.349219	1.620634
0.349316	1.624395
0.349414	1.628029
0.349512	1.631566
0.349609	1.635550
0.349707	1.640373
0.349805	1.646238
0.349902	1.652296
0.350000	1.655467
0.350098	1.659540
0.350195	1.662054
0.350293	1.670512
0.350391	1.684196
0.350488	1.704538
0.350586	1.690879
0.350684	1.675334
0.350781	1.690286
0.350879	1.677584
0.350977	1.693314
0.351074	1.683185
0.351172	1.696982
0.351270	1.710908
0.351367	1.638938
0.351465	1.616847
0.351562	1.595399
0.351660	1.612570
0.351758	1.611469
0.351855	1.590741
0.351953	1.585427
0.352051	1.567474
0.352148	1.588631
0.352246	1.570722
0.352344	1.570145
0.352441	1.596148
0.352539	1.592377
0.352637	1.556488
0.352734	1.544819
0.352832	1.529348
0.352930	1.580365
0.353027	1.593180
0.353125	1.570526
0.353223	1.597397
0.353320	1.602941
0.353418	1.651115
0.353516	1.657292
0.353613	1.657855
0.353711	1.665921
0.353809	1.644022
0.353906	1.642395
0.354004	1.640764
0.354102	1.641214
0.354199	1.616094
0.354297	1.589997
0.354395	1.565354
0.354492	1.549130
0.354590	1.580316
0.354687	1.600713
0.354785	1.603526
0.354883	1.610089
0.354980	1.584475
0.355078	1.629440
0.355176	1.646687
0.355273	1.631933
0.355371	1.571324
0.355469	1.513039
0.355566	1.523146
0.355664	1.540933
0.355762	1.580882
0.355859	1.622171
0.355957	1.635447
0.356055	1.634113
0.356152	1.631482
0.356250	1.632017
0.356348	1.632448
0.356445	1.638682
0.356543	1.589160
0.356641	1.571380
0.356738	1.587088
0.356836	1.608828
0.356934	1.612476
0.357031	1.585725
0.357129	1.605585
0.357227	1.600091
0.357324	1.565248
0.357422	1.533340
0.357520	1.525756
0.357617	1.513902
0.357715	1.494336
0.357812	1.507073
0.357910	1.531752
0.358008	1.538794
0.358105	1.522945
0.358203	1.492963
0.358301	1.464741
0.358398	1.410054
0.358496	1.411551
0.358594	1.453302
0.358691	1.438629
0.358789	1.386597
0.358887	1.350997
0.358984	1.331895
0.359082	1.342603
0.359180	1.418525
0.359277	1.490941
0.359375	1.528538
0.359473	1.545420
0.359570	1.547117
0.359668	1.535606
0.359766	1.546595
0.359863	1.505903
0.359961	1.482090
0.360059	1.529387
0.360156	1.522845
0.360254	1.552949
0.360352	1.563570
0.360449	1.564511
0.360547	1.562707
0.360645	1.572077
0.360742	1.579778
0.360840	1.596730
0.360937	1.606409
0.361035	1.613895
0.361133	1.615850
0.361230	1.625714
0.361328	1.632382
0.361426	1.647868
0.361523	1.659176
0.361621	1.672815
0.361719	1.671960
0.361816	1.680120
0.361914	1.638228
0.362012	1.653707
0.362109	1.692968
0.362207	1.685769
0.362305	1.693475
0.362402	1.693156
0.362500	1.697882
0.362598	1.698203
0.362695	1.699141
0.362793	1.696727
0.362891	1.696038
0.362988	1.696601
0.363086	1.704225
0.363184	1.737968
0.363281	1.721010
0.363379	1.693123
0.363477	1.744323
0.363574	1.739258
0.363672	1.740365
0.363770	1.745478
0.363867	1.701834
0.363965	1.708258
0.364062	1.706805
0.364160	1.709791
0.364258	1.715898
0.364355	1.728961
0.364453	1.736966
0.364551	1.743723
0.364648	1.753601
0.364746	1.745053
0.364844	1.705921
0.364941	1.732485
0.365039	1.756677
0.365137	1.759000
0.365234	1.746780
0.365332	1.712238
0.365430	1.727038
0.365527	1.762596
0.365625	1.726167
0.365723	1.741110
0.365820	1.729971
0.365918	1.715063
0.366016	1.734193
0.366113	1.742046
0.366211	1.654225
0.366309	1.634138
0.366406	1.621841
0.366504	1.643069
0.366602	1.638037
0.366699	1.565682
0.366797	1.571216
0.366895	1.576433
0.366992	1.620706
0.367090	1.657738
0.367187	1.641968
0.367285	1.633766
0.367383	1.628702
0.367480	1.589044
0.367578	1.568885
0.367676	1.527153
0.367773	1.540263
0.367871	1.577119
0.367969	1.678207
0.368066	1.684696
0.368164	1.615497
0.368262	1.584983
0.368359	1.554097
0.368457	1.552294
0.368555	1.582036
0.368652	1.568487
0.368750	1.547864
0.368848	1.560469
0.368945	1.538351
0.369043	1.537481
0.369141	1.539719
0.369238	1.516231
0.369336	1.603636
0.369434	1.634089
0.369531	1.607258
0.369629	1.621621
0.369727	1.624153
0.369824	1.622788
0.369922	1.598690
0.370020	1.614915
0.370117	1.630072
0.370215	1.649544
0.370312	1.657974
0.370410	1.677009
0.370508	1.698946
0.370605	1.691743
0.370703	1.632941
0.370801	1.644486
0.370898	1.643070
0.370996	1.569216
0.371094	1.560692
0.371191	1.575923
0.371289	1.554399
0.371387	1.537592
0.371484	1.529419
0.371582	1.523324
0.371680	1.527203
0.371777	1.513682
0.371875	1.495463
0.371973	1.473482
0.372070	1.449275
0.372168	1.457946
0.372266	1.481397
0.372363	1.512110
0.372461	1.537850
0.372559	1.553410
0.372656	1.555177
0.372754	1.545839
0.372852	1.554426
0.372949	1.556252
0.373047	1.543865
0.373145	1.531369
0.373242	1.515640
0.373340	1.499359
0.373437	1.493163
0.373535	1.493665
0.373633	1.503106
0.373730	1.510547
0.373828	1.521547
0.373926	1.546466
0.374023	1.570261
0.374121	1.576927
0.374219	1.574077
0.374316	1.573620
0.374414	1.574909
0.374512	1.575041
0.374609	1.575784
0.374707	1.575461
0.374805	1.573199
0.374902	1.572409
0.375000	1.573640
0.375098	1.576279
0.375195	1.579665
0.375293	1.583809
0.375391	1.588796
0.375488	1.596053
0.375586	1.606501
0.375684	1.617349
0.375781	1.621484
0.375879	1.625252
0.375977	1.629287
0.376074	1.632956
0.376172	1.637042
0.376270	1.641211
0.376367	1.645417
0.376465	1.650176
0.376562	1.655113
0.376660	1.657916
0.376758	1.660795
0.376855	1.665367
0.376953	1.671724
0.377051	1.677092
0.377148	1.674733
0.377246	1.664737
0.377344	1.624074
0.377441	1.613283
0.377539	1.627787
0.377637	1.653405
0.377734	1.695274
0.377832	1.704117
0.377930	1.661668
0.378027	1.687808
0.378125	1.687908
0.378223	1.681360
0.378320	1.680425
0.378418	1.684694
0.378516	1.706465
0.378613	1.709207
0.378711	1.697807
0.378809	1.673818
0.378906	1.652988
0.379004	1.630276
0.379102	1.612416
0.379199	1.667018
0.379297	1.632636
0.379395	1.578583
0.379492	1.575850
0.379590	1.528159
0.379687	1.485998
0.379785	1.518383
0.379883	1.537941
0.379980	1.571873
0.380078	1.572662
0.380176	1.582284
0.380273	1.512924
0.380371	1.562060
0.380469	1.636696
0.380566	1.632417
0.380664	1.609693
0.380762	1.599624
0.380859	1.628364
0.380957	1.582881
0.381055	1.535167
0.381152	1.597925
0.381250	1.617912
0.381348	1.571831
0.381445	1.537376
0.381543	1.509989
0.381641	1.567549
0.381738	1.594660
0.381836	1.588956
0.381934	1.570367
0.382031	1.548516
0.382129	1.526350
0.382227	1.508051
0.382324	1.529248
0.382422	1.583582
0.382520	1.586944
0.382617	1.580948
0.382715	1.567971
0.382812	1.558675
0.382910	1.570786
0.383008	1.564333
0.383105	1.539196
0.383203	1.529973
0.383301	1.533556
0.383398	1.536246
0.383496	1.568201
0.383594	1.561101
0.383691	1.554463
0.383789	1.575045
0.383887	1.540709
0.383984	1.542773
0.384082	1.539599
0.384180	1.532197
0.384277	1.533079
0.384375	1.516890
0.384473	1.490654
0.384570	1.452830
0.384668	1.474537
0.384766	1.544472
0.384863	1.548341
0.384961	1.550072
0.385059	1.565656
0.385156	1.574279
0.385254	1.583041
0.385352	1.579103
0.385449	1.557369
0.385547	1.539895
0.385645	1.520350
0.385742	1.526831
0.385840	1.580263
0.385937	1.592189
0.386035	1.567124
0.386133	1.531161
0.386230	1.496144
0.386328	1.475017
0.386426	1.446840
0.386523	1.543003
0.386621	1.596537
0.386719	1.576402
0.386816	1.565123
0.386914	1.525381
0.387012	1.543485
0.387109	1.534051
0.387207	1.525643
0.387305	1.484606
0.387402	1.480338
0.387500	1.534632
0.387598	1.528118
0.387695	1.580501
0.387793	1.594317
0.387891	1.607959
0.387988	1.619065
0.388086	1.626235
0.388184	1.633388
0.388281	1.642084
0.388379	1.645233
0.388477	1.648514
0.388574	1.643053
0.388672	1.636128
0.388770	1.597543
0.388867	1.614827
0.388965	1.581033
0.389062	1.558806
0.389160	1.555471
0.389258	1.531184
0.389355	1.481269
0.389453	1.452829
0.389551	1.499291
0.389648	1.528999
0.389746	1.537197
0.389844	1.524867
0.389941	1.568943
0.390039	1.574571
0.390137	1.564403
0.390234	1.525430
0.390332	1.497455
0.390430	1.561369
0.390527	1.561497
0.390625	1.565113
0.390723	1.637427
0.390820	1.685524
0.390918	1.668625
0.391016	1.626317
0.391113	1.630374
0.391211	1.625168
0.391309	1.623017
0.391406	1.592046
0.391504	1.559362
0.391602	1.580144
0.391699	1.607195
0.391797	1.569622
0.391895	1.551240
0.391992	1.494436
0.392090	1.519036
0.392187	1.552462
0.392285	1.535735
0.392383	1.516716
0.392480	1.564473
0.392578	1.614271
0.392676	1.575179
0.392773	1.591739
0.392871	1.595666
0.392969	1.639100
0.393066	1.651599
0.393164	1.667714
0.393262	1.658547
0.393359	1.685982
0.393457	1.707510
0.393555	1.700105
0.393652	1.695050
0.393750	1.686967
0.393848	1.646135
0.393945	1.610957
0.394043	1.619016
0.394141	1.580325
0.394238	1.594608
0.394336	1.599063
0.394434	1.640489
0.394531	1.603412
0.394629	1.572474
0.394727	1.615105
0.394824	1.582115
0.394922	1.551629
0.395020	1.564279
0.395117	1.557829
0.395215	1.575759
0.395312	1.580505
0.395410	1.590698
0.395508	1.634019
0.395605	1.611757
0.395703	1.624705
0.395801	1.640738
0.395898	1.633931
0.395996	1.674029
0.396094	1.697141
0.396191	1.657070
0.396289	1.616006
0.396387	1.581403
0.396484	1.597471
0.396582	1.600132
0.396680	1.597102
0.396777	1.592287
0.396875	1.570576
0.396973	1.566081
0.397070	1.567108
0.397168	1.584709
0.397266	1.598526
0.397363	1.573730
0.397461	1.565386
0.397559	1.540474
0.397656	1.574010
0.397754	1.584706
0.397852	1.548093
0.397949	1.551691
0.398047	1.536686
0.398145	1.540619
0.398242	1.570004
0.398340	1.565619
0.398437	1.554149
0.398535	1.548329
0.398633	1.499748
0.398730	1.467258
0.398828	1.499468
0.398926	1.505014
0.399023	1.521614
0.399121	1.562102
0.399219	1.572527
0.399316	1.578444
0.399414	1.576161
0.399512	1.583976
0.399609	1.597595
0.399707	1.571282
0.399805	1.580853
0.399902	1.577109
0.400000	1.488117
0.400098	1.516469
0.400195	1.571173
0.400293	1.529442
0.400391	1.511273
0.400488	1.493060
0.400586	1.411076
0.400684	1.405412
0.400781	1.466406
0.400879	1.439589
0.400977	1.440536
0.401074	1.468638
0.401172	1.507502
0.401270	1.512775
0.401367	1.515775
0.401465	1.481621
0.401562	1.469975
0.401660	1.506547
0.401758	1.549116
0.401855	1.573040
0.401953	1.534191
0.402051	1.529995
0.402148	1.535715
0.402246	1.576388
0.402344	1.660862
0.402441	1.601522
0.402539	1.586935
0.402637	1.600773
0.402734	1.615669
0.402832	1.611805
0.402930	1.623093
0.403027	1.639925
0.403125	1.620606
0.403223	1.636875
0.403320	1.578093
0.403418	1.492783
0.403516	1.536286
0.403613	1.552555
0.403711	1.567833
0.403809	1.587062
0.403906	1.606713
0.404004	1.617792
0.404102	1.617929
0.404199	1.619709
0.404297	1.619068
0.404395	1.629030
0.404492	1.639476
0.404590	1.644052
0.404687	1.640008
0.404785	1.639783
0.404883	1.647379
0.404980	1.636245
0.405078	1.636472
0.405176	1.604370
0.405273	1.641794
0.405371	1.678773
0.405469	1.647157
0.405566	1.614333
0.405664	1.651906
0.405762	1.669228
0.405859	1.665265
0.405957	1.670545
0.406055	1.680865
0.406152	1.691809
0.406250	1.690854
0.406348	1.670209
0.406445	1.633263
0.406543	1.556476
0.406641	1.556445
0.406738	1.616931
0.406836	1.603553
0.406934	1.651321
0.407031	1.629322
0.407129	1.643930
0.407227	1.679356
0.407324	1.669028
0.407422	1.669196
0.407520	1.660066
0.407617	1.651909
0.407715	1.621827
0.407812	1.618098
0.407910	1.598123
0.408008	1.590979
0.408105	1.571798
0.408203	1.540700
0.408301	1.545756
0.408398	1.520187
0.408496	1.525952
0.408594	1.536541
0.408691	1.535982
0.408789	1.526087
0.408887	1.531296
0.408984	1.516929
0.409082	1.509205
0.409180	1.511055
0.409277	1.521371
0.409375	1.500780
0.409473	1.484699
0.409570	1.476729
0.409668	1.475347
0.409766	1.496630
0.409863	1.515947
0.409961	1.555760
0.410059	1.600337
0.410156	1.662951
0.410254	1.580502
0.410352	1.604494
0.410449	1.611827
0.410547	1.588565
0.410645	1.600383
0.410742	1.606684
0.410840	1.576948
0.410937	1.571159
0.411035	1.583143
0.411133	1.485802
0.411230	1.457317
0.411328	1.469628
0.411426	1.469354
0.411523	1.509632
0.411621	1.563907
0.411719	1.565045
0.411816	1.575097
0.411914	1.599033
0.412012	1.627231
0.412109	1.622732
0.412207	1.634460
0.412305	1.589044
0.412402	1.603141
0.412500	1.620665
0.412598	1.638972
0.412695	1.619294
0.412793	1.632485
0.412891	1.620379
0.412988	1.628816
0.413086	1.637220
0.413184	1.596119
0.413281	1.584624
0.413379	1.568450
0.413477	1.599719
0.413574	1.609851
0.413672	1.605330
0.413770	1.581185
0.413867	1.564807
0.413965	1.608973
0.414062	1.615573
0.414160	1.613393
0.414258	1.637076
0.414355	1.637415
0.414453	1.652958
0.414551	1.658049
0.414648	1.646261
0.414746	1.615292
0.414844	1.650143
0.414941	1.665168
0.415039	1.657948
0.415137	1.640707
0.415234	1.625691
0.415332	1.646723
0.415430	1.654615
0.415527	1.649325
0.415625	1.652420
0.415723	1.648821
0.415820	1.666434
0.415918	1.667330
0.416016	1.643802
0.416113	1.645031
0.416211	1.634955
0.416309	1.632987
0.416406	1.590056
0.416504	1.584981
0.416602	1.563651
0.416699	1.595725
0.416797	1.582757
0.416895	1.546638
0.416992	1.511596
0.417090	1.434401
0.417187	1.384430
0.417285	1.430667
0.417383	1.490833
0.417480	1.499020
0.417578	1.519617
0.417676	1.531656
0.417773	1.499400
0.417871	1.482526
0.417969	1.474437
0.418066	1.480715
0.418164	1.531826
0.418262	1.565295
0.418359	1.526081
0.418457	1.528100
0.418555	1.509677
0.418652	1.522466
0.418750	1.492953
0.418848	1.473963
0.418945	1.413465
0.419043	1.446519
0.419141	1.459659
0.419238	1.551648
0.419336	1.651699
0.419434	1.634315
0.419531	1.641402
0.419629	1.606495
0.419727	1.604661
0.419824	1.604367
0.419922	1.585715
0.420020	1.571499
0.420117	1.613643
0.420215	1.612131
0.420312	1.630058
0.420410	1.642914
0.420508	1.610343
0.420605	1.600109
0.420703	1.598576
0.420801	1.587819
0.420898	1.571981
0.420996	1.542205
0.421094	1.560758
0.421191	1.576277
0.421289	1.556181
0.421387	1.557840
0.421484	1.573271
0.421582	1.612293
0.421680	1.642388
0.421777	1.658034
0.421875	1.652792
0.421973	1.654834
0.422070	1.645508
0.422168	1.589157
0.422266	1.629880
0.422363	1.603103
0.422461	1.578538
0.422559	1.565912
0.422656	1.529431
0.422754	1.585009
0.422852	1.589217
0.422949	1.654434
0.423047	1.682012
0.423145	1.649402
0.423242	1.637066
0.423340	1.599574
0.423437	1.612588
0.423535	1.604997
0.423633	1.603444
0.423730	1.592463
0.423828	1.595474
0.423926	1.530806
0.424023	1.561008
0.424121	1.505360
0.424219	1.529708
0.424316	1.647586
0.424414	1.653225
0.424512	1.637549
0.424609	1.603414
0.424707	1.626526
0.424805	1.615986
0.424902	1.556001
0.425000	1.581797
0.425098	1.586509
0.425195	1.492767
0.425293	1.357270
0.425391	1.319326
0.425488	1.340817
0.425586	1.347758
0.425684	1.461684
0.425781	1.537628
0.425879	1.410470
0.425977	1.419424
0.426074	1.513372
0.426172	1.499586
0.426270	1.468815
0.426367	1.496517
0.426465	1.553268
0.426562	1.573893
0.426660	1.588273
0.426758	1.575469
0.426855	1.627330
0.426953	1.665424
0.427051	1.677294
0.427148	1.669724
0.427246	1.669949
0.427344	1.669328
0.427441	1.655772
0.427539	1.640263
0.427637	1.642710
0.427734	1.600423
0.427832	1.567612
0.427930	1.544385
0.428027	1.611939
0.428125	1.610573
0.428223	1.581232
0.428320	1.552359
0.428418	1.600089
0.428516	1.631154
0.428613	1.626024
0.428711	1.640553
0.428809	1.650246
0.428906	1.662224
0.429004	1.684962
0.429102	1.689511
0.429199	1.666802
0.429297	1.652765
0.429395	1.673964
0.429492	1.703864
0.429590	1.670964
0.429687	1.661407
0.429785	1.622429
0.429883	1.636693
0.429980	1.619627
0.430078	1.631284
0.430176	1.616752
0.430273	1.610885
0.430371	1.671334
0.430469	1.625627
0.430566	1.661796
0.430664	1.590760
0.430762	1.583918
0.430859	1.590825
0.430957	1.568686
0.431055	1.511080
0.431152	1.554540
0.431250	1.587244
0.431348	1.549532
0.431445	1.583954
0.431543	1.585510
0.431641	1.575686
0.431738	1.553523
0.431836	1.573018
0.431934	1.564793
0.432031	1.609626
0.432129	1.607405
0.432227	1.634773
0.432324	1.615878
0.432422	1.552314
0.432520	1.572954
0.432617	1.592620
0.432715	1.632034
0.432812	1.646876
0.432910	1.642307
0.433008	1.643023
0.433105	1.652973
0.433203	1.651728
0.433301	1.644988
0.433398	1.643800
0.433496	1.643739
0.433594	1.636895
0.433691	1.637654
0.433789	1.621042
0.433887	1.594382
0.433984	1.610096
0.434082	1.588767
0.434180	1.575607
0.434277	1.564401
0.434375	1.565112
0.434473	1.557370
0.434570	1.556306
0.434668	1.529016
0.434766	1.501653
0.434863	1.509923
0.434961	1.544001
0.435059	1.568166
0.435156	1.557165
0.435254	1.614635
0.435352	1.643747
0.435449	1.649826
0.435547	1.622797
0.435645	1.616949
0.435742	1.605536
0.435840	1.609601
0.435937	1.591906
0.436035	1.610973
0.436133	1.636312
0.436230	1.630555
0.436328	1.636278
0.436426	1.632593
0.436523	1.628408
0.436621	1.630072
0.436719	1.635784
0.436816	1.649611
0.436914	1.661618
0.437012	1.675387
0.437109	1.663603
0.437207	1.649567
0.437305	1.656891
0.437402	1.668785
0.437500	1.668320
0.437598	1.676840
0.437695	1.673098
0.437793	1.670068
0.437891	1.678290
0.437988	1.668419
0.438086	1.666641
0.438184	1.660970
0.438281	1.673443
0.438379	1.680464
0.438477	1.672475
0.438574	1.668278
0.438672	1.673253
0.438770	1.674727
0.438867	1.674170
0.438965	1.675408
0.439062	1.676543
0.439160	1.675038
0.439258	1.674163
0.439355	1.671742
0.439453	1.668789
0.439551	1.666173
0.439648	1.663810
0.439746	1.661891
0.439844	1.659036
0.439941	1.652893
0.440039	1.646957
0.440137	1.644567
0.440234	1.643548
0.440332	1.642343
0.440430	1.641670
0.440527	1.641572
0.440625	1.642139
0.440723	1.642771
0.440820	1.643624
0.440918	1.645416
0.441016	1.648346
0.441113	1.651919
0.441211	1.655524
0.441309	1.658919
0.441406	1.662101
0.441504	1.665265
0.441602	1.667931
0.441699	1.670006
0.441797	1.671904
0.441895	1.673778
0.441992	1.676060
0.442090	1.678391
0.442187	1.681086
0.442285	1.683656
0.442383	1.686833
0.442480	1.689849
0.442578	1.693175
0.442676	1.694519
0.442773	1.694195
0.442871	1.695029
0.442969	1.697835
0.443066	1.700961
0.443164	1.705318
0.443262	1.709016
0.443359	1.714034
0.443457	1.719819
0.443555	1.725893
0.443652	1.721222
0.443750	1.734615
0.443848	1.730972
0.443945	1.719489
0.444043	1.726465
0.444141	1.740451
0.444238	1.746868
0.444336	1.754776
0.444434	1.747020
0.444531	1.722215
0.444629	1.735936
0.444727	1.691768
0.444824	1.718738
0.444922	1.742360
0.445020	1.606890
0.445117	1.574860
0.445215	1.588902
0.445312	1.616818
0.445410	1.644499
0.445508	1.599954
0.445605	1.594867
0.445703	1.648825
0.445801	1.698070
0.445898	1.676616
0.445996	1.668061
0.446094	1.677536
0.446191	1.687003
0.446289	1.683708
0.446387	1.678105
0.446484	1.681998
0.446582	1.696582
0.446680	1.676495
0.446777	1.680057
0.446875	1.680222
0.446973	1.706577
0.447070	1.716637
0.447168	1.734594
0.447266	1.733378
0.447363	1.743161
0.447461	1.689329
0.447559	1.685524
0.447656	1.684632
0.447754	1.669202
0.447852	1.690256
0.447949	1.698544
0.448047	1.707751
0.448145	1.704874
0.448242	1.702378
0.448340	1.699534
0.448437	1.706472
0.448535	1.715102
0.448633	1.713537
0.448730	1.711508
0.448828	1.708494
0.448926	1.694785
0.449023	1.637482
0.449121	1.610114
0.449219	1.608627
0.449316	1.617561
0.449414	1.551154
0.449512	1.554169
0.449609	1.583579
0.449707	1.554868
0.449805	1.570283
0.449902	1.585933
0.450000	1.572470
0.450098	1.543647
0.450195	1.587348
0.450293	1.590673
0.450391	1.610050
0.450488	1.639345
0.450586	1.629588
0.450684	1.613573
0.450781	1.647770
0.450879	1.616088
0.450977	1.621199
0.451074	1.619723
0.451172	1.595032
0.451270	1.620224
0.451367	1.642062
0.451465	1.664372
0.451562	1.674576
0.451660	1.677610
0.451758	1.674362
0.451855	1.668816
0.451953	1.650912
0.452051	1.654348
0.452148	1.655594
0.452246	1.662676
0.452344	1.634706
0.452441	1.560464
0.452539	1.537819
0.452637	1.548619
0.452734	1.561673
0.452832	1.578099
0.452930	1.574466
0.453027	1.638294
0.453125	1.650724
0.453223	1.661697
0.453320	1.644437
0.453418	1.627550
0.453516	1.625373
0.453613	1.629625
0.453711	1.634506
0.453809	1.636954
0.453906	1.637561
0.454004	1.637897
0.454102	1.637692
0.454199	1.638596
0.454297	1.639648
0.454395	1.640895
0.454492	1.641302
0.454590	1.642278
0.454687	1.643548
0.454785	1.646663
0.454883	1.651182
0.454980	1.656166
0.455078	1.661525
0.455176	1.658719
0.455273	1.640273
0.455371	1.662494
0.455469	1.679311
0.455566	1.669598
0.455664	1.662829
0.455762	1.670909
0.455859	1.685777
0.455957	1.673567
0.456055	1.670353
0.456152	1.663527
0.456250	1.661863
0.456348	1.660372
0.456445	1.666695
0.456543	1.672088
0.456641	1.681917
0.456738	1.684373
0.456836	1.691792
0.456934	1.688476
0.457031	1.684199
0.457129	1.641887
0.457227	1.687878
0.457324	1.678393
0.457422	1.683674
0.457520	1.626446
0.457617	1.633751
0.457715	1.674554
0.457812	1.673964
0.457910	1.679064
0.458008	1.695263
0.458105	1.689101
0.458203	1.677170
0.458301	1.690109
0.458398	1.690580
0.458496	1.707472
0.458594	1.700917
0.458691	1.667593
0.458789	1.648794
0.458887	1.634365
0.458984	1.662899
0.459082	1.653049
0.459180	1.629324
0.459277	1.665728
0.459375	1.673180
0.459473	1.682343
0.459570	1.675096
0.459668	1.638856
0.459766	1.607047
0.459863	1.583920
0.459961	1.576523
0.460059	1.622302
0.460156	1.623873
0.460254	1.617967
0.460352	1.601950
0.460449	1.584180
0.460547	1.598390
0.460645	1.608194
0.460742	1.625971
0.460840	1.609559
0.460937	1.569917
0.461035	1.589967
0.461133	1.609819
0.461230	1.592010
0.461328	1.598567
0.461426	1.599329
0.461523	1.594919
0.461621	1.592071
0.461719	1.601750
0.461816	1.617526
0.461914	1.619608
0.462012	1.641546
0.462109	1.635904
0.462207	1.614941
0.462305	1.599198
0.462402	1.602558
0.462500	1.594991
0.462598	1.574294
0.462695	1.548689
0.462793	1.531954
0.462891	1.526822
0.462988	1.520898
0.463086	1.554281
0.463184	1.550011
0.463281	1.565697
0.463379	1.568389
0.463477	1.526978
0.463574	1.583719
0.463672	1.622691
0.463770	1.618321
0.463867	1.638421
0.463965	1.652136
0.464062	1.644292
0.464160	1.655391
0.464258	1.654144
0.464355	1.656111
0.464453	1.656470
0.464551	1.623935
0.464648	1.610265
0.464746	1.622846
0.464844	1.626803
0.464941	1.623826
0.465039	1.617912
0.465137	1.607396
0.465234	1.595533
0.465332	1.592734
0.465430	1.609466
0.465527	1.563684
0.465625	1.516197
0.465723	1.505241
0.465820	1.522775
0.465918	1.515054
0.466016	1.513340
0.466113	1.540615
0.466211	1.561505
0.466309	1.514479
0.466406	1.523991
0.466504	1.523163
0.466602	1.538566
0.466699	1.534834
0.466797	1.492468
0.466895	1.496642
0.466992	1.525790
0.467090	1.557684
0.467187	1.518003
0.467285	1.514866
0.467383	1.496938
0.467480	1.471416
0.467578	1.463707
0.467676	1.481469
0.467773	1.452116
0.467871	1.418081
0.467969	1.439381
0.468066	1.441883
0.468164	1.431061
0.468262	1.422417
0.468359	1.398036
0.468457	1.336048
0.468555	1.343212
0.468652	1.489619
0.468750	1.552355
0.468848	1.586262
0.468945	1.601009
0.469043	1.603970
0.469141	1.608874
0.469238	1.615691
0.469336	1.617437
0.469434	1.631607
0.469531	1.646173
0.469629	1.630080
0.469727	1.640741
0.469824	1.648335
0.469922	1.638794
0.470020	1.640687
0.470117	1.637666
0.470215	1.639151
0.470312	1.639806
0.470410	1.642876
0.470508	1.646523
0.470605	1.653018
0.470703	1.661509
0.470801	1.668672
0.470898	1.675345
0.470996	1.680945
0.471094	1.691247
0.471191	1.695555
0.471289	1.687546
0.471387	1.685851
0.471484	1.679083
0.471582	1.672209
0.471680	1.669841
0.471777	1.672106
0.471875	1.674474
0.471973	1.679275
0.472070	1.683044
0.472168	1.686121
0.472266	1.690544
0.472363	1.695269
0.472461	1.692691
0.472559	1.691754
0.472656	1.689057
0.472754	1.690310
0.472852	1.689145
0.472949	1.695146
0.473047	1.697601
0.473145	1.703748
0.473242	1.697122
0.473340	1.680190
0.473437	1.622578
0.473535	1.639719
0.473633	1.617465
0.473730	1.682617
0.473828	1.695644
0.473926	1.651506
0.474023	1.640885
0.474121	1.627759
0.474219	1.641364
0.474316	1.676114
0.474414	1.690440
0.474512	1.683451
0.474609	1.650013
0.474707	1.613433
0.474805	1.643316
0.474902	1.649521
0.475000	1.631890
0.475098	1.637109
0.475195	1.669135
0.475293	1.668278
0.475391	1.632282
0.475488	1.627135
0.475586	1.592665
0.475684	1.586750
0.475781	1.587630
0.475879	1.593653
0.475977	1.579366
0.476074	1.625764
0.476172	1.597536
0.476270	1.574840
0.476367	1.655722
0.476465	1.735817
0.476562	1.748274
0.476660	1.698445
0.476758	1.723454
0.476855	1.705262
0.476953	1.665373
0.477051	1.645416
0.477148	1.687320
0.477246	1.691332
0.477344	1.638516
0.477441	1.638501
0.477539	1.678549
0.477637	1.683126
0.477734	1.686563
0.477832	1.669515
0.477930	1.710315
0.478027	1.716732
0.478125	1.776132
0.478223	1.725017
0.478320	1.689031
0.478418	1.715030
0.478516	1.667913
0.478613	1.680209
0.478711	1.714341
0.478809	1.716139
0.478906	1.689949
0.479004	1.628203
0.479102	1.636365
0.479199	1.661722
0.479297	1.646701
0.479395	1.628583
0.479492	1.640879
0.479590	1.656607
0.479687	1.665535
0.479785	1.672553
0.479883	1.671348
0.479980	1.716107
0.480078	1.707708
0.480176	1.716478
0.480273	1.700162
0.480371	1.647178
0.480469	1.646749
0.480566	1.636574
0.480664	1.624823
0.480762	1.609318
0.480859	1.616011
0.480957	1.644082
0.481055	1.636840
0.481152	1.592000
0.481250	1.516278
0.481348	1.592909
0.481445	1.631134
0.481543	1.618312
0.481641	1.624405
0.481738	1.633001
0.481836	1.636738
0.481934	1.638934
0.482031	1.640296
0.482129	1.641110
0.482227	1.652543
0.482324	1.616163
0.482422	1.591830
0.482520	1.557006
0.482617	1.629294
0.482715	1.652981
0.482812	1.638600
0.482910	1.634384
0.483008	1.577035
0.483105	1.556164
0.483203	1.501552
0.483301	1.411492
0.483398	1.479446
0.483496	1.556874
0.483594	1.576257
0.483691	1.588660
0.483789	1.597725
0.483887	1.608122
0.483984	1.621745
0.484082	1.637582
0.484180	1.642008
0.484277	1.648744
0.484375	1.644490
0.484473	1.650124
0.484570	1.647535
0.484668	1.641028
0.484766	1.643025
0.484863	1.652017
0.484961	1.656031
0.485059	1.650995
0.485156	1.649276
0.485254	1.650031
0.485352	1.651874
0.485449	1.653509
0.485547	1.655933
0.485645	1.658917
0.485742	1.663303
0.485840	1.668463
0.485937	1.673371
0.486035	1.677311
0.486133	1.679528
0.486230	1.681345
0.486328	1.683734
0.486426	1.686900
0.486523	1.683890
0.486621	1.676835
0.486719	1.674270
0.486816	1.675694
0.486914	1.679778
0.487012	1.684218
0.487109	1.688342
0.487207	1.692211
0.487305	1.700355
0.487402	1.701522
0.487500	1.700092
0.487598	1.704849
0.487695	1.701708
0.487793	1.706257
0.487891	1.712848
0.487988	1.725181
0.488086	1.723201
0.488184	1.720509
0.488281	1.720067
0.488379	1.716114
0.488477	1.653611
0.488574	1.654877
0.488672	1.734929
0.488770	1.735579
0.488867	1.748822
0.488965	1.750237
0.489062	1.744461
0.489160	1.735200
0.489258	1.687064
0.489355	1.699300
0.489453	1.686557
0.489551	1.657420
0.489648	1.627571
0.489746	1.661991
0.489844	1.671556
0.489941	1.645417
0.490039	1.675454
0.490137	1.724050
0.490234	1.719518
0.490332	1.725080
0.490430	1.698001
0.490527	1.686378
0.490625	1.698964
0.490723	1.696789
0.490820	1.704449
0.490918	1.686665
0.491016	1.689818
0.491113	1.711780
0.491211	1.713685
0.491309	1.698035
0.491406	1.714715
0.491504	1.705316
0.491602	1.689048
0.491699	1.682369
0.491797	1.677961
0.491895	1.676524
0.491992	1.677661
0.492090	1.687261
0.492187	1.686680
0.492285	1.697399
0.492383	1.641421
0.492480	1.601955
0.492578	1.610682
0.492676	1.597164
0.492773	1.605020
0.492871	1.600691
0.492969	1.626076
0.493066	1.599459
0.493164	1.657595
0.493262	1.674470
0.493359	1.664897
0.493457	1.638061
0.493555	1.578854
0.493652	1.616512
0.493750	1.641187
0.493848	1.642577
0.493945	1.625660
0.494043	1.646623
0.494141	1.569810
0.494238	1.549969
0.494336	1.480192
0.494434	1.534632
0.494531	1.594290
0.494629	1.583388
0.494727	1.601142
0.494824	1.614292
0.494922	1.603172
0.495020	1.572723
0.495117	1.592302
0.495215	1.518423
0.495312	1.487393
0.495410	1.505852
0.495508	1.510835
0.495605	1.462569
0.495703	1.396574
0.495801	1.407177
0.495898	1.454043
0.495996	1.494436
0.496094	1.510626
0.496191	1.430077
0.496289	1.405884
0.496387	1.487654
0.496484	1.555650
0.496582	1.553909
0.496680	1.563955
0.496777	1.585359
0.496875	1.558980
0.496973	1.518418
0.497070	1.520033
0.497168	1.545670
0.497266	1.573789
0.497363	1.597939
0.497461	1.574258
0.497559	1.553513
0.497656	1.576821
0.497754	1.590246
0.497852	1.598365
0.497949	1.597627
0.498047	1.598750
0.498145	1.597695
0.498242	1.603933
0.498340	1.608127
0.498437	1.619433
0.498535	1.632438
0.498633	1.647427
0.498730	1.644440
0.498828	1.651424
0.498926	1.653501
0.499023	1.651624
0.499121	1.650876
0.499219	1.653617
0.499316	1.652645
0.499414	1.655797
0.499512	1.655958
0.499609	1.661800
0.499707	1.664494
0.499805	1.674546
0.499902	1.676855
0.500000	1.689406
0.500098	1.673317
0.500195	1.678748
0.500293	1.643730
0.500391	1.637552
0.500488	1.670808
0.500586	1.671832
0.500684	1.678607
0.500781	1.677927
0.500879	1.687819
0.500977	1.687453
0.501074	1.690901
0.501172	1.691761
0.501270	1.696495
0.501367	1.697861
0.501465	1.697966
0.501562	1.694037
0.501660	1.693359
0.501758	1.697815
0.501855	1.704623
0.501953	1.672406
0.502051	1.682490
0.502148	1.649950
0.502246	1.634177
0.502344	1.621967
0.502441	1.613033
0.502539	1.640497
0.502637	1.640843
0.502734	1.627012
0.502832	1.673174
0.502930	1.701831
0.503027	1.694397
0.503125	1.705407
0.503223	1.708417
0.503320	1.724780
0.503418	1.731276
0.503516	1.708289
0.503613	1.692639
0.503711	1.731075
0.503809	1.730176
0.503906	1.713901
0.504004	1.679207
0.504102	1.666652
0.504199	1.643873
0.504297	1.620230
0.504395	1.607709
0.504492	1.581849
0.504590	1.602722
0.504687	1.589077
0.504785	1.612782
0.504883	1.619025
0.504980	1.571414
0.505078	1.566892
0.505176	1.600696
0.505273	1.628731
0.505371	1.596153
0.505469	1.617158
0.505566	1.631217
0.505664	1.591941
0.505762	1.607806
0.505859	1.603857
0.505957	1.600852
0.506055	1.606333
0.506152	1.583051
0.506250	1.566000
0.506348	1.559609
0.506445	1.576446
0.506543	1.584853
0.506641	1.555915
0.506738	1.552815
0.506836	1.565466
0.506934	1.514409
0.507031	1.470237
0.507129	1.466171
0.507227	1.474936
0.507324	1.494452
0.507422	1.548049
0.507520	1.609668
0.507617	1.615740
0.507715	1.574618
0.507812	1.518036
0.507910	1.453346
0.508008	1.407576
0.508105	1.388247
0.508203	1.377286
0.508301	1.366543
0.508398	1.406618
0.508496	1.477361
0.508594	1.551609
0.508691	1.512019
0.508789	1.521229
0.508887	1.481530
0.508984	1.383002
0.509082	1.369611
0.509180	1.384566
0.509277	1.433568
0.509375	1.449203
0.509473	1.402814
0.509570	1.357052
0.509668	1.309597
0.509766	1.272038
0.509863	1.332670
0.509961	1.389696
0.510059	1.410121
0.510156	1.406715
0.510254	1.416802
0.510352	1.473975
0.510449	1.498676
0.510547	1.504841
0.510645	1.464014
0.510742	1.452108
0.510840	1.446194
0.510937	1.441055
0.511035	1.437662
0.511133	1.449054
0.511230	1.458860
0.511328	1.450134
0.511426	1.445949
0.511523	1.438557
0.511621	1.456667
0.511719	1.493638
0.511816	1.513664
0.511914	1.535068
0.512012	1.549889
0.512109	1.546007
0.512207	1.540265
0.512305	1.544790
0.512402	1.550426
0.512500	1.557632
0.512598	1.564096
0.512695	1.571392
0.512793	1.578436
0.512891	1.586259
0.512988	1.592915
0.513086	1.599126
0.513184	1.603185
0.513281	1.607465
0.513379	1.611509
0.513477	1.619103
0.513574	1.616283
0.513672	1.621373
0.513770	1.602668
0.513867	1.586122
0.513965	1.562274
0.514062	1.571812
0.514160	1.593026
0.514258	1.584047
0.514355	1.569727
0.514453	1.551466
0.514551	1.523465
0.514648	1.546539
0.514746	1.566305
0.514844	1.591577
0.514941	1.597388
0.515039	1.617641
0.515137	1.634578
0.515234	1.646137
0.515332	1.651612
0.515430	1.660432
0.515527	1.661534
0.515625	1.664138
0.515723	1.664760
0.515820	1.670653
0.515918	1.670840
0.516016	1.674027
0.516113	1.649049
0.516211	1.646563
0.516309	1.690470
0.516406	1.695941
0.516504	1.703084
0.516602	1.691963
0.516699	1.695710
0.516797	1.713029
0.516895	1.706861
0.516992	1.708058
0.517090	1.694819
0.517187	1.713427
0.517285	1.714351
0.517383	1.694901
0.517480	1.666176
0.517578	1.640818
0.517676	1.661412
0.517773	1.667771
0.517871	1.655706
0.517969	1.698090
0.518066	1.669009
0.518164	1.652634
0.518262	1.695812
0.518359	1.632485
0.518457	1.649221
0.518555	1.663094
0.518652	1.685654
0.518750	1.675574
0.518848	1.637856
0.518945	1.639316
0.519043	1.651839
0.519141	1.645496
0.519238	1.668289
0.519336	1.682149
0.519434	1.691755
0.519531	1.661426
0.519629	1.649928
0.519727	1.659394
0.519824	1.659355
0.519922	1.644872
0.520020	1.658383
0.520117	1.680072
0.520215	1.681801
0.520312	1.641679
0.520410	1.633947
0.520508	1.619701
0.520605	1.626746
0.520703	1.623895
0.520801	1.608261
0.520898	1.611498
0.520996	1.593734
0.521094	1.539039
0.521191	1.620662
0.521289	1.605035
0.521387	1.557076
0.521484	1.514908
0.521582	1.588975
0.521680	1.605237
0.521777	1.531239
0.521875	1.555289
0.521973	1.568008
0.522070	1.483393
0.522168	1.496358
0.522266	1.491370
0.522363	1.471557
0.522461	1.510077
0.522559	1.501197
0.522656	1.518643
0.522754	1.445974
0.522852	1.375436
0.522949	1.340605
0.523047	1.351185
0.523145	1.415521
0.523242	1.437542
0.523340	1.450878
0.523437	1.439338
0.523535	1.431857
0.523633	1.438174
0.523730	1.420978
0.523828	1.400464
0.523926	1.379272
0.524023	1.361489
0.524121	1.370741
0.524219	1.389289
0.524316	1.366857
0.524414	1.369500
0.524512	1.368947
0.524609	1.402609
0.524707	1.421493
0.524805	1.384198
0.524902	1.318952
0.525000	1.335844
0.525098	1.397669
0.525195	1.417298
0.525293	1.416990
0.525391	1.441087
0.525488	1.462106
0.525586	1.466584
0.525684	1.463373
0.525781	1.469004
0.525879	1.437808
0.525977	1.416574
0.526074	1.415586
0.526172	1.470943
0.526270	1.566893
0.526367	1.544585
0.526465	1.551469
0.526562	1.559619
0.526660	1.571694
0.526758	1.581697
0.526855	1.594333
0.526953	1.602790
0.527051	1.606591
0.527148	1.610096
0.527246	1.615848
0.527344	1.624964
0.527441	1.617185
0.527539	1.610351
0.527637	1.626425
0.527734	1.630961
0.527832	1.633574
0.527930	1.621266
0.528027	1.582940
0.528125	1.569318
0.528223	1.571768
0.528320	1.552975
0.528418	1.556705
0.528516	1.590529
0.528613	1.611451
0.528711	1.624217
0.528809	1.632818
0.528906	1.639565
0.529004	1.645391
0.529102	1.652985
0.529199	1.656734
0.529297	1.656901
0.529395	1.660433
0.529492	1.662349
0.529590	1.667101
0.529687	1.675156
0.529785	1.682026
0.529883	1.684773
0.529980	1.687117
0.530078	1.686752
0.530176	1.683251
0.530273	1.688204
0.530371	1.688448
0.530469	1.680082
0.530566	1.676380
0.530664	1.675992
0.530762	1.673142
0.530859	1.673644
0.530957	1.673587
0.531055	1.677893
0.531152	1.679245
0.531250	1.687969
0.531348	1.689668
0.531445	1.690357
0.531543	1.665069
0.531641	1.630772
0.531738	1.655126
0.531836	1.649675
0.531934	1.630792
0.532031	1.644970
0.532129	1.676450
0.532227	1.677342
0.532324	1.677630
0.532422	1.685425
0.532520	1.694796
0.532617	1.704813
0.532715	1.704340
0.532812	1.673379
0.532910	1.611596
0.533008	1.603034
0.533105	1.568664
0.533203	1.544829
0.533301	1.541316
0.533398	1.536584
0.533496	1.552993
0.533594	1.580143
0.533691	1.614231
0.533789	1.609651
0.533887	1.607225
0.533984	1.649901
0.534082	1.647938
0.534180	1.628914
0.534277	1.663859
0.534375	1.660821
0.534473	1.668208
0.534570	1.661369
0.534668	1.653520
0.534766	1.679080
0.534863	1.685659
0.534961	1.677634
0.535059	1.665844
0.535156	1.677140
0.535254	1.690532
0.535352	1.685444
0.535449	1.641588
0.535547	1.621442
0.535645	1.578603
0.535742	1.576919
0.535840	1.571738
0.535937	1.546814
0.536035	1.555296
0.536133	1.573098
0.536230	1.557366
0.536328	1.567150
0.536426	1.560907
0.536523	1.532149
0.536621	1.507387
0.536719	1.495411
0.536816	1.493010
0.536914	1.530222
0.537012	1.616235
0.537109	1.591881
0.537207	1.578373
0.537305	1.579599
0.537402	1.580931
0.537500	1.588062
0.537598	1.603542
0.537695	1.628731
0.537793	1.612753
0.537891	1.639503
0.537988	1.615411
0.538086	1.614010
0.538184	1.614584
0.538281	1.622578
0.538379	1.627849
0.538477	1.633541
0.538574	1.636627
0.538672	1.643215
0.538770	1.648633
0.538867	1.656502
0.538965	1.660584
0.539062	1.659068
0.539160	1.654933
0.539258	1.655746
0.539355	1.656057
0.539453	1.654959
0.539551	1.650447
0.539648	1.654262
0.539746	1.615350
0.539844	1.603149
0.539941	1.614433
0.540039	1.608088
0.540137	1.617832
0.540234	1.610983
0.540332	1.552947
0.540430	1.543967
0.540527	1.631278
0.540625	1.678830
0.540723	1.659818
0.540820	1.682732
0.540918	1.704017
0.541016	1.661385
0.541113	1.639183
0.541211	1.671536
0.541309	1.670894
0.541406	1.686692
0.541504	1.668580
0.541602	1.618455
0.541699	1.626521
0.541797	1.609362
0.541895	1.604822
0.541992	1.595551
0.542090	1.595623
0.542187	1.622965
0.542285	1.608930
0.542383	1.612441
0.542480	1.649096
0.542578	1.662318
0.542676	1.640087
0.542773	1.579818
0.542871	1.629711
0.542969	1.647978
0.543066	1.642250
0.543164	1.645837
0.543262	1.648859
0.543359	1.641709
0.543457	1.642612
0.543555	1.656023
0.543652	1.658518
0.543750	1.662104
0.543848	1.663864
0.543945	1.666135
0.544043	1.664944
0.544141	1.663010
0.544238	1.663389
0.544336	1.665174
0.544434	1.667316
0.544531	1.669574
0.544629	1.672234
0.544727	1.675173
0.544824	1.677647
0.544922	1.679648
0.545020	1.680301
0.545117	1.680638
0.545215	1.680838
0.545312	1.681770
0.545410	1.683924
0.545508	1.687368
0.545605	1.690419
0.545703	1.703257
0.545801	1.694103
0.545898	1.663566
0.545996	1.658449
0.546094	1.650012
0.546191	1.624435
0.546289	1.629559
0.546387	1.619348
0.546484	1.623192
0.546582	1.625983
0.546680	1.643213
0.546777	1.671857
0.546875	1.638966
0.546973	1.641534
0.547070	1.648574
0.547168	1.646645
0.547266	1.652180
0.547363	1.684120
0.547461	1.697041
0.547559	1.700314
0.547656	1.713559
0.547754	1.713090
0.547852	1.685433
0.547949	1.703390
0.548047	1.665481
0.548145	1.643191
0.548242	1.697976
0.548340	1.721016
0.548437	1.726205
0.548535	1.727101
0.548633	1.765524
0.548730	1.773505
0.548828	1.704543
0.548926	1.662960
0.549023	1.651073
0.549121	1.680106
0.549219	1.702534
0.549316	1.676110
0.549414	1.697107
0.549512	1.663336
0.549609	1.651811
0.549707	1.664452
0.549805	1.625454
0.549902	1.588294
0.550000	1.577264
0.550098	1.601758
0.550195	1.575229
0.550293	1.556250
0.550391	1.533062
0.550488	1.516882
0.550586	1.544825
0.550684	1.607856
0.550781	1.633186
0.550879	1.648194
0.550977	1.641625
0.551074	1.631837
0.551172	1.608234
0.551270	1.606522
0.551367	1.649916
0.551465	1.623713
0.551562	1.640901
0.551660	1.673262
0.551758	1.686073
0.551855	1.652474
0.551953	1.626199
0.552051	1.653233
0.552148	1.653436
0.552246	1.648026
0.552344	1.624283
0.552441	1.612017
0.552539	1.611712
0.552637	1.598120
0.552734	1.552492
0.552832	1.530789
0.552930	1.502204
0.553027	1.565445
0.553125	1.632862
0.553223	1.647222
0.553320	1.672106
0.553418	1.657050
0.553516	1.627462
0.553613	1.591118
0.553711	1.598839
0.553809	1.595830
0.553906	1.597075
0.554004	1.559841
0.554102	1.563148
0.554199	1.545332
0.554297	1.533115
0.554395	1.521524
0.554492	1.492681
0.554590	1.528956
0.554687	1.538264
0.554785	1.544699
0.554883	1.564800
0.554980	1.546741
0.555078	1.484137
0.555176	1.452134
0.555273	1.455042
0.555371	1.453317
0.555469	1.567913
0.555566	1.595646
0.555664	1.589237
0.555762	1.588486
0.555859	1.589008
0.555957	1.564919
0.556055	1.538634
0.556152	1.501238
0.556250	1.472304
0.556348	1.456086
0.556445	1.469893
0.556543	1.542926
0.556641	1.571777
0.556738	1.554780
0.556836	1.522610
0.556934	1.537554
0.557031	1.552106
0.557129	1.506385
0.557227	1.512905
0.557324	1.529774
0.557422	1.585592
0.557520	1.616296
0.557617	1.598292
0.557715	1.554559
0.557812	1.524416
0.557910	1.505632
0.558008	1.534068
0.558105	1.504223
0.558203	1.433169
0.558301	1.438086
0.558398	1.489911
0.558496	1.497909
0.558594	1.557266
0.558691	1.591451
0.558789	1.553285
0.558887	1.569538
0.558984	1.582146
0.559082	1.582414
0.559180	1.590831
0.559277	1.601511
0.559375	1.609557
0.559473	1.609298
0.559570	1.618240
0.559668	1.618848
0.559766	1.591174
0.559863	1.576200
0.559961	1.570417
0.560059	1.569596
0.560156	1.571920
0.560254	1.575340
0.560352	1.578562
0.560449	1.582163
0.560547	1.585761
0.560645	1.589820
0.560742	1.594136
0.560840	1.598909
0.560937	1.603845
0.561035	1.608733
0.561133	1.613115
0.561230	1.617059
0.561328	1.620756
0.561426	1.624702
0.561523	1.628969
0.561621	1.633311
0.561719	1.637273
0.561816	1.640497
0.561914	1.642902
0.562012	1.644958
0.562109	1.647553
0.562207	1.651204
0.562305	1.655938
0.562402	1.660444
0.562500	1.664148
0.562598	1.666644
0.562695	1.669111
0.562793	1.671826
0.562891	1.675963
0.562988	1.681364
0.563086	1.689398
0.563184	1.698547
0.563281	1.702648
0.563379	1.702782
0.563477	1.702554
0.563574	1.703028
0.563672	1.707469
0.563770	1.717527
0.563867	1.733145
0.563965	1.736270
0.564062	1.734893
0.564160	1.734414
0.564258	1.734718
0.564355	1.730875
0.564453	1.722666
0.564551	1.713127
0.564648	1.720072
0.564746	1.697081
0.564844	1.662522
0.564941	1.625600
0.565039	1.604072
0.565137	1.597787
0.565234	1.639227
0.565332	1.636928
0.565430	1.588996
0.565527	1.585914
0.565625	1.632462
0.565723	1.664602
0.565820	1.657861
0.565918	1.629729
0.566016	1.688873
0.566113	1.677095
0.566211	1.648853
0.566309	1.630150
0.566406	1.616584
0.566504	1.609311
0.566602	1.611169
0.566699	1.607999
0.566797	1.620994
0.566895	1.665990
0.566992	1.661066
0.567090	1.627680
0.567187	1.617323
0.567285	1.611303
0.567383	1.626002
0.567480	1.663219
0.567578	1.648146
0.567676	1.640899
0.567773	1.611821
0.567871	1.619402
0.567969	1.638123
0.568066	1.667945
0.568164	1.672233
0.568262	1.686320
0.568359	1.697183
0.568457	1.703480
0.568555	1.700081
0.568652	1.698024
0.568750	1.697231
0.568848	1.683485
0.568945	1.659559
0.569043	1.628529
0.569141	1.581340
0.569238	1.622340
0.569336	1.651908
0.569434	1.632107
0.569531	1.625200
0.569629	1.626270
0.569727	1.647200
0.569824	1.621244
0.569922	1.598338
0.570020	1.618626
0.570117	1.624703
0.570215	1.611899
0.570312	1.628781
0.570410	1.647722
0.570508	1.641151
0.570605	1.614765
0.570703	1.593820
0.570801	1.586682
0.570898	1.560417
0.570996	1.549977
0.571094	1.545222
0.571191	1.553980
0.571289	1.553987
0.571387	1.540664
0.571484	1.532283
0.571582	1.539646
0.571680	1.543845
0.571777	1.529184
0.571875	1.545864
0.571973	1.575546
0.572070	1.550666
0.572168	1.558308
0.572266	1.576306
0.572363	1.590111
0.572461	1.566867
0.572559	1.503022
0.572656	1.513996
0.572754	1.479683
0.572852	1.439653
0.572949	1.454278
0.573047	1.441303
0.573145	1.498521
0.573242	1.503687
0.573340	1.478703
0.573437	1.476338
0.573535	1.511204
0.573633	1.566370
0.573730	1.583791
0.573828	1.594076
0.573926	1.599228
0.574023	1.617719
0.574121	1.584481
0.574219	1.518970
0.574316	1.463179
0.574414	1.463369
0.574512	1.465248
0.574609	1.452261
0.574707	1.435675
0.574805	1.411314
0.574902	1.400447
0.575000	1.430670
0.575098	1.436431
0.575195	1.424425
0.575293	1.422250
0.575391	1.405746
0.575488	1.366605
0.575586	1.329779
0.575684	1.295277
0.575781	1.290806
0.575879	1.357614
0.575977	1.412304
0.576074	1.444232
0.576172	1.492384
0.576270	1.498432
0.576367	1.472504
0.576465	1.487869
0.576562	1.463299
0.576660	1.470763
0.576758	1.449824
0.576855	1.437530
0.576953	1.432466
0.577051	1.419369
0.577148	1.465424
0.577246	1.503265
0.577344	1.482292
0.577441	1.499561
0.577539	1.528038
0.577637	1.479400
0.577734	1.405029
0.577832	1.426136
0.577930	1.495432
0.578027	1.515551
0.578125	1.530746
0.578223	1.541016
0.578320	1.551192
0.578418	1.558936
0.578516	1.567329
0.578613	1.574373
0.578711	1.582138
0.578809	1.589085
0.578906	1.596409
0.579004	1.603015
0.579102	1.609595
0.579199	1.615467
0.579297	1.621303
0.579395	1.626882
0.579492	1.632751
0.579590	1.638896
0.579687	1.644954
0.579785	1.650461
0.579883	1.655728
0.579980	1.660310
0.580078	1.665205
0.580176	1.669385
0.580273	1.674512
0.580371	1.680479
0.580469	1.687364
0.580566	1.692243
0.580664	1.697462
0.580762	1.700088
0.580859	1.703231
0.580957	1.695781
0.581055	1.695170
0.581152	1.696319
0.581250	1.700303
0.581348	1.713954
0.581445	1.726480
0.581543	1.723914
0.581641	1.722153
0.581738	1.714763
0.581836	1.712019
0.581934	1.711996
0.582031	1.729436
0.582129	1.733616
0.582227	1.711395
0.582324	1.654591
0.582422	1.679472
0.582520	1.703892
0.582617	1.694558
0.582715	1.716414
0.582812	1.678326
0.582910	1.652274
0.583008	1.614673
0.583105	1.650000
0.583203	1.643524
0.583301	1.627705
0.583398	1.634912
0.583496	1.657499
0.583594	1.687070
0.583691	1.683503
0.583789	1.674401
0.583887	1.636015
0.583984	1.610193
0.584082	1.608789
0.584180	1.629546
0.584277	1.654882
0.584375	1.632668
0.584473	1.630323
0.584570	1.650681
0.584668	1.635887
0.584766	1.655028
0.584863	1.656985
0.584961	1.670856
0.585059	1.624594
0.585156	1.628001
0.585254	1.646717
0.585352	1.642460
0.585449	1.648953
0.585547	1.631003
0.585645	1.602551
0.585742	1.615787
0.585840	1.635622
0.585937	1.656599
0.586035	1.645583
0.586133	1.613018
0.586230	1.588464
0.586328	1.605506
0.586426	1.633009
0.586523	1.624424
0.586621	1.620393
0.586719	1.660304
0.586816	1.640101
0.586914	1.575670
0.587012	1.598261
0.587109	1.596184
0.587207	1.587410
0.587305	1.620037
0.587402	1.591478
0.587500	1.599627
0.587598	1.676549
0.587695	1.637310
0.587793	1.637272
0.587891	1.669408
0.587988	1.632392
0.588086	1.581057
0.588184	1.558614
0.588281	1.601575
0.588379	1.584757
0.588477	1.561405
0.588574	1.559191
0.588672	1.583799
0.588770	1.570482
0.588867	1.586256
0.588965	1.546002
0.589062	1.603860
0.589160	1.652135
0.589258	1.650975
0.589355	1.635356
0.589453	1.608739
0.589551	1.603969
0.589648	1.629046
0.589746	1.624744
0.589844	1.585326
0.589941	1.608642
0.590039	1.574055
0.590137	1.523388
0.590234	1.514438
0.590332	1.569035
0.590430	1.563661
0.590527	1.505087
0.590625	1.487387
0.590723	1.490177
0.590820	1.496960
0.590918	1.523609
0.591016	1.490956
0.591113	1.503622
0.591211	1.560404
0.591309	1.610810
0.591406	1.642059
0.591504	1.644065
0.591602	1.626655
0.591699	1.593245
0.591797	1.641832
0.591895	1.647459
0.591992	1.633486
0.592090	1.626770
0.592187	1.608448
0.592285	1.579798
0.592383	1.566513
0.592480	1.557342
0.592578	1.545608
0.592676	1.540139
0.592773	1.542411
0.592871	1.548219
0.592969	1.556087
0.593066	1.562667
0.593164	1.569434
0.593262	1.576632
0.593359	1.583783
0.593457	1.589001
0.593555	1.591746
0.593652	1.593136
0.593750	1.594412
0.593848	1.595769
0.593945	1.597247
0.594043	1.598835
0.594141	1.600723
0.594238	1.602850
0.594336	1.605362
0.594434	1.608121
0.594531	1.611085
0.594629	1.614209
0.594727	1.617451
0.594824	1.621140
0.594922	1.625162
0.595020	1.629724
0.595117	1.634413
0.595215	1.639490
0.595312	1.645582
0.595410	1.656285
0.595508	1.672120
0.595605	1.671846
0.595703	1.671400
0.595801	1.670391
0.595898	1.671966
0.595996	1.674736
0.596094	1.677322
0.596191	1.680062
0.596289	1.684907
0.596387	1.690904
0.596484	1.698409
0.596582	1.705232
0.596680	1.709177
0.596777	1.709617
0.596875	1.711492
0.596973	1.713817
0.597070	1.723689
0.597168	1.719849
0.597266	1.734716
0.597363	1.718871
0.597461	1.698478
0.597559	1.696916
0.597656	1.675715
0.597754	1.700638
0.597852	1.712312
0.597949	1.706427
0.598047	1.721175
0.598145	1.725494
0.598242	1.728968
0.598340	1.737244
0.598437	1.742110
0.598535	1.740336
0.598633	1.739073
0.598730	1.707525
0.598828	1.672790
0.598926	1.682312
0.599023	1.681175
0.599121	1.704229
0.599219	1.699686
0.599316	1.689815
0.599414	1.683814
0.599512	1.661445
0.599609	1.657928
0.599707	1.632383
0.599805	1.575024
0.599902	1.592217
0.600000	1.638394
0.600098	1.642591
0.600195	1.642328
0.600293	1.607203
0.600391	1.645619
0.600488	1.657595
0.600586	1.638833
0.600684	1.643026
0.600781	1.611713
0.600879	1.617606
0.600977	1.637796
0.601074	1.650560
0.601172	1.676590
0.601270	1.646468
0.601367	1.615115
0.601465	1.603349
0.601562	1.614259
0.601660	1.636816
0.601758	1.637654
0.601855	1.630745
0.601953	1.617746
0.602051	1.610892
0.602148	1.582697
0.602246	1.584486
0.602344	1.584216
0.602441	1.593364
0.602539	1.593005
0.602637	1.599264
0.602734	1.620418
0.602832	1.617509
0.602930	1.638731
0.603027	1.614200
0.603125	1.616267
0.603223	1.621618
0.603320	1.609912
0.603418	1.584013
0.603516	1.571595
0.603613	1.578476
0.603711	1.570436
0.603809	1.572703
0.603906	1.590790
0.604004	1.578143
0.604102	1.558717
0.604199	1.560682
0.604297	1.544192
0.604395	1.548240
0.604492	1.578826
0.604590	1.567213
0.604687	1.544542
0.604785	1.578171
0.604883	1.599648
0.604980	1.578100
0.605078	1.597950
0.605176	1.607672
0.605273	1.604597
0.605371	1.609608
0.605469	1.611431
0.605566	1.609706
0.605664	1.602292
0.605762	1.609039
0.605859	1.602401
0.605957	1.535233
0.606055	1.551254
0.606152	1.600095
0.606250	1.584041
0.606348	1.551462
0.606445	1.525261
0.606543	1.578185
0.606641	1.621625
0.606738	1.614155
0.606836	1.621977
0.606934	1.627715
0.607031	1.625898
0.607129	1.621368
0.607227	1.602408
0.607324	1.572653
0.607422	1.549356
0.607520	1.530961
0.607617	1.522368
0.607715	1.562717
0.607812	1.584399
0.607910	1.564849
0.608008	1.564894
0.608105	1.586785
0.608203	1.591381
0.608301	1.595832
0.608398	1.595414
0.608496	1.600066
0.608594	1.603736
0.608691	1.608988
0.608789	1.606467
0.608887	1.599040
0.608984	1.594572
0.609082	1.597510
0.609180	1.599438
0.609277	1.600897
0.609375	1.598393
0.609473	1.594648
0.609570	1.592252
0.609668	1.592632
0.609766	1.594382
0.609863	1.596647
0.609961	1.598532
0.610059	1.600345
0.610156	1.601892
0.610254	1.603578
0.610352	1.605420
0.610449	1.607713
0.610547	1.610342
0.610645	1.613788
0.610742	1.617615
0.610840	1.621795
0.610937	1.626506
0.611035	1.631159
0.611133	1.635919
0.611230	1.640470
0.611328	1.644707
0.611426	1.648619
0.611523	1.652396
0.611621	1.656258
0.611719	1.660253
0.611816	1.664614
0.611914	1.669065
0.612012	1.674004
0.612109	1.679508
0.612207	1.684517
0.612305	1.688364
0.612402	1.690816
0.612500	1.693868
0.612598	1.697166
0.612695	1.702547
0.612793	1.708210
0.612891	1.712486
0.612988	1.711863
0.613086	1.712009
0.613184	1.712213
0.613281	1.716081
0.613379	1.718363
0.613477	1.724652
0.613574	1.725085
0.613672	1.735815
0.613770	1.728287
0.613867	1.731517
0.613965	1.733672
0.614062	1.714748
0.614160	1.742437
0.614258	1.743657
0.614355	1.734596
0.614453	1.741927
0.614551	1.735505
0.614648	1.749262
0.614746	1.766550
0.614844	1.755780
0.614941	1.757213
0.615039	1.736815
0.615137	1.716867
0.615234	1.747713
0.615332	1.736309
0.615430	1.714278
0.615527	1.700393
0.615625	1.706783
0.615723	1.698616
0.615820	1.724213
0.615918	1.713253
0.616016	1.690048
0.616113	1.681389
0.616211	1.714974
0.616309	1.725931
0.616406	1.699742
0.616504	1.641313
0.616602	1.639127
0.616699	1.641604
0.616797	1.584315
0.616895	1.608996
0.616992	1.596855
0.617090	1.612466
0.617187	1.655589
0.617285	1.662617
0.617383	1.690778
0.617480	1.685135
0.617578	1.694403
0.617676	1.680034
0.617773	1.682778
0.617871	1.664507
0.617969	1.668206
0.618066	1.672570
0.618164	1.636924
0.618262	1.662844
0.618359	1.638269
0.618457	1.612852
0.618555	1.603695
0.618652	1.621927
0.618750	1.596967
0.618848	1.536927
0.618945	1.604984
0.619043	1.551995
0.619141	1.508626
0.619238	1.485368
0.619336	1.518737
0.619434	1.585081
0.619531	1.612555
0.619629	1.595093
0.619727	1.579189
0.619824	1.589192
0.619922	1.585422
0.620020	1.572451
0.620117	1.545681
0.620215	1.537102
0.620312	1.529353
0.620410	1.494876
0.620508	1.459194
0.620605	1.498001
0.620703	1.551347
0.620801	1.564795
0.620898	1.559502
0.620996	1.574323
0.621094	1.569755
0.621191	1.574301
0.621289	1.577232
0.621387	1.586694
0.621484	1.591729
0.621582	1.602334
0.621680	1.609174
0.621777	1.616728
0.621875	1.620642
0.621973	1.627394
0.622070	1.633120
0.622168	1.640259
0.622266	1.647144
0.622363	1.655075
0.622461	1.658316
0.622559	1.661341
0.622656	1.664194
0.622754	1.664558
0.622852	1.661810
0.622949	1.656050
0.623047	1.651573
0.623145	1.649273
0.623242	1.648398
0.623340	1.649217
0.623437	1.650903
0.623535	1.653557
0.623633	1.656360
0.623730	1.658154
0.623828	1.658769
0.623926	1.659515
0.624023	1.660679
0.624121	1.662019
0.624219	1.663146
0.624316	1.664831
0.624414	1.667068
0.624512	1.670013
0.624609	1.672677
0.624707	1.676614
0.624805	1.682221
0.624902	1.691595
0.625000	1.692759
0.625098	1.690346
0.625195	1.693313
0.625293	1.698151
0.625391	1.706461
0.625488	1.712804
0.625586	1.717094
0.625684	1.719972
0.625781	1.715089
0.625879	1.711506
0.625977	1.706714
0.626074	1.706349
0.626172	1.706180
0.626270	1.702094
0.626367	1.692002
0.626465	1.728800
0.626562	1.733049
0.626660	1.696188
0.626758	1.661655
0.626855	1.675412
0.626953	1.671893
0.627051	1.664614
0.627148	1.693688
0.627246	1.700601
0.627344	1.710471
0.627441	1.723093
0.627539	1.700871
0.627637	1.663621
0.627734	1.662226
0.627832	1.682261
0.627930	1.673657
0.628027	1.663305
0.628125	1.640631
0.628223	1.602346
0.628320	1.623677
0.628418	1.672231
0.628516	1.701819
0.628613	1.683404
0.628711	1.685128
0.628809	1.663428
0.628906	1.624863
0.629004	1.591063
0.629102	1.606100
0.629199	1.603624
0.629297	1.569009
0.629395	1.609558
0.629492	1.573038
0.629590	1.554474
0.629687	1.651283
0.629785	1.683105
0.629883	1.640710
0.629980	1.636516
0.630078	1.644681
0.630176	1.613628
0.630273	1.573665
0.630371	1.552763
0.630469	1.588521
0.630566	1.566208
0.630664	1.587362
0.630762	1.579902
0.630859	1.586600
0.630957	1.574414
0.631055	1.605899
0.631152	1.627655
0.631250	1.644855
0.631348	1.627636
0.631445	1.588120
0.631543	1.597399
0.631641	1.634379
0.631738	1.621857
0.631836	1.604425
0.631934	1.571944
0.632031	1.604955
0.632129	1.630964
0.632227	1.598822
0.632324	1.619923
0.632422	1.606676
0.632520	1.591387
0.632617	1.585709
0.632715	1.595227
0.632812	1.577952
0.632910	1.560755
0.633008	1.621485
0.633105	1.618979
0.633203	1.556976
0.633301	1.538960
0.633398	1.539404
0.633496	1.530608
0.633594	1.469170
0.633691	1.468881
0.633789	1.469223
0.633887	1.391378
0.633984	1.365831
0.634082	1.332485
0.634180	1.381155
0.634277	1.427377
0.634375	1.367937
0.634473	1.404457
0.634570	1.452986
0.634668	1.482016
0.634766	1.531327
0.634863	1.581177
0.634961	1.567457
0.635059	1.535005
0.635156	1.533035
0.635254	1.534198
0.635352	1.539472
0.635449	1.543647
0.635547	1.549355
0.635645	1.553641
0.635742	1.557931
0.635840	1.561834
0.635937	1.566637
0.636035	1.571586
0.636133	1.577105
0.636230	1.582660
0.636328	1.588866
0.636426	1.595655
0.636523	1.603201
0.636621	1.611744
0.636719	1.621459
0.636816	1.631026
0.636914	1.639133
0.637012	1.641250
0.637109	1.641428
0.637207	1.642955
0.637305	1.648029
0.637402	1.656063
0.637500	1.662913
0.637598	1.665234
0.637695	1.666833
0.637793	1.667520
0.637891	1.669226
0.637988	1.670536
0.638086	1.671755
0.638184	1.667356
0.638281	1.666789
0.638379	1.674508
0.638477	1.696335
0.638574	1.699826
0.638672	1.696286
0.638770	1.661329
0.638867	1.669586
0.638965	1.651870
0.639062	1.661909
0.639160	1.674462
0.639258	1.667491
0.639355	1.673055
0.639453	1.681434
0.639551	1.683094
0.639648	1.677191
0.639746	1.665434
0.639844	1.665395
0.639941	1.630718
0.640039	1.610909
0.640137	1.626107
0.640234	1.598844
0.640332	1.573431
0.640430	1.501517
0.640527	1.441963
0.640625	1.404537
0.640723	1.437277
0.640820	1.496900
0.640918	1.499263
0.641016	1.502087
0.641113	1.520559
0.641211	1.564884
0.641309	1.571003
0.641406	1.574112
0.641504	1.601914
0.641602	1.627234
0.641699	1.615086
0.641797	1.590287
0.641895	1.625467
0.641992	1.584249
0.642090	1.591993
0.642187	1.568623
0.642285	1.555795
0.642383	1.588442
0.642480	1.634149
0.642578	1.642016
0.642676	1.606630
0.642773	1.596907
0.642871	1.540988
0.642969	1.524047
0.643066	1.528362
0.643164	1.541084
0.643262	1.563748
0.643359	1.638975
0.643457	1.669097
0.643555	1.654441
0.643652	1.641752
0.643750	1.656139
0.643848	1.687031
0.643945	1.655776
0.644043	1.634211
0.644141	1.624271
0.644238	1.572624
0.644336	1.590432
0.644434	1.616069
0.644531	1.604583
0.644629	1.637256
0.644727	1.667963
0.644824	1.665382
0.644922	1.662647
0.645020	1.668284
0.645117	1.654402
0.645215	1.625078
0.645312	1.616320
0.645410	1.620312
0.645508	1.651822
0.645605	1.671425
0.645703	1.674229
0.645801	1.637833
0.645898	1.619124
0.645996	1.557837
0.646094	1.617509
0.646191	1.610715
0.646289	1.635609
0.646387	1.639718
0.646484	1.532431
0.646582	1.563864
0.646680	1.566916
0.646777	1.541651
0.646875	1.571264
0.646973	1.602335
0.647070	1.644904
0.647168	1.592837
0.647266	1.619118
0.647363	1.587174
0.647461	1.599084
0.647559	1.604228
0.647656	1.591510
0.647754	1.634886
0.647852	1.602095
0.647949	1.555516
0.648047	1.524667
0.648145	1.524130
0.648242	1.560226
0.648340	1.551529
0.648437	1.522898
0.648535	1.534222
0.648633	1.593817
0.648730	1.580109
0.648828	1.606644
0.648926	1.607606
0.649023	1.567971
0.649121	1.567985
0.649219	1.561745
0.649316	1.576042
0.649414	1.587145
0.649512	1.611044
0.649609	1.614758
0.649707	1.652618
0.649805	1.663257
0.649902	1.640617
0.650000	1.624812
0.650098	1.610517
0.650195	1.605237
0.650293	1.607380
0.650391	1.625046
0.650488	1.609048
0.650586	1.615117
0.650684	1.618273
0.650781	1.618216
0.650879	1.612197
0.650977	1.611053
0.651074	1.617878
0.651172	1.636333
0.651270	1.662736
0.651367	1.703782
0.651465	1.686198
0.651562	1.655721
0.651660	1.579353
0.651758	1.590479
0.651855	1.614568
0.651953	1.611686
0.652051	1.617904
0.652148	1.618718
0.652246	1.623953
0.652344	1.625468
0.652441	1.629373
0.652539	1.631024
0.652637	1.634250
0.652734	1.636267
0.652832	1.640080
0.652930	1.644052
0.653027	1.648916
0.653125	1.653671
0.653223	1.657818
0.653320	1.661509
0.653418	1.664206
0.653516	1.668940
0.653613	1.675250
0.653711	1.687241
0.653809	1.694109
0.653906	1.706531
0.654004	1.709843
0.654102	1.702181
0.654199	1.698032
0.654297	1.698120
0.654395	1.696110
0.654492	1.699656
0.654590	1.699195
0.654687	1.706327
0.654785	1.705611
0.654883	1.717859
0.654980	1.707554
0.655078	1.724723
0.655176	1.707020
0.655273	1.696200
0.655371	1.700692
0.655469	1.671580
0.655566	1.721623
0.655664	1.726142
0.655762	1.726491
0.655859	1.706740
0.655957	1.716392
0.656055	1.694889
0.656152	1.693738
0.656250	1.698754
0.656348	1.702301
0.656445	1.708557
0.656543	1.707686
0.656641	1.684176
0.656738	1.659129
0.656836	1.655278
0.656934	1.641773
0.657031	1.626105
0.657129	1.644713
0.657227	1.611983
0.657324	1.631299
0.657422	1.653132
0.657520	1.642527
0.657617	1.680001
0.657715	1.708603
0.657812	1.665546
0.657910	1.674513
0.658008	1.670778
0.658105	1.643857
0.658203	1.547772
0.658301	1.618770
0.658398	1.661809
0.658496	1.626922
0.658594	1.596862
0.658691	1.675713
0.658789	1.689735
0.658887	1.674515
0.658984	1.681140
0.659082	1.697489
0.659180	1.710786
0.659277	1.692995
0.659375	1.666375
0.659473	1.676065
0.659570	1.682617
0.659668	1.696376
0.659766	1.700496
0.659863	1.696315
0.659961	1.645147
0.660059	1.631575
0.660156	1.605725
0.660254	1.568783
0.660352	1.531028
0.660449	1.524528
0.660547	1.553807
0.660645	1.588796
0.660742	1.581902
0.660840	1.514711
0.660937	1.481427
0.661035	1.534881
0.661133	1.577131
0.661230	1.575621
0.661328	1.587399
0.661426	1.589801
0.661523	1.581716
0.661621	1.575087
0.661719	1.576712
0.661816	1.573477
0.661914	1.546684
0.662012	1.511475
0.662109	1.535364
0.662207	1.570718
0.662305	1.614821
0.662402	1.588486
0.662500	1.586476
0.662598	1.589701
0.662695	1.578659
0.662793	1.578129
0.662891	1.582100
0.662988	1.582993
0.663086	1.576704
0.663184	1.574724
0.663281	1.577963
0.663379	1.586296
0.663477	1.594099
0.663574	1.604689
0.663672	1.613625
0.663770	1.622121
0.663867	1.625894
0.663965	1.632051
0.664062	1.640271
0.664160	1.639631
0.664258	1.633390
0.664355	1.636342
0.664453	1.641961
0.664551	1.658747
0.664648	1.662567
0.664746	1.677109
0.664844	1.673177
0.664941	1.660095
0.665039	1.663654
0.665137	1.660147
0.665234	1.662700
0.665332	1.659482
0.665430	1.663220
0.665527	1.672195
0.665625	1.690871
0.665723	1.669939
0.665820	1.602413
0.665918	1.569826
0.666016	1.584571
0.666113	1.542558
0.666211	1.531958
0.666309	1.535254
0.666406	1.544559
0.666504	1.556410
0.666602	1.518556
0.666699	1.491989
0.666797	1.505457
0.666895	1.545867
0.666992	1.555050
0.667090	1.560704
0.667187	1.506323
0.667285	1.521961
0.667383	1.457172
0.667480	1.503354
0.667578	1.645356
0.667676	1.657475
0.667773	1.646854
0.667871	1.653420
0.667969	1.648307
0.668066	1.664930
0.668164	1.657815
0.668262	1.638878
0.668359	1.616986
0.668457	1.610506
0.668555	1.618256
0.668652	1.639753
0.668750	1.646643
0.668848	1.650288
0.668945	1.656935
0.669043	1.664670
0.669141	1.675649
0.669238	1.685885
0.669336	1.696235
0.669434	1.704992
0.669531	1.702411
0.669629	1.701903
0.669727	1.671170
0.669824	1.638717
0.669922	1.650789
0.670020	1.681970
0.670117	1.659410
0.670215	1.653237
0.670312	1.654350
0.670410	1.678858
0.670508	1.694049
0.670605	1.693764
0.670703	1.694446
0.670801	1.681937
0.670898	1.694957
0.670996	1.623470
0.671094	1.581864
0.671191	1.591661
0.671289	1.613582
0.671387	1.599755
0.671484	1.608841
0.671582	1.601375
0.671680	1.602651
0.671777	1.553128
0.671875	1.491228
0.671973	1.389200
0.672070	1.375456
0.672168	1.489182
0.672266	1.493542
0.672363	1.522125
0.672461	1.556765
0.672559	1.602285
0.672656	1.607972
0.672754	1.648643
0.672852	1.679326
0.672949	1.668090
0.673047	1.678179
0.673145	1.676615
0.673242	1.648442
0.673340	1.634066
0.673437	1.628863
0.673535	1.604057
0.673633	1.614336
0.673730	1.664364
0.673828	1.654172
0.673926	1.595693
0.674023	1.545751
0.674121	1.551671
0.674219	1.603637
0.674316	1.594288
0.674414	1.573229
0.674512	1.570350
0.674609	1.572279
0.674707	1.580042
0.674805	1.565048
0.674902	1.570712
0.675000	1.588673
0.675098	1.581705
0.675195	1.582668
0.675293	1.579184
0.675391	1.556844
0.675488	1.578099
0.675586	1.575155
0.675684	1.565998
0.675781	1.570691
0.675879	1.561249
0.675977	1.540032
0.676074	1.544904
0.676172	1.532205
0.676270	1.475588
0.676367	1.474539
0.676465	1.482870
0.676562	1.489704
0.676660	1.454906
0.676758	1.447722
0.676855	1.467701
0.676953	1.473742
0.677051	1.461263
0.677148	1.476145
0.677246	1.457316
0.677344	1.397650
0.677441	1.317486
0.677539	1.286945
0.677637	1.376529
0.677734	1.431719
0.677832	1.465673
0.677930	1.492880
0.678027	1.499583
0.678125	1.491887
0.678223	1.475948
0.678320	1.460581
0.678418	1.455173
0.678516	1.454452
0.678613	1.451070
0.678711	1.442407
0.678809	1.432427
0.678906	1.419785
0.679004	1.396639
0.679102	1.373634
0.679199	1.364891
0.679297	1.378421
0.679395	1.392250
0.679492	1.404173
0.679590	1.399617
0.679687	1.404944
0.679785	1.425786
0.679883	1.401696
0.679980	1.365497
0.680078	1.404733
0.680176	1.436248
0.680273	1.391645
0.680371	1.347223
0.680469	1.319414
0.680566	1.285507
0.680664	1.274866
0.680762	1.282064
0.680859	1.300792
0.680957	1.328351
0.681055	1.339482
0.681152	1.327742
0.681250	1.321716
0.681348	1.345529
0.681445	1.379892
0.681543	1.377933
0.681641	1.339001
0.681738	1.329152
0.681836	1.418810
0.681934	1.529322
0.682031	1.564794
0.682129	1.587956
0.682227	1.604071
0.682324	1.613948
0.682422	1.629682
0.682520	1.649931
0.682617	1.651826
0.682715	1.646198
0.682812	1.653401
0.682910	1.642532
0.683008	1.600275
0.683105	1.565058
0.683203	1.600139
0.683301	1.628848
0.683398	1.591575
0.683496	1.596587
0.683594	1.549772
0.683691	1.568645
0.683789	1.607645
0.683887	1.605134
0.683984	1.585354
0.684082	1.561007
0.684180	1.486459
0.684277	1.459105
0.684375	1.485319
0.684473	1.514573
0.684570	1.512467
0.684668	1.443190
0.684766	1.413873
0.684863	1.451061
0.684961	1.476391
0.685059	1.443606
0.685156	1.458918
0.685254	1.493465
0.685352	1.483921
0.685449	1.457609
0.685547	1.411775
0.685645	1.367037
0.685742	1.329614
0.685840	1.321466
0.685937	1.352203
0.686035	1.427802
0.686133	1.433327
0.686230	1.408076
0.686328	1.405287
0.686426	1.428877
0.686523	1.437183
0.686621	1.471491
0.686719	1.482997
0.686816	1.427050
0.686914	1.370746
0.687012	1.372031
0.687109	1.399165
0.687207	1.437936
0.687305	1.423896
0.687402	1.403956
0.687500	1.415367
0.687598	1.387565
0.687695	1.346009
0.687793	1.336862
0.687891	1.472458
0.687988	1.523493
0.688086	1.577967
0.688184	1.608273
0.688281	1.602174
0.688379	1.541758
0.688477	1.533044
0.688574	1.578710
0.688672	1.572754
0.688770	1.546373
0.688867	1.535224
0.688965	1.544115
0.689062	1.517605
0.689160	1.470024
0.689258	1.474763
0.689355	1.532061
0.689453	1.556898
0.689551	1.546815
0.689648	1.536460
0.689746	1.535330
0.689844	1.542520
0.689941	1.562946
0.690039	1.571333
0.690137	1.543722
0.690234	1.565971
0.690332	1.560040
0.690430	1.579252
0.690527	1.606043
0.690625	1.593161
0.690723	1.590458
0.690820	1.586633
0.690918	1.586411
0.691016	1.584155
0.691113	1.586133
0.691211	1.587877
0.691309	1.592071
0.691406	1.595715
0.691504	1.600912
0.691602	1.606456
0.691699	1.613293
0.691797	1.620344
0.691895	1.627378
0.691992	1.632202
0.692090	1.635034
0.692187	1.636618
0.692285	1.639137
0.692383	1.644389
0.692480	1.651858
0.692578	1.660075
0.692676	1.658941
0.692773	1.663838
0.692871	1.667718
0.692969	1.667019
0.693066	1.670094
0.693164	1.679810
0.693262	1.686349
0.693359	1.688533
0.693457	1.686316
0.693555	1.682787
0.693652	1.682015
0.693750	1.685538
0.693848	1.693722
0.693945	1.706401
0.694043	1.712753
0.694141	1.712033
0.694238	1.711201
0.694336	1.716682
0.694434	1.712087
0.694531	1.710130
0.694629	1.706409
0.694727	1.710088
0.694824	1.712463
0.694922	1.716901
0.695020	1.718728
0.695117	1.725480
0.695215	1.730261
0.695312	1.740136
0.695410	1.723408
0.695508	1.697081
0.695605	1.627809
0.695703	1.640968
0.695801	1.669681
0.695898	1.679941
0.695996	1.655233
0.696094	1.655970
0.696191	1.672632
0.696289	1.663988
0.696387	1.698759
0.696484	1.704052
0.696582	1.635933
0.696680	1.665593
0.696777	1.708498
0.696875	1.700506
0.696973	1.700404
0.697070	1.700652
0.697168	1.706220
0.697266	1.658092
0.697363	1.667315
0.697461	1.684733
0.697559	1.714444
0.697656	1.709014
0.697754	1.718208
0.697852	1.712407
0.697949	1.709186
0.698047	1.685722
0.698145	1.679362
0.698242	1.645283
0.698340	1.641676
0.698437	1.647292
0.698535	1.686321
0.698633	1.682097
0.698730	1.679431
0.698828	1.711185
0.698926	1.685766
0.699023	1.684994
0.699121	1.657126
0.699219	1.669483
0.699316	1.692990
0.699414	1.703144
0.699512	1.689861
0.699609	1.643379
0.699707	1.665437
0.699805	1.715784
0.699902	1.711390
0.700000	1.682664
0.700098	1.680767
0.700195	1.696024
0.700293	1.712912
0.700391	1.669706
0.700488	1.662734
0.700586	1.691135
0.700684	1.694422
0.700781	1.689167
0.700879	1.674528
0.700977	1.659082
0.701074	1.659621
0.701172	1.700175
0.701270	1.673327
0.701367	1.635285
0.701465	1.660235
0.701562	1.681678
0.701660	1.682646
0.701758	1.704682
0.701855	1.661022
0.701953	1.670440
0.702051	1.679705
0.702148	1.671138
0.702246	1.704539
0.702344	1.688659
0.702441	1.685456
0.702539	1.678327
0.702637	1.658207
0.702734	1.664076
0.702832	1.655962
0.702930	1.669632
0.703027	1.695690
0.703125	1.647782
0.703223	1.652301
0.703320	1.648974
0.703418	1.654663
0.703516	1.638894
0.703613	1.638161
0.703711	1.651362
0.703809	1.654669
0.703906	1.648849
0.704004	1.652975
0.704102	1.653027
0.704199	1.653711
0.704297	1.652489
0.704395	1.653082
0.704492	1.655828
0.704590	1.658599
0.704687	1.668184
0.704785	1.673292
0.704883	1.668116
0.704980	1.669242
0.705078	1.665978
0.705176	1.659256
0.705273	1.647647
0.705371	1.640792
0.705469	1.640239
0.705566	1.646220
0.705664	1.654583
0.705762	1.657120
0.705859	1.651538
0.705957	1.643512
0.706055	1.636391
0.706152	1.624058
0.706250	1.617963
0.706348	1.617634
0.706445	1.617944
0.706543	1.619432
0.706641	1.620762
0.706738	1.622268
0.706836	1.622942
0.706934	1.622531
0.707031	1.621237
0.707129	1.620131
0.707227	1.620018
0.707324	1.620816
0.707422	1.622044
0.707520	1.623920
0.707617	1.626494
0.707715	1.629901
0.707812	1.633643
0.707910	1.637077
0.708008	1.640462
0.708105	1.643875
0.708203	1.648014
0.708301	1.653049
0.708398	1.658966
0.708496	1.663800
0.708594	1.666852
0.708691	1.669196
0.708789	1.672276
0.708887	1.675927
0.708984	1.679896
0.709082	1.681975
0.709180	1.684588
0.709277	1.687242
0.709375	1.691053
0.709473	1.693353
0.709570	1.697473
0.709668	1.697275
0.709766	1.701915
0.709863	1.705595
0.709961	1.721469
0.710059	1.729697
0.710156	1.719949
0.710254	1.723656
0.710352	1.743038
0.710449	1.754453
0.710547	1.732459
0.710645	1.721334
0.710742	1.742694
0.710840	1.696044
0.710937	1.701231
0.711035	1.695224
0.711133	1.702832
0.711230	1.714281
0.711328	1.715433
0.711426	1.634316
0.711523	1.618473
0.711621	1.630341
0.711719	1.617899
0.711816	1.631800
0.711914	1.645588
0.712012	1.632627
0.712109	1.565510
0.712207	1.557256
0.712305	1.573653
0.712402	1.579201
0.712500	1.597335
0.712598	1.605608
0.712695	1.635238
0.712793	1.649380
0.712891	1.624800
0.712988	1.622307
0.713086	1.571329
0.713184	1.593704
0.713281	1.607111
0.713379	1.612759
0.713477	1.629703
0.713574	1.598320
0.713672	1.594745
0.713770	1.625958
0.713867	1.677136
0.713965	1.639590
0.714062	1.658663
0.714160	1.648639
0.714258	1.638567
0.714355	1.601408
0.714453	1.612312
0.714551	1.596661
0.714648	1.599282
0.714746	1.592864
0.714844	1.578120
0.714941	1.579131
0.715039	1.628397
0.715137	1.645544
0.715234	1.612349
0.715332	1.604368
0.715430	1.590375
0.715527	1.611049
0.715625	1.611950
0.715723	1.598477
0.715820	1.640339
0.715918	1.663320
0.716016	1.640825
0.716113	1.600763
0.716211	1.597864
0.716309	1.611392
0.716406	1.580970
0.716504	1.574315
0.716602	1.579761
0.716699	1.542530
0.716797	1.533813
0.716895	1.511793
0.716992	1.462327
0.717090	1.442830
0.717187	1.486148
0.717285	1.504585
0.717383	1.520989
0.717480	1.557475
0.717578	1.565242
0.717676	1.572675
0.717773	1.580361
0.717871	1.586655
0.717969	1.593195
0.718066	1.598778
0.718164	1.603743
0.718262	1.607448
0.718359	1.610533
0.718457	1.612592
0.718555	1.614629
0.718652	1.616815
0.718750	1.619627
0.718848	1.622428
0.718945	1.625419
0.719043	1.625502
0.719141	1.623924
0.719238	1.623619
0.719336	1.623688
0.719434	1.624382
0.719531	1.625584
0.719629	1.626984
0.719727	1.628051
0.719824	1.629351
0.719922	1.630902
0.720020	1.633486
0.720117	1.636810
0.720215	1.640556
0.720312	1.644028
0.720410	1.647564
0.720508	1.651172
0.720605	1.655527
0.720703	1.660108
0.720801	1.665852
0.720898	1.671473
0.720996	1.677801
0.721094	1.683531
0.721191	1.692166
0.721289	1.697385
0.721387	1.696094
0.721484	1.693827
0.721582	1.690951
0.721680	1.692589
0.721777	1.694087
0.721875	1.698421
0.721973	1.702875
0.722070	1.702940
0.722168	1.705290
0.722266	1.715736
0.722363	1.723583
0.722461	1.721919
0.722559	1.718036
0.722656	1.696562
0.722754	1.694156
0.722852	1.707363
0.722949	1.717610
0.723047	1.731980
0.723145	1.720995
0.723242	1.721725
0.723340	1.709266
0.723437	1.702285
0.723535	1.679805
0.723633	1.653663
0.723730	1.663585
0.723828	1.698861
0.723926	1.685978
0.724023	1.667651
0.724121	1.690877
0.724219	1.698513
0.724316	1.695455
0.724414	1.686178
0.724512	1.717904
0.724609	1.658286
0.724707	1.608692
0.724805	1.628145
0.724902	1.662027
0.725000	1.659505
0.725098	1.665084
0.725195	1.690217
0.725293	1.655710
0.725391	1.593569
0.725488	1.608187
0.725586	1.583654
0.725684	1.598945
0.725781	1.593256
0.725879	1.546616
0.725977	1.484043
0.726074	1.526314
0.726172	1.543006
0.726270	1.625148
0.726367	1.659504
0.726465	1.621439
0.726562	1.640560
0.726660	1.640960
0.726758	1.654998
0.726855	1.672706
0.726953	1.673830
0.727051	1.645774
0.727148	1.613752
0.727246	1.589712
0.727344	1.579268
0.727441	1.568805
0.727539	1.572225
0.727637	1.621329
0.727734	1.633881
0.727832	1.644237
0.727930	1.643785
0.728027	1.647697
0.728125	1.645263
0.728223	1.667038
0.728320	1.690033
0.728418	1.685489
0.728516	1.688459
0.728613	1.696132
0.728711	1.663428
0.728809	1.632770
0.728906	1.601535
0.729004	1.557071
0.729102	1.536299
0.729199	1.495280
0.729297	1.466677
0.729395	1.437458
0.729492	1.471049
0.729590	1.538157
0.729687	1.565473
0.729785	1.593842
0.729883	1.619566
0.729980	1.659979
0.730078	1.665648
0.730176	1.650305
0.730273	1.647531
0.730371	1.658866
0.730469	1.655277
0.730566	1.670981
0.730664	1.669974
0.730762	1.657260
0.730859	1.622735
0.730957	1.606961
0.731055	1.604552
0.731152	1.597281
0.731250	1.644277
0.731348	1.634708
0.731445	1.663882
0.731543	1.692532
0.731641	1.676195
0.731738	1.671786
0.731836	1.669920
0.731934	1.640218
0.732031	1.641743
0.732129	1.666285
0.732227	1.689040
0.732324	1.641907
0.732422	1.625359
0.732520	1.627094
0.732617	1.619707
0.732715	1.616222
0.732812	1.625485
0.732910	1.631633
0.733008	1.642487
0.733105	1.644165
0.733203	1.628908
0.733301	1.624910
0.733398	1.625355
0.733496	1.629689
0.733594	1.631953
0.733691	1.634856
0.733789	1.636337
0.733887	1.639072
0.733984	1.641322
0.734082	1.642495
0.734180	1.639586
0.734277	1.634888
0.734375	1.632077
0.734473	1.632519
0.734570	1.635621
0.734668	1.641318
0.734766	1.648418
0.734863	1.658946
0.734961	1.669574
0.735059	1.676381
0.735156	1.664825
0.735254	1.640666
0.735352	1.627001
0.735449	1.648768
0.735547	1.666986
0.735645	1.665818
0.735742	1.654743
0.735840	1.660390
0.735937	1.663923
0.736035	1.668673
0.736133	1.668678
0.736230	1.669731
0.736328	1.647601
0.736426	1.621630
0.736523	1.651303
0.736621	1.633076
0.736719	1.655105
0.736816	1.707124
0.736914	1.704269
0.737012	1.687766
0.737109	1.680891
0.737207	1.683515
0.737305	1.685228
0.737402	1.700011
0.737500	1.707203
0.737598	1.712958
0.737695	1.711218
0.737793	1.721497
0.737891	1.729575
0.737988	1.707463
0.738086	1.714778
0.738184	1.706024
0.738281	1.680217
0.738379	1.620163
0.738477	1.589671
0.738574	1.572557
0.738672	1.588001
0.738770	1.578084
0.738867	1.552018
0.738965	1.527830
0.739062	1.496975
0.739160	1.522444
0.739258	1.526463
0.739355	1.528773
0.739453	1.534462
0.739551	1.562985
0.739648	1.581262
0.739746	1.595537
0.739844	1.644995
0.739941	1.694778
0.740039	1.703409
0.740137	1.695631
0.740234	1.657198
0.740332	1.661597
0.740430	1.693131
0.740527	1.694439
0.740625	1.686120
0.740723	1.685677
0.740820	1.680918
0.740918	1.667918
0.741016	1.669953
0.741113	1.665795
0.741211	1.668818
0.741309	1.674348
0.741406	1.652074
0.741504	1.663734
0.741602	1.663676
0.741699	1.645249
0.741797	1.607877
0.741895	1.550033
0.741992	1.565862
0.742090	1.584159
0.742187	1.558138
0.742285	1.549342
0.742383	1.519815
0.742480	1.464137
0.742578	1.499483
0.742676	1.513499
0.742773	1.550363
0.742871	1.569850
0.742969	1.544942
0.743066	1.536126
0.743164	1.542783
0.743262	1.497514
0.743359	1.529477
0.743457	1.550477
0.743555	1.572516
0.743652	1.576485
0.743750	1.589757
0.743848	1.600678
0.743945	1.598487
0.744043	1.601997
0.744141	1.611296
0.744238	1.624543
0.744336	1.645425
0.744434	1.613138
0.744531	1.546637
0.744629	1.514554
0.744727	1.526890
0.744824	1.596245
0.744922	1.582237
0.745020	1.578926
0.745117	1.514451
0.745215	1.525984
0.745312	1.529372
0.745410	1.547525
0.745508	1.526732
0.745605	1.502745
0.745703	1.528143
0.745801	1.559115
0.745898	1.576521
0.745996	1.559138
0.746094	1.578337
0.746191	1.633191
0.746289	1.633292
0.746387	1.604561
0.746484	1.621833
0.746582	1.643363
0.746680	1.640675
0.746777	1.640238
0.746875	1.635097
0.746973	1.622464
0.747070	1.602760
0.747168	1.589515
0.747266	1.583292
0.747363	1.586340
0.747461	1.593942
0.747559	1.603714
0.747656	1.613375
0.747754	1.621013
0.747852	1.626695
0.747949	1.633744
0.748047	1.641167
0.748145	1.641671
0.748242	1.644616
0.748340	1.644832
0.748437	1.650018
0.748535	1.651599
0.748633	1.660633
0.748730	1.654218
0.748828	1.646594
0.748926	1.618376
0.749023	1.632414
0.749121	1.653697
0.749219	1.675197
0.749316	1.668607
0.749414	1.667287
0.749512	1.648689
0.749609	1.684730
0.749707	1.688702
0.749805	1.669697
0.749902	1.670676
0.750000	1.673080
0.750098	1.684184
0.750195	1.690307
0.750293	1.696021
0.750391	1.694815
0.750488	1.697452
0.750586	1.696929
0.750684	1.702073
0.750781	1.654774
0.750879	1.621166
0.750977	1.645784
0.751074	1.688263
0.751172	1.668036
0.751270	1.662539
0.751367	1.674612
0.751465	1.677277
0.751562	1.698469
0.751660	1.685309
0.751758	1.671475
0.751855	1.702629
0.751953	1.704923
0.752051	1.704861
0.752148	1.704372
0.752246	1.684021
0.752344	1.670276
0.752441	1.697505
0.752539	1.673316
0.752637	1.662546
0.752734	1.671393
0.752832	1.705530
0.752930	1.709953
0.753027	1.661193
0.753125	1.635127
0.753223	1.672438
0.753320	1.717961
0.753418	1.719733
0.753516	1.602433
0.753613	1.542734
0.753711	1.539663
0.753809	1.595506
0.753906	1.578504
0.754004	1.516206
0.754102	1.549997
0.754199	1.597845
0.754297	1.593101
0.754395	1.604455
0.754492	1.597292
0.754590	1.565076
0.754687	1.580316
0.754785	1.593686
0.754883	1.581681
0.754980	1.587318
0.755078	1.563554
0.755176	1.614906
0.755273	1.612922
0.755371	1.667820
0.755469	1.647061
0.755566	1.631614
0.755664	1.630741
0.755762	1.565630
0.755859	1.488988
0.755957	1.594139
0.756055	1.592843
0.756152	1.577929
0.756250	1.479657
0.756348	1.480055
0.756445	1.528072
0.756543	1.462200
0.756641	1.474917
0.756738	1.533960
0.756836	1.528179
0.756934	1.503284
0.757031	1.471107
0.757129	1.458649
0.757227	1.447695
0.757324	1.457205
0.757422	1.456758
0.757520	1.452544
0.757617	1.461624
0.757715	1.417260
0.757812	1.390408
0.757910	1.448539
0.758008	1.486244
0.758105	1.523368
0.758203	1.544515
0.758301	1.465346
0.758398	1.439504
0.758496	1.453741
0.758594	1.527780
0.758691	1.532739
0.758789	1.524645
0.758887	1.558289
0.758984	1.592041
0.759082	1.622016
0.759180	1.636480
0.759277	1.627875
0.759375	1.612706
0.759473	1.613968
0.759570	1.615207
0.759668	1.624421
0.759766	1.624869
0.759863	1.649037
0.759961	1.681071
0.760059	1.665542
0.760156	1.632070
0.760254	1.638321
0.760352	1.667866
0.760449	1.654408
0.760547	1.649630
0.760645	1.654092
0.760742	1.663028
0.760840	1.673357
0.760937	1.680224
0.761035	1.673543
0.761133	1.650293
0.761230	1.658279
0.761328	1.657170
0.761426	1.641026
0.761523	1.632638
0.761621	1.600910
0.761719	1.623641
0.761816	1.609757
0.761914	1.570432
0.762012	1.542740
0.762109	1.530942
0.762207	1.524861
0.762305	1.582880
0.762402	1.616486
0.762500	1.602769
0.762598	1.609739
0.762695	1.611746
0.762793	1.633478
0.762891	1.624649
0.762988	1.622244
0.763086	1.564704
0.763184	1.511747
0.763281	1.508763
0.763379	1.474255
0.763477	1.453988
0.763574	1.525902
0.763672	1.594825
0.763770	1.613132
0.763867	1.605384
0.763965	1.610641
0.764062	1.601596
0.764160	1.572504
0.764258	1.553449
0.764355	1.639506
0.764453	1.615847
0.764551	1.564576
0.764648	1.555924
0.764746	1.554332
0.764844	1.539818
0.764941	1.536422
0.765039	1.482203
0.765137	1.489206
0.765234	1.573744
0.765332	1.542885
0.765430	1.579104
0.765527	1.581948
0.765625	1.545818
0.765723	1.502902
0.765820	1.468433
0.765918	1.482388
0.766016	1.580686
0.766113	1.653444
0.766211	1.647502
0.766309	1.658241
0.766406	1.647740
0.766504	1.650143
0.766602	1.676445
0.766699	1.663305
0.766797	1.675470
0.766895	1.681275
0.766992	1.667824
0.767090	1.681064
0.767187	1.696131
0.767285	1.683534
0.767383	1.668934
0.767480	1.667638
0.767578	1.640921
0.767676	1.646026
0.767773	1.618324
0.767871	1.656147
0.767969	1.678794
0.768066	1.657587
0.768164	1.642181
0.768262	1.617964
0.768359	1.583430
0.768457	1.579098
0.768555	1.588300
0.768652	1.577785
0.768750	1.581407
0.768848	1.611310
0.768945	1.614407
0.769043	1.598355
0.769141	1.574062
0.769238	1.561371
0.769336	1.654601
0.769434	1.680538
0.769531	1.670118
0.769629	1.669056
0.769727	1.669718
0.769824	1.641380
0.769922	1.638313
0.770020	1.655188
0.770117	1.640921
0.770215	1.626958
0.770312	1.624261
0.770410	1.631896
0.770508	1.599911
0.770605	1.609942
0.770703	1.611915
0.770801	1.639271
0.770898	1.593739
0.770996	1.587907
0.771094	1.641464
0.771191	1.617866
0.771289	1.539145
0.771387	1.513944
0.771484	1.580523
0.771582	1.578085
0.771680	1.543609
0.771777	1.547873
0.771875	1.591960
0.771973	1.608111
0.772070	1.611501
0.772168	1.630934
0.772266	1.625219
0.772363	1.606258
0.772461	1.613933
0.772559	1.641409
0.772656	1.648949
0.772754	1.642178
0.772852	1.592376
0.772949	1.555080
0.773047	1.505805
0.773145	1.511623
0.773242	1.471279
0.773340	1.473648
0.773437	1.538440
0.773535	1.548897
0.773633	1.556386
0.773730	1.530514
0.773828	1.549058
0.773926	1.512063
0.774023	1.499827
0.774121	1.453736
0.774219	1.408823
0.774316	1.397538
0.774414	1.454413
0.774512	1.487048
0.774609	1.464888
0.774707	1.440661
0.774805	1.428657
0.774902	1.426484
0.775000	1.434365
0.775098	1.433906
0.775195	1.426948
0.775293	1.461490
0.775391	1.458805
0.775488	1.439877
0.775586	1.424975
0.775684	1.436862
0.775781	1.467562
0.775879	1.449392
0.775977	1.447693
0.776074	1.485237
0.776172	1.521574
0.776270	1.551761
0.776367	1.565284
0.776465	1.562753
0.776562	1.570613
0.776660	1.575975
0.776758	1.589393
0.776855	1.593292
0.776953	1.602611
0.777051	1.608729
0.777148	1.613755
0.777246	1.612543
0.777344	1.613745
0.777441	1.600658
0.777539	1.633712
0.777637	1.634722
0.777734	1.641978
0.777832	1.647453
0.777930	1.657858
0.778027	1.646580
0.778125	1.642234
0.778223	1.613817
0.778320	1.623050
0.778418	1.650114
0.778516	1.678601
0.778613	1.680685
0.778711	1.681531
0.778809	1.685631
0.778906	1.645407
0.779004	1.661866
0.779102	1.682289
0.779199	1.684281
0.779297	1.684957
0.779395	1.658225
0.779492	1.630073
0.779590	1.602395
0.779687	1.550602
0.779785	1.545032
0.779883	1.576829
0.779980	1.576343
0.780078	1.574654
0.780176	1.626845
0.780273	1.653419
0.780371	1.641757
0.780469	1.616741
0.780566	1.581961
0.780664	1.574914
0.780762	1.575043
0.780859	1.636375
0.780957	1.669833
0.781055	1.550204
0.781152	1.571696
0.781250	1.570604
0.781348	1.626101
0.781445	1.689365
0.781543	1.683921
0.781641	1.691230
0.781738	1.698500
0.781836	1.712608
0.781934	1.718050
0.782031	1.720763
0.782129	1.705100
0.782227	1.677612
0.782324	1.653065
0.782422	1.675763
0.782520	1.682914
0.782617	1.676242
0.782715	1.651438
0.782812	1.621719
0.782910	1.597435
0.783008	1.566733
0.783105	1.528099
0.783203	1.521732
0.783301	1.532728
0.783398	1.560950
0.783496	1.573486
0.783594	1.584465
0.783691	1.604544
0.783789	1.595051
0.783887	1.628873
0.783984	1.643663
0.784082	1.626949
0.784180	1.651679
0.784277	1.685743
0.784375	1.660590
0.784473	1.626656
0.784570	1.644347
0.784668	1.620893
0.784766	1.607178
0.784863	1.590476
0.784961	1.547406
0.785059	1.536456
0.785156	1.505251
0.785254	1.484216
0.785352	1.463964
0.785449	1.487600
0.785547	1.466955
0.785645	1.443582
0.785742	1.461359
0.785840	1.437822
0.785937	1.496792
0.786035	1.521595
0.786133	1.550734
0.786230	1.556694
0.786328	1.579939
0.786426	1.588475
0.786523	1.587944
0.786621	1.612010
0.786719	1.596741
0.786816	1.575794
0.786914	1.576895
0.787012	1.555353
0.787109	1.572530
0.787207	1.585294
0.787305	1.560096
0.787402	1.557533
0.787500	1.563566
0.787598	1.631360
0.787695	1.654896
0.787793	1.622996
0.787891	1.645235
0.787988	1.654390
0.788086	1.642000
0.788184	1.556480
0.788281	1.546486
0.788379	1.594523
0.788477	1.558405
0.788574	1.548236
0.788672	1.520548
0.788770	1.508864
0.788867	1.537450
0.788965	1.540463
0.789062	1.547345
0.789160	1.537028
0.789258	1.580117
0.789355	1.592073
0.789453	1.627688
0.789551	1.561250
0.789648	1.538217
0.789746	1.464492
0.789844	1.562131
0.789941	1.605026
0.790039	1.616496
0.790137	1.613763
0.790234	1.566035
0.790332	1.580912
0.790430	1.613698
0.790527	1.591440
0.790625	1.518212
0.790723	1.449046
0.790820	1.399437
0.790918	1.410118
0.791016	1.455645
0.791113	1.496360
0.791211	1.490608
0.791309	1.522462
0.791406	1.542432
0.791504	1.554645
0.791602	1.526238
0.791699	1.554326
0.791797	1.551864
0.791895	1.557119
0.791992	1.540172
0.792090	1.505060
0.792187	1.536822
0.792285	1.578534
0.792383	1.597150
0.792480	1.590787
0.792578	1.589052
0.792676	1.597116
0.792773	1.600718
0.792871	1.609614
0.792969	1.626406
0.793066	1.634454
0.793164	1.628765
0.793262	1.620372
0.793359	1.620877
0.793457	1.612202
0.793555	1.602877
0.793652	1.594307
0.793750	1.589629
0.793848	1.586246
0.793945	1.584523
0.794043	1.583045
0.794141	1.582528
0.794238	1.582711
0.794336	1.584247
0.794434	1.586562
0.794531	1.589855
0.794629	1.593505
0.794727	1.597681
0.794824	1.602022
0.794922	1.606835
0.795020	1.611684
0.795117	1.617002
0.795215	1.622147
0.795312	1.627488
0.795410	1.631808
0.795508	1.635886
0.795605	1.639321
0.795703	1.643333
0.795801	1.647084
0.795898	1.652174
0.795996	1.656972
0.796094	1.663586
0.796191	1.669116
0.796289	1.677009
0.796387	1.682005
0.796484	1.687699
0.796582	1.688371
0.796680	1.690568
0.796777	1.681272
0.796875	1.688408
0.796973	1.704872
0.797070	1.711895
0.797168	1.731081
0.797266	1.699673
0.797363	1.696868
0.797461	1.702591
0.797559	1.702461
0.797656	1.708882
0.797754	1.681629
0.797852	1.643382
0.797949	1.628794
0.798047	1.609624
0.798145	1.609381
0.798242	1.613845
0.798340	1.602588
0.798437	1.588271
0.798535	1.586902
0.798633	1.590960
0.798730	1.607421
0.798828	1.624369
0.798926	1.615953
0.799023	1.611715
0.799121	1.612660
0.799219	1.618045
0.799316	1.625352
0.799414	1.635319
0.799512	1.612125
0.799609	1.638561
0.799707	1.655012
0.799805	1.677112
0.799902	1.690534
0.800000	1.681136
0.800098	1.681241
0.800195	1.695579
0.800293	1.701125
0.800391	1.710150
0.800488	1.681583
0.800586	1.649831
0.800684	1.672179
0.800781	1.667987
0.800879	1.681689
0.800977	1.698031
0.801074	1.703038
0.801172	1.731413
0.801270	1.727858
0.801367	1.745675
0.801465	1.738508
0.801562	1.738614
0.801660	1.712630
0.801758	1.730084
0.801855	1.736402
0.801953	1.723039
0.802051	1.680299
0.802148	1.705231
0.802246	1.696420
0.802344	1.629928
0.802441	1.664899
0.802539	1.657872
0.802637	1.659433
0.802734	1.631050
0.802832	1.643210
0.802930	1.678004
0.803027	1.643489
0.803125	1.678145
0.803223	1.602455
0.803320	1.583448
0.803418	1.614191
0.803516	1.565549
0.803613	1.597749
0.803711	1.612742
0.803809	1.625022
0.803906	1.588239
0.804004	1.583708
0.804102	1.579440
0.804199	1.597433
0.804297	1.612833
0.804395	1.596174
0.804492	1.563824
0.804590	1.595480
0.804687	1.605409
0.804785	1.580343
0.804883	1.581468
0.804980	1.609706
0.805078	1.652594
0.805176	1.617520
0.805273	1.533985
0.805371	1.485209
0.805469	1.487153
0.805566	1.491091
0.805664	1.497235
0.805762	1.499960
0.805859	1.516488
0.805957	1.523683
0.806055	1.560660
0.806152	1.574087
0.806250	1.516402
0.806348	1.476452
0.806445	1.526720
0.806543	1.563028
0.806641	1.562270
0.806738	1.618413
0.806836	1.638438
0.806934	1.652132
0.807031	1.642223
0.807129	1.644282
0.807227	1.628677
0.807324	1.615171
0.807422	1.576412
0.807520	1.566778
0.807617	1.562750
0.807715	1.573606
0.807812	1.590142
0.807910	1.609804
0.808008	1.624030
0.808105	1.622857
0.808203	1.619197
0.808301	1.617977
0.808398	1.617580
0.808496	1.619831
0.808594	1.624164
0.808691	1.617686
0.808789	1.605791
0.808887	1.593353
0.808984	1.583024
0.809082	1.572595
0.809180	1.546820
0.809277	1.518524
0.809375	1.475192
0.809473	1.431667
0.809570	1.415139
0.809668	1.404458
0.809766	1.394008
0.809863	1.436475
0.809961	1.482846
0.810059	1.490921
0.810156	1.492027
0.810254	1.514462
0.810352	1.543327
0.810449	1.570133
0.810547	1.574620
0.810645	1.522485
0.810742	1.514069
0.810840	1.517436
0.810937	1.517178
0.811035	1.505569
0.811133	1.505947
0.811230	1.520482
0.811328	1.525873
0.811426	1.527930
0.811523	1.529034
0.811621	1.529981
0.811719	1.531540
0.811816	1.533463
0.811914	1.536195
0.812012	1.539189
0.812109	1.542645
0.812207	1.546313
0.812305	1.550439
0.812402	1.554789
0.812500	1.559307
0.812598	1.563919
0.812695	1.568515
0.812793	1.573490
0.812891	1.578899
0.812988	1.584998
0.813086	1.591582
0.813184	1.598601
0.813281	1.605754
0.813379	1.612988
0.813477	1.620268
0.813574	1.628534
0.813672	1.636842
0.813770	1.645434
0.813867	1.653439
0.813965	1.661872
0.814062	1.667611
0.814160	1.672088
0.814258	1.676272
0.814355	1.683219
0.814453	1.684409
0.814551	1.686253
0.814648	1.688858
0.814746	1.693566
0.814844	1.695508
0.814941	1.699009
0.815039	1.698967
0.815137	1.706000
0.815234	1.706004
0.815332	1.707339
0.815430	1.713847
0.815527	1.731278
0.815625	1.708252
0.815723	1.672720
0.815820	1.677646
0.815918	1.693432
0.816016	1.686624
0.816113	1.676613
0.816211	1.664755
0.816309	1.635539
0.816406	1.615653
0.816504	1.600071
0.816602	1.619928
0.816699	1.577270
0.816797	1.572006
0.816895	1.595026
0.816992	1.585570
0.817090	1.622750
0.817187	1.628211
0.817285	1.634334
0.817383	1.632793
0.817480	1.652670
0.817578	1.628743
0.817676	1.640491
0.817773	1.681482
0.817871	1.684372
0.817969	1.690131
0.818066	1.702217
0.818164	1.711033
0.818262	1.710519
0.818359	1.694618
0.818457	1.665128
0.818555	1.659570
0.818652	1.692046
0.818750	1.696457
0.818848	1.673204
0.818945	1.675464
0.819043	1.694051
0.819141	1.665716
0.819238	1.639911
0.819336	1.662005
0.819434	1.645486
0.819531	1.640058
0.819629	1.626788
0.819727	1.618046
0.819824	1.619888
0.819922	1.618603
0.820020	1.606967
0.820117	1.613922
0.820215	1.617702
0.820312	1.632143
0.820410	1.648308
0.820508	1.671769
0.820605	1.645946
0.820703	1.661593
0.820801	1.658336
0.820898	1.648517
0.820996	1.653138
0.821094	1.693356
0.821191	1.638133
0.821289	1.680881
0.821387	1.689783
0.821484	1.661537
0.821582	1.668163
0.821680	1.623361
0.821777	1.634207
0.821875	1.639642
0.821973	1.609681
0.822070	1.600010
0.822168	1.631644
0.822266	1.639795
0.822363	1.616731
0.822461	1.587655
0.822559	1.596412
0.822656	1.583747
0.822754	1.572409
0.822852	1.582018
0.822949	1.591268
0.823047	1.599417
0.823145	1.592056
0.823242	1.592576
0.823340	1.586544
0.823437	1.574491
0.823535	1.572376
0.823633	1.572052
0.823730	1.572639
0.823828	1.565028
0.823926	1.546188
0.824023	1.540920
0.824121	1.551688
0.824219	1.550538
0.824316	1.543302
0.824414	1.556129
0.824512	1.603789
0.824609	1.619284
0.824707	1.621160
0.824805	1.619284
0.824902	1.618499
0.825000	1.603470
0.825098	1.594833
0.825195	1.590717
0.825293	1.590553
0.825391	1.590082
0.825488	1.591219
0.825586	1.591847
0.825684	1.593606
0.825781	1.595069
0.825879	1.597410
0.825977	1.599796
0.826074	1.602648
0.826172	1.605691
0.826270	1.608969
0.826367	1.612420
0.826465	1.615974
0.826562	1.619411
0.826660	1.623062
0.826758	1.626305
0.826855	1.629491
0.826953	1.632555
0.827051	1.636001
0.827148	1.639750
0.827246	1.643794
0.827344	1.647983
0.827441	1.652360
0.827539	1.656624
0.827637	1.661525
0.827734	1.667347
0.827832	1.674110
0.827930	1.677719
0.828027	1.677898
0.828125	1.678701
0.828223	1.679866
0.828320	1.682549
0.828418	1.686213
0.828516	1.691331
0.828613	1.696560
0.828711	1.701405
0.828809	1.704092
0.828906	1.706495
0.829004	1.709288
0.829102	1.714085
0.829199	1.721980
0.829297	1.737267
0.829395	1.735072
0.829492	1.727787
0.829590	1.726912
0.829687	1.728508
0.829785	1.725337
0.829883	1.726407
0.829980	1.729949
0.830078	1.751270
0.830176	1.760188
0.830273	1.739576
0.830371	1.735759
0.830469	1.716636
0.830566	1.742389
0.830664	1.716807
0.830762	1.675007
0.830859	1.689305
0.830957	1.716931
0.831055	1.684531
0.831152	1.670458
0.831250	1.698401
0.831348	1.731693
0.831445	1.733406
0.831543	1.742763
0.831641	1.746020
0.831738	1.732745
0.831836	1.735360
0.831934	1.716867
0.832031	1.710369
0.832129	1.691062
0.832227	1.710600
0.832324	1.712563
0.832422	1.693855
0.832520	1.689824
0.832617	1.693485
0.832715	1.717777
0.832812	1.723626
0.832910	1.718119
0.833008	1.709446
0.833105	1.714360
0.833203	1.683106
0.833301	1.660679
0.833398	1.650414
0.833496	1.661583
0.833594	1.679108
0.833691	1.680381
0.833789	1.690740
0.833887	1.664892
0.833984	1.647021
0.834082	1.649301
0.834180	1.634186
0.834277	1.623967
0.834375	1.604590
0.834473	1.583643
0.834570	1.558753
0.834668	1.533332
0.834766	1.581883
0.834863	1.616255
0.834961	1.679876
0.835059	1.665619
0.835156	1.654974
0.835254	1.599023
0.835352	1.507056
0.835449	1.553428
0.835547	1.611919
0.835645	1.606735
0.835742	1.575677
0.835840	1.541078
0.835937	1.575032
0.836035	1.553553
0.836133	1.544887
0.836230	1.568165
0.836328	1.540838
0.836426	1.495663
0.836523	1.456803
0.836621	1.494328
0.836719	1.528674
0.836816	1.575520
0.836914	1.598318
0.837012	1.613330
0.837109	1.624657
0.837207	1.634368
0.837305	1.641727
0.837402	1.646242
0.837500	1.648680
0.837598	1.650502
0.837695	1.653941
0.837793	1.656520
0.837891	1.661670
0.837988	1.665041
0.838086	1.669203
0.838184	1.668858
0.838281	1.671611
0.838379	1.667323
0.838477	1.666146
0.838574	1.659538
0.838672	1.672579
0.838770	1.651474
0.838867	1.635714
0.838965	1.642316
0.839062	1.633918
0.839160	1.573148
0.839258	1.553157
0.839355	1.583863
0.839453	1.602022
0.839551	1.630573
0.839648	1.629031
0.839746	1.649863
0.839844	1.648645
0.839941	1.650430
0.840039	1.646959
0.840137	1.638473
0.840234	1.638723
0.840332	1.642617
0.840430	1.644700
0.840527	1.644979
0.840625	1.645570
0.840723	1.647217
0.840820	1.649181
0.840918	1.651765
0.841016	1.653796
0.841113	1.656341
0.841211	1.659491
0.841309	1.664447
0.841406	1.671279
0.841504	1.673987
0.841602	1.669960
0.841699	1.669854
0.841797	1.674199
0.841895	1.697331
0.841992	1.705287
0.842090	1.730796
0.842187	1.721912
0.842285	1.703705
0.842383	1.717134
0.842480	1.710660
0.842578	1.719533
0.842676	1.715736
0.842773	1.716793
0.842871	1.719961
0.842969	1.717190
0.843066	1.716913
0.843164	1.719858
0.843262	1.725551
0.843359	1.713601
0.843457	1.715214
0.843555	1.726887
0.843652	1.742558
0.843750	1.731532
0.843848	1.712939
0.843945	1.723628
0.844043	1.700404
0.844141	1.686223
0.844238	1.669758
0.844336	1.657548
0.844434	1.693369
0.844531	1.731921
0.844629	1.723879
0.844727	1.718613
0.844824	1.683831
0.844922	1.674341
0.845020	1.662248
0.845117	1.645779
0.845215	1.691532
0.845312	1.717626
0.845410	1.686227
0.845508	1.642326
0.845605	1.662480
0.845703	1.691182
0.845801	1.695353
0.845898	1.674038
0.845996	1.705717
0.846094	1.726491
0.846191	1.741051
0.846289	1.669579
0.846387	1.669042
0.846484	1.680328
0.846582	1.648943
0.846680	1.639503
0.846777	1.655456
0.846875	1.667217
0.846973	1.703456
0.847070	1.691328
0.847168	1.684882
0.847266	1.650124
0.847363	1.652750
0.847461	1.654602
0.847559	1.619983
0.847656	1.615984
0.847754	1.629646
0.847852	1.674566
0.847949	1.677042
0.848047	1.654796
0.848145	1.632039
0.848242	1.639980
0.848340	1.623511
0.848437	1.622952
0.848535	1.641823
0.848633	1.605802
0.848730	1.607493
0.848828	1.616741
0.848926	1.579493
0.849023	1.604009
0.849121	1.636037
0.849219	1.634060
0.849316	1.641673
0.849414	1.625759
0.849512	1.624020
0.849609	1.600314
0.849707	1.566076
0.849805	1.579693
0.849902	1.592408
0.850000	1.621697
0.850098	1.610069
0.850195	1.636067
0.850293	1.589156
0.850391	1.590460
0.850488	1.615857
0.850586	1.584371
0.850684	1.584533
0.850781	1.555594
0.850879	1.544782
0.850977	1.553352
0.851074	1.559639
0.851172	1.573350
0.851270	1.597485
0.851367	1.600580
0.851465	1.567876
0.851562	1.582152
0.851660	1.632070
0.851758	1.616465
0.851855	1.610005
0.851953	1.589960
0.852051	1.588796
0.852148	1.583899
0.852246	1.584362
0.852344	1.591644
0.852441	1.610547
0.852539	1.591727
0.852637	1.564671
0.852734	1.553070
0.852832	1.580840
0.852930	1.565828
0.853027	1.585106
0.853125	1.599153
0.853223	1.603285
0.853320	1.604732
0.853418	1.600466
0.853516	1.596525
0.853613	1.590943
0.853711	1.588831
0.853809	1.587495
0.853906	1.588363
0.854004	1.588464
0.854102	1.589418
0.854199	1.589751
0.854297	1.590691
0.854395	1.591456
0.854492	1.592511
0.854590	1.593759
0.854687	1.595406
0.854785	1.597168
0.854883	1.599408
0.854980	1.601733
0.855078	1.604368
0.855176	1.607088
0.855273	1.609838
0.855371	1.612676
0.855469	1.615832
0.855566	1.619179
0.855664	1.623294
0.855762	1.627713
0.855859	1.632554
0.855957	1.637380
0.856055	1.641826
0.856152	1.646264
0.856250	1.650416
0.856348	1.655341
0.856445	1.659869
0.856543	1.664041
0.856641	1.668175
0.856738	1.673790
0.856836	1.679463
0.856934	1.687704
0.857031	1.693303
0.857129	1.691537
0.857227	1.690955
0.857324	1.690955
0.857422	1.693243
0.857520	1.696614
0.857617	1.701363
0.857715	1.705036
0.857812	1.708144
0.857910	1.708662
0.858008	1.711942
0.858105	1.717562
0.858203	1.726994
0.858301	1.726405
0.858398	1.719165
0.858496	1.721042
0.858594	1.728944
0.858691	1.695745
0.858789	1.688811
0.858887	1.655660
0.858984	1.601090
0.859082	1.617944
0.859180	1.633254
0.859277	1.608109
0.859375	1.638994
0.859473	1.696094
0.859570	1.698082
0.859668	1.704517
0.859766	1.713455
0.859863	1.732144
0.859961	1.739979
0.860059	1.715695
0.860156	1.720231
0.860254	1.709524
0.860352	1.682791
0.860449	1.666999
0.860547	1.623782
0.860645	1.640918
0.860742	1.650483
0.860840	1.649245
0.860937	1.704973
0.861035	1.715183
0.861133	1.758959
0.861230	1.745351
0.861328	1.701420
0.861426	1.713792
0.861523	1.694096
0.861621	1.680969
0.861719	1.706971
0.861816	1.692739
0.861914	1.711211
0.862012	1.706027
0.862109	1.687869
0.862207	1.660059
0.862305	1.678501
0.862402	1.650059
0.862500	1.630265
0.862598	1.605038
0.862695	1.604236
0.862793	1.604987
0.862891	1.595229
0.862988	1.592186
0.863086	1.635312
0.863184	1.647456
0.863281	1.650633
0.863379	1.644260
0.863477	1.638619
0.863574	1.634117
0.863672	1.636910
0.863770	1.637394
0.863867	1.684417
0.863965	1.689628
0.864062	1.635981
0.864160	1.640290
0.864258	1.620019
0.864355	1.608143
0.864453	1.593316
0.864551	1.591243
0.864648	1.611114
0.864746	1.570363
0.864844	1.546174
0.864941	1.545291
0.865039	1.585274
0.865137	1.580003
0.865234	1.542781
0.865332	1.562801
0.865430	1.572680
0.865527	1.612171
0.865625	1.591551
0.865723	1.577830
0.865820	1.567734
0.865918	1.540681
0.866016	1.610215
0.866113	1.622896
0.866211	1.607924
0.866309	1.580250
0.866406	1.535773
0.866504	1.497204
0.866602	1.466069
0.866699	1.426163
0.866797	1.411550
0.866895	1.427548
0.866992	1.465720
0.867090	1.466905
0.867187	1.445434
0.867285	1.424594
0.867383	1.460939
0.867480	1.477045
0.867578	1.496837
0.867676	1.499247
0.867773	1.486785
0.867871	1.469451
0.867969	1.511991
0.868066	1.580067
0.868164	1.571540
0.868262	1.581334
0.868359	1.576878
0.868457	1.571778
0.868555	1.573327
0.868652	1.581897
0.868750	1.560768
0.868848	1.553560
0.868945	1.568295
0.869043	1.566006
0.869141	1.581482
0.869238	1.585207
0.869336	1.584149
0.869434	1.583683
0.869531	1.585343
0.869629	1.584947
0.869727	1.585637
0.869824	1.585519
0.869922	1.586774
0.870020	1.587736
0.870117	1.589712
0.870215	1.591555
0.870312	1.593991
0.870410	1.596439
0.870508	1.599307
0.870605	1.602274
0.870703	1.605564
0.870801	1.608930
0.870898	1.612775
0.870996	1.616531
0.871094	1.620898
0.871191	1.625399
0.871289	1.630522
0.871387	1.635732
0.871484	1.641347
0.871582	1.647019
0.871680	1.652831
0.871777	1.657982
0.871875	1.662534
0.871973	1.665491
0.872070	1.668300
0.872168	1.670565
0.872266	1.674614
0.872363	1.679760
0.872461	1.690052
0.872559	1.701887
0.872656	1.717340
0.872754	1.726191
0.872852	1.712702
0.872949	1.713610
0.873047	1.695120
0.873145	1.632013
0.873242	1.610047
0.873340	1.653892
0.873437	1.691029
0.873535	1.680101
0.873633	1.689566
0.873730	1.695129
0.873828	1.685344
0.873926	1.681675
0.874023	1.685915
0.874121	1.687351
0.874219	1.690008
0.874316	1.689815
0.874414	1.692171
0.874512	1.691404
0.874609	1.690611
0.874707	1.683195
0.874805	1.697337
0.874902	1.720077
0.875000	1.651716
0.875098	1.589463
0.875195	1.556627
0.875293	1.567101
0.875391	1.640503
0.875488	1.643178
0.875586	1.629076
0.875684	1.652971
0.875781	1.652152
0.875879	1.644318
0.875977	1.614120
0.876074	1.630271
0.876172	1.658681
0.876270	1.640684
0.876367	1.595207
0.876465	1.567536
0.876562	1.611341
0.876660	1.628032
0.876758	1.612182
0.876855	1.628841
0.876953	1.652388
0.877051	1.673966
0.877148	1.651672
0.877246	1.642271
0.877344	1.659107
0.877441	1.642508
0.877539	1.645398
0.877637	1.640688
0.877734	1.618145
0.877832	1.624714
0.877930	1.630172
0.878027	1.640232
0.878125	1.584707
0.878223	1.524833
0.878320	1.578121
0.878418	1.615583
0.878516	1.599387
0.878613	1.584652
0.878711	1.573701
0.878809	1.558572
0.878906	1.546468
0.879004	1.580178
0.879102	1.603911
0.879199	1.613598
0.879297	1.599983
0.879395	1.594730
0.879492	1.628313
0.879590	1.637793
0.879687	1.634672
0.879785	1.660964
0.879883	1.652970
0.879980	1.599329
0.880078	1.628552
0.880176	1.651215
0.880273	1.628729
0.880371	1.580479
0.880469	1.578162
0.880566	1.564611
0.880664	1.610163
0.880762	1.614292
0.880859	1.614787
0.880957	1.604398
0.881055	1.574261
0.881152	1.555906
0.881250	1.544333
0.881348	1.535250
0.881445	1.533648
0.881543	1.513593
0.881641	1.491911
0.881738	1.448586
0.881836	1.442905
0.881934	1.467415
0.882031	1.497271
0.882129	1.540885
0.882227	1.565801
0.882324	1.559420
0.882422	1.561290
0.882520	1.575422
0.882617	1.577808
0.882715	1.550618
0.882812	1.480425
0.882910	1.516398
0.883008	1.553999
0.883105	1.460183
0.883203	1.436808
0.883301	1.510600
0.883398	1.521126
0.883496	1.542937
0.883594	1.536650
0.883691	1.512084
0.883789	1.493351
0.883887	1.446564
0.883984	1.385712
0.884082	1.382465
0.884180	1.429498
0.884277	1.422515
0.884375	1.421277
0.884473	1.410222
0.884570	1.431473
0.884668	1.500700
0.884766	1.543004
0.884863	1.560822
0.884961	1.566685
0.885059	1.560393
0.885156	1.499753
0.885254	1.424532
0.885352	1.396154
0.885449	1.426182
0.885547	1.422165
0.885645	1.415257
0.885742	1.396647
0.885840	1.402268
0.885937	1.396805
0.886035	1.428072
0.886133	1.503706
0.886230	1.543040
0.886328	1.559772
0.886426	1.560423
0.886523	1.580624
0.886621	1.595348
0.886719	1.603624
0.886816	1.601507
0.886914	1.601185
0.887012	1.596554
0.887109	1.593992
0.887207	1.591856
0.887305	1.591907
0.887402	1.592148
0.887500	1.593655
0.887598	1.595398
0.887695	1.598418
0.887793	1.601442
0.887891	1.605204
0.887988	1.609523
0.888086	1.614207
0.888184	1.619014
0.888281	1.623897
0.888379	1.628502
0.888477	1.633299
0.888574	1.638136
0.888672	1.643069
0.888770	1.647765
0.888867	1.652542
0.888965	1.657069
0.889062	1.661940
0.889160	1.666172
0.889258	1.670473
0.889355	1.674373
0.889453	1.679885
0.889551	1.687812
0.889648	1.697497
0.889746	1.701532
0.889844	1.701756
0.889941	1.695216
0.890039	1.691997
0.890137	1.689243
0.890234	1.690978
0.890332	1.694773
0.890430	1.705306
0.890527	1.694564
0.890625	1.681188
0.890723	1.684633
0.890820	1.655704
0.890918	1.611494
0.891016	1.566522
0.891113	1.559108
0.891211	1.554092
0.891309	1.543031
0.891406	1.543182
0.891504	1.507127
0.891602	1.493544
0.891699	1.502758
0.891797	1.525710
0.891895	1.583911
0.891992	1.600580
0.892090	1.564431
0.892187	1.623505
0.892285	1.634557
0.892383	1.615171
0.892480	1.641243
0.892578	1.670305
0.892676	1.640127
0.892773	1.637481
0.892871	1.657750
0.892969	1.645593
0.893066	1.650056
0.893164	1.678651
0.893262	1.662607
0.893359	1.617260
0.893457	1.646721
0.893555	1.659014
0.893652	1.671985
0.893750	1.653591
0.893848	1.650114
0.893945	1.671508
0.894043	1.660434
0.894141	1.654663
0.894238	1.673966
0.894336	1.661004
0.894434	1.647352
0.894531	1.626345
0.894629	1.603839
0.894727	1.615412
0.894824	1.603246
0.894922	1.560527
0.895020	1.523501
0.895117	1.544073
0.895215	1.572573
0.895312	1.584880
0.895410	1.569752
0.895508	1.519405
0.895605	1.497648
0.895703	1.588933
0.895801	1.616302
0.895898	1.589457
0.895996	1.602426
0.896094	1.603916
0.896191	1.590943
0.896289	1.572988
0.896387	1.545321
0.896484	1.551658
0.896582	1.543392
0.896680	1.556818
0.896777	1.575155
0.896875	1.566171
0.896973	1.534316
0.897070	1.552144
0.897168	1.553554
0.897266	1.526092
0.897363	1.558538
0.897461	1.579824
0.897559	1.511533
0.897656	1.471337
0.897754	1.426288
0.897852	1.372760
0.897949	1.398716
0.898047	1.469673
0.898145	1.520177
0.898242	1.561142
0.898340	1.566955
0.898437	1.570517
0.898535	1.571529
0.898633	1.575374
0.898730	1.577595
0.898828	1.580079
0.898926	1.581255
0.899023	1.583638
0.899121	1.586257
0.899219	1.589898
0.899316	1.593488
0.899414	1.597616
0.899512	1.602085
0.899609	1.607490
0.899707	1.613448
0.899805	1.620221
0.899902	1.627544
0.900000	1.635568
0.900098	1.643646
0.900195	1.650494
0.900293	1.655929
0.900391	1.659968
0.900488	1.665772
0.900586	1.673569
0.900684	1.673875
0.900781	1.670822
0.900879	1.673213
0.900977	1.675304
0.901074	1.680048
0.901172	1.684724
0.901270	1.694060
0.901367	1.694252
0.901465	1.698998
0.901562	1.706126
0.901660	1.734204
0.901758	1.703849
0.901855	1.685380
0.901953	1.709258
0.902051	1.717691
0.902148	1.725578
0.902246	1.735551
0.902344	1.732295
0.902441	1.749085
0.902539	1.734049
0.902637	1.744265
0.902734	1.723916
0.902832	1.707973
0.902930	1.686376
0.903027	1.676680
0.903125	1.683993
0.903223	1.678665
0.903320	1.661639
0.903418	1.636821
0.903516	1.697756
0.903613	1.704344
0.903711	1.694100
0.903809	1.688448
0.903906	1.693782
0.904004	1.699164
0.904102	1.709036
0.904199	1.718519
0.904297	1.714369
0.904395	1.685903
0.904492	1.646892
0.904590	1.634770
0.904687	1.659254
0.904785	1.710905
0.904883	1.717830
0.904980	1.699743
0.905078	1.719436
0.905176	1.743169
0.905273	1.739663
0.905371	1.754208
0.905469	1.761596
0.905566	1.763174
0.905664	1.746733
0.905762	1.753833
0.905859	1.693763
0.905957	1.676309
0.906055	1.635609
0.906152	1.631791
0.906250	1.676176
0.906348	1.645057
0.906445	1.595494
0.906543	1.560614
0.906641	1.546893
0.906738	1.548693
0.906836	1.563673
0.906934	1.546906
0.907031	1.559165
0.907129	1.581290
0.907227	1.587490
0.907324	1.548189
0.907422	1.546509
0.907520	1.529691
0.907617	1.541576
0.907715	1.610943
0.907812	1.607539
0.907910	1.552675
0.908008	1.571358
0.908105	1.534967
0.908203	1.589141
0.908301	1.610294
0.908398	1.578155
0.908496	1.569971
0.908594	1.581948
0.908691	1.567311
0.908789	1.565496
0.908887	1.590358
0.908984	1.602086
0.909082	1.582322
0.909180	1.531337
0.909277	1.560279
0.909375	1.571714
0.909473	1.577455
0.909570	1.600539
0.909668	1.591716
0.909766	1.581963
0.909863	1.554053
0.909961	1.537404
0.910059	1.555234
0.910156	1.562559
0.910254	1.541288
0.910352	1.529524
0.910449	1.555137
0.910547	1.565040
0.910645	1.549695
0.910742	1.547012
0.910840	1.544000
0.910937	1.530448
0.911035	1.518931
0.911133	1.504404
0.911230	1.475124
0.911328	1.478070
0.911426	1.469227
0.911523	1.451341
0.911621	1.417987
0.911719	1.415444
0.911816	1.437590
0.911914	1.459453
0.912012	1.456126
0.912109	1.434245
0.912207	1.423280
0.912305	1.405132
0.912402	1.384300
0.912500	1.376931
0.912598	1.383514
0.912695	1.394150
0.912793	1.396520
0.912891	1.404254
0.912988	1.430351
0.913086	1.430510
0.913184	1.422494
0.913281	1.433884
0.913379	1.450748
0.913477	1.484710
0.913574	1.507117
0.913672	1.519037
0.913770	1.528750
0.913867	1.537185
0.913965	1.543894
0.914062	1.549969
0.914160	1.555255
0.914258	1.560269
0.914355	1.564952
0.914453	1.569676
0.914551	1.574038
0.914648	1.578384
0.914746	1.582373
0.914844	1.586353
0.914941	1.590330
0.915039	1.594321
0.915137	1.598296
0.915234	1.602250
0.915332	1.606083
0.915430	1.609841
0.915527	1.613793
0.915625	1.618228
0.915723	1.623334
0.915820	1.628304
0.915918	1.632730
0.916016	1.636197
0.916113	1.639441
0.916211	1.642920
0.916309	1.646482
0.916406	1.649924
0.916504	1.653217
0.916602	1.657315
0.916699	1.662768
0.916797	1.669310
0.916895	1.676102
0.916992	1.681190
0.917090	1.684457
0.917187	1.686417
0.917285	1.685843
0.917383	1.684110
0.917480	1.681012
0.917578	1.682153
0.917676	1.688023
0.917773	1.695901
0.917871	1.705845
0.917969	1.718477
0.918066	1.707385
0.918164	1.703673
0.918262	1.704759
0.918359	1.675502
0.918457	1.650233
0.918555	1.625131
0.918652	1.666688
0.918750	1.722009
0.918848	1.709303
0.918945	1.700828
0.919043	1.691705
0.919141	1.669476
0.919238	1.675418
0.919336	1.657875
0.919434	1.650899
0.919531	1.681440
0.919629	1.656554
0.919727	1.677369
0.919824	1.679572
0.919922	1.679719
0.920020	1.644691
0.920117	1.637920
0.920215	1.666788
0.920312	1.710360
0.920410	1.725232
0.920508	1.684806
0.920605	1.689463
0.920703	1.704864
0.920801	1.715124
0.920898	1.706138
0.920996	1.690183
0.921094	1.683062
0.921191	1.676582
0.921289	1.652199
0.921387	1.661404
0.921484	1.698483
0.921582	1.686117
0.921680	1.696642
0.921777	1.693516
0.921875	1.701336
0.921973	1.674999
0.922070	1.685609
0.922168	1.671674
0.922266	1.564190
0.922363	1.571049
0.922461	1.570386
0.922559	1.545267
0.922656	1.528548
0.922754	1.543619
0.922852	1.606461
0.922949	1.617512
0.923047	1.605325
0.923145	1.577613
0.923242	1.611567
0.923340	1.620781
0.923437	1.605805
0.923535	1.612788
0.923633	1.616708
0.923730	1.609066
0.923828	1.596328
0.923926	1.584393
0.924023	1.597242
0.924121	1.591931
0.924219	1.591945
0.924316	1.570377
0.924414	1.587968
0.924512	1.570439
0.924609	1.549288
0.924707	1.550589
0.924805	1.529616
0.924902	1.506839
0.925000	1.488072
0.925098	1.458331
0.925195	1.525245
0.925293	1.531751
0.925391	1.563081
0.925488	1.586300
0.925586	1.552414
0.925684	1.574724
0.925781	1.535956
0.925879	1.479113
0.925977	1.410578
0.926074	1.491034
0.926172	1.533967
0.926270	1.426802
0.926367	1.405286
0.926465	1.499830
0.926562	1.526665
0.926660	1.550431
0.926758	1.593319
0.926855	1.595772
0.926953	1.607378
0.927051	1.609042
0.927148	1.614218
0.927246	1.614947
0.927344	1.606016
0.927441	1.613872
0.927539	1.631375
0.927637	1.627695
0.927734	1.636161
0.927832	1.634755
0.927930	1.640646
0.928027	1.642004
0.928125	1.644420
0.928223	1.642729
0.928320	1.645449
0.928418	1.642414
0.928516	1.640693
0.928613	1.642923
0.928711	1.653123
0.928809	1.655982
0.928906	1.655795
0.929004	1.657110
0.929102	1.659136
0.929199	1.659348
0.929297	1.659965
0.929395	1.662111
0.929492	1.663801
0.929590	1.662536
0.929687	1.660279
0.929785	1.660996
0.929883	1.663309
0.929980	1.667577
0.930078	1.671420
0.930176	1.677824
0.930273	1.683726
0.930371	1.691469
0.930469	1.694457
0.930566	1.693556
0.930664	1.683217
0.930762	1.681359
0.930859	1.686560
0.930957	1.693408
0.931055	1.700349
0.931152	1.696157
0.931250	1.697170
0.931348	1.697328
0.931445	1.696819
0.931543	1.692961
0.931641	1.695782
0.931738	1.691263
0.931836	1.686481
0.931934	1.681046
0.932031	1.685098
0.932129	1.687949
0.932227	1.706449
0.932324	1.687691
0.932422	1.711306
0.932520	1.716584
0.932617	1.707010
0.932715	1.705609
0.932812	1.675351
0.932910	1.687552
0.933008	1.646139
0.933105	1.620217
0.933203	1.648922
0.933301	1.668254
0.933398	1.656164
0.933496	1.660504
0.933594	1.672004
0.933691	1.675068
0.933789	1.608660
0.933887	1.578321
0.933984	1.573204
0.934082	1.587829
0.934180	1.590013
0.934277	1.631699
0.934375	1.629925
0.934473	1.595395
0.934570	1.607032
0.934668	1.538465
0.934766	1.578301
0.934863	1.655715
0.934961	1.617834
0.935059	1.528368
0.935156	1.515068
0.935254	1.551531
0.935352	1.589360
0.935449	1.569313
0.935547	1.576398
0.935645	1.578574
0.935742	1.557690
0.935840	1.548085
0.935937	1.519749
0.936035	1.577801
0.936133	1.578192
0.936230	1.603507
0.936328	1.616831
0.936426	1.639471
0.936523	1.657210
0.936621	1.670343
0.936719	1.653490
0.936816	1.635573
0.936914	1.661267
0.937012	1.690802
0.937109	1.695933
0.937207	1.704704
0.937305	1.710755
0.937402	1.709130
0.937500	1.701465
0.937598	1.701156
0.937695	1.682079
0.937793	1.642053
0.937891	1.638617
0.937988	1.632050
0.938086	1.630200
0.938184	1.664396
0.938281	1.706628
0.938379	1.705029
0.938477	1.720124
0.938574	1.705537
0.938672	1.692620
0.938770	1.686713
0.938867	1.678750
0.938965	1.697012
0.939062	1.634035
0.939160	1.664488
0.939258	1.666639
0.939355	1.620419
0.939453	1.680896
0.939551	1.672427
0.939648	1.689068
0.939746	1.710051
0.939844	1.731687
0.939941	1.718942
0.940039	1.670393
0.940137	1.605686
0.940234	1.634293
0.940332	1.628903
0.940430	1.607568
0.940527	1.575155
0.940625	1.532975
0.940723	1.497879
0.940820	1.544994
0.940918	1.618838
0.941016	1.645315
0.941113	1.639110
0.941211	1.576045
0.941309	1.541935
0.941406	1.567132
0.941504	1.552748
0.941602	1.590650
0.941699	1.589624
0.941797	1.597747
0.941895	1.588274
0.941992	1.576927
0.942090	1.596928
0.942187	1.621458
0.942285	1.625838
0.942383	1.591079
0.942480	1.581014
0.942578	1.581288
0.942676	1.585051
0.942773	1.578870
0.942871	1.571997
0.942969	1.572307
0.943066	1.577900
0.943164	1.582548
0.943262	1.588349
0.943359	1.592669
0.943457	1.597778
0.943555	1.601651
0.943652	1.606371
0.943750	1.610023
0.943848	1.614856
0.943945	1.619480
0.944043	1.626534
0.944141	1.634046
0.944238	1.644621
0.944336	1.649958
0.944434	1.654269
0.944531	1.657655
0.944629	1.663115
0.944727	1.667516
0.944824	1.673321
0.944922	1.677255
0.945020	1.681856
0.945117	1.674004
0.945215	1.669672
0.945312	1.661110
0.945410	1.660666
0.945508	1.657698
0.945605	1.684758
0.945703	1.693369
0.945801	1.656064
0.945898	1.673261
0.945996	1.680104
0.946094	1.682952
0.946191	1.685306
0.946289	1.693215
0.946387	1.685903
0.946484	1.691886
0.946582	1.688162
0.946680	1.676514
0.946777	1.673502
0.946875	1.709891
0.946973	1.731025
0.947070	1.721101
0.947168	1.707398
0.947266	1.696316
0.947363	1.686559
0.947461	1.680956
0.947559	1.677457
0.947656	1.689094
0.947754	1.698946
0.947852	1.707550
0.947949	1.720755
0.948047	1.732277
0.948145	1.742710
0.948242	1.680665
0.948340	1.668945
0.948437	1.643644
0.948535	1.665434
0.948633	1.683592
0.948730	1.682312
0.948828	1.686948
0.948926	1.684149
0.949023	1.684616
0.949121	1.684147
0.949219	1.689095
0.949316	1.691875
0.949414	1.698679
0.949512	1.702336
0.949609	1.713609
0.949707	1.718559
0.949805	1.717360
0.949902	1.706348
0.950000	1.735637
0.950098	1.701305
0.950195	1.713277
0.950293	1.702006
0.950391	1.699709
0.950488	1.701493
0.950586	1.693379
0.950684	1.694111
0.950781	1.675657
0.950879	1.660434
0.950977	1.616966
0.951074	1.602462
0.951172	1.598402
0.951270	1.623432
0.951367	1.586219
0.951465	1.607030
0.951562	1.611966
0.951660	1.629837
0.951758	1.663761
0.951855	1.679028
0.951953	1.688846
0.952051	1.710428
0.952148	1.708776
0.952246	1.647786
0.952344	1.629365
0.952441	1.603916
0.952539	1.561481
0.952637	1.531791
0.952734	1.579282
0.952832	1.594111
0.952930	1.614733
0.953027	1.595719
0.953125	1.565034
0.953223	1.539217
0.953320	1.570515
0.953418	1.581603
0.953516	1.608041
0.953613	1.600441
0.953711	1.571861
0.953809	1.570885
0.953906	1.595089
0.954004	1.609887
0.954102	1.627472
0.954199	1.632871
0.954297	1.643862
0.954395	1.661637
0.954492	1.664172
0.954590	1.673775
0.954687	1.667926
0.954785	1.662104
0.954883	1.630855
0.954980	1.654115
0.955078	1.654748
0.955176	1.634302
0.955273	1.639539
0.955371	1.639526
0.955469	1.593500
0.955566	1.554993
0.955664	1.586107
0.955762	1.568308
0.955859	1.529901
0.955957	1.508028
0.956055	1.491554
0.956152	1.557380
0.956250	1.628723
0.956348	1.663756
0.956445	1.632208
0.956543	1.617972
0.956641	1.608276
0.956738	1.576726
0.956836	1.547301
0.956934	1.571012
0.957031	1.585495
0.957129	1.563376
0.957227	1.564983
0.957324	1.576390
0.957422	1.570222
0.957520	1.573755
0.957617	1.618917
0.957715	1.628086
0.957812	1.621998
0.957910	1.623528
0.958008	1.632611
0.958105	1.591527
0.958203	1.601842
0.958301	1.606408
0.958398	1.591678
0.958496	1.645541
0.958594	1.663206
0.958691	1.656093
0.958789	1.627697
0.958887	1.618796
0.958984	1.567249
0.959082	1.605865
0.959180	1.649552
0.959277	1.631271
0.959375	1.660047
0.959473	1.615939
0.959570	1.624325
0.959668	1.614035
0.959766	1.610709
0.959863	1.614752
0.959961	1.643041
0.960059	1.624094
0.960156	1.603919
0.960254	1.571292
0.960352	1.551631
0.960449	1.573154
0.960547	1.589318
0.960645	1.602266
0.960742	1.631794
0.960840	1.629260
0.960937	1.615045
0.961035	1.617302
0.961133	1.616960
0.961230	1.623597
0.961328	1.616916
0.961426	1.608740
0.961523	1.596450
0.961621	1.604872
0.961719	1.630573
0.961816	1.633143
0.961914	1.635065
0.962012	1.636992
0.962109	1.635345
0.962207	1.630961
0.962305	1.635801
0.962402	1.639529
0.962500	1.643705
0.962598	1.651858
0.962695	1.675506
0.962793	1.685069
0.962891	1.679821
0.962988	1.677923
0.963086	1.675466
0.963184	1.683723
0.963281	1.680856
0.963379	1.676211
0.963477	1.680677
0.963574	1.678817
0.963672	1.677740
0.963770	1.676657
0.963867	1.677180
0.963965	1.678518
0.964062	1.681253
0.964160	1.684635
0.964258	1.687787
0.964355	1.690386
0.964453	1.693528
0.964551	1.697570
0.964648	1.702540
0.964746	1.709637
0.964844	1.717081
0.964941	1.724724
0.965039	1.728412
0.965137	1.728167
0.965234	1.726287
0.965332	1.720823
0.965430	1.712704
0.965527	1.662555
0.965625	1.672319
0.965723	1.654085
0.965820	1.696087
0.965918	1.682456
0.966016	1.702129
0.966113	1.709712
0.966211	1.670689
0.966309	1.693338
0.966406	1.692529
0.966504	1.707723
0.966602	1.632607
0.966699	1.651341
0.966797	1.655195
0.966895	1.655962
0.966992	1.634361
0.967090	1.607189
0.967187	1.583192
0.967285	1.585000
0.967383	1.606526
0.967480	1.613516
0.967578	1.633176
0.967676	1.626458
0.967773	1.582878
0.967871	1.681334
0.967969	1.721745
0.968066	1.673894
0.968164	1.639338
0.968262	1.633817
0.968359	1.616091
0.968457	1.666582
0.968555	1.668980
0.968652	1.641046
0.968750	1.633070
0.968848	1.628085
0.968945	1.608855
0.969043	1.650861
0.969141	1.673177
0.969238	1.684348
0.969336	1.660651
0.969434	1.671240
0.969531	1.695601
0.969629	1.656518
0.969727	1.636356
0.969824	1.615666
0.969922	1.610413
0.970020	1.667478
0.970117	1.679470
0.970215	1.638944
0.970312	1.643254
0.970410	1.601179
0.970508	1.622799
0.970605	1.651585
0.970703	1.652442
0.970801	1.611507
0.970898	1.586016
0.970996	1.603062
0.971094	1.596618
0.971191	1.593479
0.971289	1.630218
0.971387	1.660964
0.971484	1.657559
0.971582	1.645736
0.971680	1.633363
0.971777	1.611376
0.971875	1.549836
0.971973	1.546342
0.972070	1.601813
0.972168	1.601519
0.972266	1.531548
0.972363	1.507934
0.972461	1.558656
0.972559	1.504145
0.972656	1.430130
0.972754	1.432369
0.972852	1.434344
0.972949	1.448006
0.973047	1.439161
0.973145	1.421634
0.973242	1.417563
0.973340	1.455857
0.973437	1.435563
0.973535	1.472702
0.973633	1.512881
0.973730	1.551040
0.973828	1.580880
0.973926	1.555879
0.974023	1.546633
0.974121	1.468832
0.974219	1.388876
0.974316	1.362842
0.974414	1.342756
0.974512	1.322375
0.974609	1.311381
0.974707	1.368085
0.974805	1.418965
0.974902	1.427785
0.975000	1.442994
0.975098	1.467395
0.975195	1.537365
0.975293	1.574643
0.975391	1.571579
0.975488	1.607517
0.975586	1.595288
0.975684	1.595741
0.975781	1.620335
0.975879	1.613323
0.975977	1.588018
0.976074	1.602513
0.976172	1.599886
0.976270	1.611461
0.976367	1.616492
0.976465	1.628872

