LabVIEW Measurement	
Writer_Version	2
Reader_Version	2
Separator	Tab
Decimal_Separator	.
Multi_Headings	Yes
X_Columns	One
Time_Pref	Absolute
Operator	W-Tunnel
Date	1904/01/01
Time	01:00:00
***End_of_Header***	
	
Channels	1	
Samples	10000	
Date	2024/05/17	
Time	18:32:28.9060456562495432581	
Y_Unit_Label	Volts	
X_Dimension	Time	
X0	0.0000000000000000E+0	
Delta_X	9.765625E-5	
***End_of_Header***		
X_Value	Voltage	Comment
0.000000	1.376258
9.765625E-5	1.414203
0.000195	1.411286
0.000293	1.392090
0.000391	1.378779
0.000488	1.368861
0.000586	1.410453
0.000684	1.466087
0.000781	1.464418
0.000879	1.486746
0.000977	1.430662
0.001074	1.396785
0.001172	1.377788
0.001270	1.361796
0.001367	1.353296
0.001465	1.340472
0.001562	1.322025
0.001660	1.301747
0.001758	1.287152
0.001855	1.282755
0.001953	1.303407
0.002051	1.381822
0.002148	1.432092
0.002246	1.451150
0.002344	1.471643
0.002441	1.465999
0.002539	1.439101
0.002637	1.409519
0.002734	1.394604
0.002832	1.376664
0.002930	1.403690
0.003027	1.425194
0.003125	1.418143
0.003223	1.435932
0.003320	1.449486
0.003418	1.442335
0.003516	1.428014
0.003613	1.405365
0.003711	1.368124
0.003809	1.349913
0.003906	1.356189
0.004004	1.361001
0.004102	1.358635
0.004199	1.350466
0.004297	1.336194
0.004395	1.321806
0.004492	1.308629
0.004590	1.299884
0.004687	1.304219
0.004785	1.321521
0.004883	1.335330
0.004980	1.337713
0.005078	1.335335
0.005176	1.327820
0.005273	1.317338
0.005371	1.304496
0.005469	1.290731
0.005566	1.277262
0.005664	1.266819
0.005762	1.258108
0.005859	1.254379
0.005957	1.259984
0.006055	1.272173
0.006152	1.286219
0.006250	1.296366
0.006348	1.305913
0.006445	1.330351
0.006543	1.359254
0.006641	1.365790
0.006738	1.361006
0.006836	1.360484
0.006934	1.360840
0.007031	1.364932
0.007129	1.372510
0.007227	1.376364
0.007324	1.368567
0.007422	1.359085
0.007520	1.362669
0.007617	1.377343
0.007715	1.394843
0.007812	1.405821
0.007910	1.427924
0.008008	1.462312
0.008105	1.474714
0.008203	1.486632
0.008301	1.478203
0.008398	1.458792
0.008496	1.444644
0.008594	1.427279
0.008691	1.425187
0.008789	1.431158
0.008887	1.436115
0.008984	1.443103
0.009082	1.469065
0.009180	1.488221
0.009277	1.488913
0.009375	1.505680
0.009473	1.517819
0.009570	1.523495
0.009668	1.508405
0.009766	1.487601
0.009863	1.453860
0.009961	1.442748
0.010059	1.437668
0.010156	1.429211
0.010254	1.409957
0.010352	1.371532
0.010449	1.335165
0.010547	1.309792
0.010645	1.300794
0.010742	1.309759
0.010840	1.326914
0.010937	1.336523
0.011035	1.339429
0.011133	1.337819
0.011230	1.331793
0.011328	1.323185
0.011426	1.315273
0.011523	1.306954
0.011621	1.296199
0.011719	1.285100
0.011816	1.282579
0.011914	1.291908
0.012012	1.303646
0.012109	1.311437
0.012207	1.317175
0.012305	1.320049
0.012402	1.327268
0.012500	1.329612
0.012598	1.319767
0.012695	1.305820
0.012793	1.301476
0.012891	1.317468
0.012988	1.346553
0.013086	1.375228
0.013184	1.388591
0.013281	1.391455
0.013379	1.389762
0.013477	1.387727
0.013574	1.391397
0.013672	1.398178
0.013770	1.401757
0.013867	1.396525
0.013965	1.392870
0.014062	1.395598
0.014160	1.398515
0.014258	1.398753
0.014355	1.397327
0.014453	1.398397
0.014551	1.401488
0.014648	1.405422
0.014746	1.408083
0.014844	1.413334
0.014941	1.426534
0.015039	1.440265
0.015137	1.444940
0.015234	1.440322
0.015332	1.432352
0.015430	1.414047
0.015527	1.379633
0.015625	1.356768
0.015723	1.352840
0.015820	1.365488
0.015918	1.391095
0.016016	1.381770
0.016113	1.366296
0.016211	1.368300
0.016309	1.368439
0.016406	1.366750
0.016504	1.375867
0.016602	1.369833
0.016699	1.345445
0.016797	1.349654
0.016895	1.363850
0.016992	1.381828
0.017090	1.398019
0.017187	1.392989
0.017285	1.385797
0.017383	1.377111
0.017480	1.395462
0.017578	1.422418
0.017676	1.449747
0.017773	1.454360
0.017871	1.433197
0.017969	1.408438
0.018066	1.427109
0.018164	1.448481
0.018262	1.477408
0.018359	1.494417
0.018457	1.477559
0.018555	1.460450
0.018652	1.446630
0.018750	1.441390
0.018848	1.438488
0.018945	1.434673
0.019043	1.429343
0.019141	1.425003
0.019238	1.420593
0.019336	1.416264
0.019434	1.412128
0.019531	1.408764
0.019629	1.401137
0.019727	1.387886
0.019824	1.375439
0.019922	1.372662
0.020020	1.380404
0.020117	1.383535
0.020215	1.392066
0.020312	1.412418
0.020410	1.434936
0.020508	1.451444
0.020605	1.454818
0.020703	1.478444
0.020801	1.494475
0.020898	1.489866
0.020996	1.484847
0.021094	1.487835
0.021191	1.495206
0.021289	1.502984
0.021387	1.509673
0.021484	1.514061
0.021582	1.506663
0.021680	1.484894
0.021777	1.480653
0.021875	1.475386
0.021973	1.455425
0.022070	1.465891
0.022168	1.477227
0.022266	1.507154
0.022363	1.493821
0.022461	1.474106
0.022559	1.492001
0.022656	1.506774
0.022754	1.515155
0.022852	1.508405
0.022949	1.490209
0.023047	1.471722
0.023145	1.465117
0.023242	1.445790
0.023340	1.429704
0.023437	1.420806
0.023535	1.411164
0.023633	1.405426
0.023730	1.395870
0.023828	1.392796
0.023926	1.387493
0.024023	1.409571
0.024121	1.424543
0.024219	1.443329
0.024316	1.461100
0.024414	1.444985
0.024512	1.431074
0.024609	1.440264
0.024707	1.444894
0.024805	1.429481
0.024902	1.421784
0.025000	1.406479
0.025098	1.382119
0.025195	1.345772
0.025293	1.306093
0.025391	1.274490
0.025488	1.284353
0.025586	1.312474
0.025684	1.368517
0.025781	1.415333
0.025879	1.466494
0.025977	1.487639
0.026074	1.500391
0.026172	1.533521
0.026270	1.537492
0.026367	1.515345
0.026465	1.485754
0.026562	1.458209
0.026660	1.427356
0.026758	1.395651
0.026855	1.370356
0.026953	1.356201
0.027051	1.344897
0.027148	1.335882
0.027246	1.323225
0.027344	1.321768
0.027441	1.325405
0.027539	1.315670
0.027637	1.299885
0.027734	1.279731
0.027832	1.270883
0.027930	1.274543
0.028027	1.279947
0.028125	1.280556
0.028223	1.275972
0.028320	1.268067
0.028418	1.263964
0.028516	1.264773
0.028613	1.265672
0.028711	1.269296
0.028809	1.277271
0.028906	1.287348
0.029004	1.296423
0.029102	1.303613
0.029199	1.311124
0.029297	1.319670
0.029395	1.327311
0.029492	1.332245
0.029590	1.333266
0.029687	1.330521
0.029785	1.325565
0.029883	1.320224
0.029980	1.317990
0.030078	1.321040
0.030176	1.329172
0.030273	1.336975
0.030371	1.339887
0.030469	1.341456
0.030566	1.346055
0.030664	1.351667
0.030762	1.358186
0.030859	1.368171
0.030957	1.380970
0.031055	1.391824
0.031152	1.396629
0.031250	1.396824
0.031348	1.411269
0.031445	1.445963
0.031543	1.461180
0.031641	1.462905
0.031738	1.458027
0.031836	1.444331
0.031934	1.423524
0.032031	1.399659
0.032129	1.374671
0.032227	1.371319
0.032324	1.372209
0.032422	1.373443
0.032520	1.377269
0.032617	1.377811
0.032715	1.371260
0.032812	1.370593
0.032910	1.367694
0.033008	1.352956
0.033105	1.333791
0.033203	1.314473
0.033301	1.301614
0.033398	1.290748
0.033496	1.289098
0.033594	1.309275
0.033691	1.336758
0.033789	1.346135
0.033887	1.348111
0.033984	1.333144
0.034082	1.324722
0.034180	1.388879
0.034277	1.473576
0.034375	1.491647
0.034473	1.470712
0.034570	1.389268
0.034668	1.387764
0.034766	1.437433
0.034863	1.461445
0.034961	1.509944
0.035059	1.504200
0.035156	1.506345
0.035254	1.510614
0.035352	1.530885
0.035449	1.528516
0.035547	1.504626
0.035645	1.491944
0.035742	1.485303
0.035840	1.474466
0.035937	1.466838
0.036035	1.455046
0.036133	1.447854
0.036230	1.440614
0.036328	1.431917
0.036426	1.427395
0.036523	1.416710
0.036621	1.397361
0.036719	1.380668
0.036816	1.361802
0.036914	1.331884
0.037012	1.295666
0.037109	1.266866
0.037207	1.260355
0.037305	1.269980
0.037402	1.274491
0.037500	1.267642
0.037598	1.265533
0.037695	1.284132
0.037793	1.311692
0.037891	1.326281
0.037988	1.327894
0.038086	1.325799
0.038184	1.326261
0.038281	1.335754
0.038379	1.351700
0.038477	1.363481
0.038574	1.366815
0.038672	1.368156
0.038770	1.372770
0.038867	1.380451
0.038965	1.385519
0.039062	1.385308
0.039160	1.385938
0.039258	1.382050
0.039355	1.377038
0.039453	1.374030
0.039551	1.369342
0.039648	1.360965
0.039746	1.346451
0.039844	1.323275
0.039941	1.311055
0.040039	1.325091
0.040137	1.339226
0.040234	1.345434
0.040332	1.349083
0.040430	1.353128
0.040527	1.359858
0.040625	1.369566
0.040723	1.382586
0.040820	1.397466
0.040918	1.409632
0.041016	1.416215
0.041113	1.419664
0.041211	1.420527
0.041309	1.417215
0.041406	1.409799
0.041504	1.404230
0.041602	1.406751
0.041699	1.420185
0.041797	1.433725
0.041895	1.449005
0.041992	1.456696
0.042090	1.483817
0.042187	1.506414
0.042285	1.512346
0.042383	1.519124
0.042480	1.518582
0.042578	1.505542
0.042676	1.482033
0.042773	1.475099
0.042871	1.480082
0.042969	1.509842
0.043066	1.541738
0.043164	1.546949
0.043262	1.552897
0.043359	1.566255
0.043457	1.568481
0.043555	1.552769
0.043652	1.530622
0.043750	1.534733
0.043848	1.539158
0.043945	1.528558
0.044043	1.505466
0.044141	1.512112
0.044238	1.525012
0.044336	1.543168
0.044434	1.562330
0.044531	1.558894
0.044629	1.555566
0.044727	1.550837
0.044824	1.540525
0.044922	1.528814
0.045020	1.513063
0.045117	1.500575
0.045215	1.494325
0.045312	1.478407
0.045410	1.460959
0.045508	1.462567
0.045605	1.472109
0.045703	1.488257
0.045801	1.479274
0.045898	1.467419
0.045996	1.470962
0.046094	1.462682
0.046191	1.447520
0.046289	1.446538
0.046387	1.454409
0.046484	1.449351
0.046582	1.456013
0.046680	1.457806
0.046777	1.449218
0.046875	1.452845
0.046973	1.462949
0.047070	1.483467
0.047168	1.493030
0.047266	1.486446
0.047363	1.476149
0.047461	1.468201
0.047559	1.455464
0.047656	1.442556
0.047754	1.426623
0.047852	1.418490
0.047949	1.430803
0.048047	1.434926
0.048145	1.428888
0.048242	1.416783
0.048340	1.407210
0.048437	1.397914
0.048535	1.392567
0.048633	1.384646
0.048730	1.380641
0.048828	1.382347
0.048926	1.381910
0.049023	1.375429
0.049121	1.363708
0.049219	1.351266
0.049316	1.341575
0.049414	1.335974
0.049512	1.334116
0.049609	1.337376
0.049707	1.347549
0.049805	1.362871
0.049902	1.378217
0.050000	1.389491
0.050098	1.398064
0.050195	1.404189
0.050293	1.412880
0.050391	1.427700
0.050488	1.433581
0.050586	1.426378
0.050684	1.412268
0.050781	1.404163
0.050879	1.400603
0.050977	1.398083
0.051074	1.395315
0.051172	1.393258
0.051270	1.390063
0.051367	1.385162
0.051465	1.379106
0.051562	1.372908
0.051660	1.366004
0.051758	1.356763
0.051855	1.344477
0.051953	1.330705
0.052051	1.315318
0.052148	1.303517
0.052246	1.297816
0.052344	1.292794
0.052441	1.286009
0.052539	1.278015
0.052637	1.271055
0.052734	1.267229
0.052832	1.266631
0.052930	1.266681
0.053027	1.264710
0.053125	1.259961
0.053223	1.253782
0.053320	1.247712
0.053418	1.243684
0.053516	1.244481
0.053613	1.253269
0.053711	1.271632
0.053809	1.296936
0.053906	1.321191
0.054004	1.338461
0.054102	1.352102
0.054199	1.364673
0.054297	1.375149
0.054395	1.389152
0.054492	1.402451
0.054590	1.414937
0.054687	1.424138
0.054785	1.424088
0.054883	1.419183
0.054980	1.413320
0.055078	1.409745
0.055176	1.406350
0.055273	1.402524
0.055371	1.401306
0.055469	1.400619
0.055566	1.402136
0.055664	1.415632
0.055762	1.426075
0.055859	1.442186
0.055957	1.457532
0.056055	1.463986
0.056152	1.467206
0.056250	1.450500
0.056348	1.449060
0.056445	1.446090
0.056543	1.433961
0.056641	1.409743
0.056738	1.385135
0.056836	1.354081
0.056934	1.316777
0.057031	1.305831
0.057129	1.371687
0.057227	1.445563
0.057324	1.434434
0.057422	1.413561
0.057520	1.390747
0.057617	1.360898
0.057715	1.312107
0.057812	1.284572
0.057910	1.319725
0.058008	1.371904
0.058105	1.417690
0.058203	1.439320
0.058301	1.436569
0.058398	1.427906
0.058496	1.425351
0.058594	1.428197
0.058691	1.429287
0.058789	1.428748
0.058887	1.424540
0.058984	1.416882
0.059082	1.406835
0.059180	1.400124
0.059277	1.391400
0.059375	1.374809
0.059473	1.356786
0.059570	1.339028
0.059668	1.329104
0.059766	1.331900
0.059863	1.341011
0.059961	1.347384
0.060059	1.351222
0.060156	1.349341
0.060254	1.338877
0.060352	1.324866
0.060449	1.306743
0.060547	1.289785
0.060645	1.286380
0.060742	1.289469
0.060840	1.292223
0.060937	1.296070
0.061035	1.297130
0.061133	1.295713
0.061230	1.294536
0.061328	1.294876
0.061426	1.296623
0.061523	1.300161
0.061621	1.305504
0.061719	1.313837
0.061816	1.324323
0.061914	1.338270
0.062012	1.355953
0.062109	1.374292
0.062207	1.380128
0.062305	1.374760
0.062402	1.366345
0.062500	1.357159
0.062598	1.347082
0.062695	1.332538
0.062793	1.314155
0.062891	1.292322
0.062988	1.269682
0.063086	1.249096
0.063184	1.236320
0.063281	1.237458
0.063379	1.251474
0.063477	1.266162
0.063574	1.276461
0.063672	1.283912
0.063770	1.294566
0.063867	1.313996
0.063965	1.349689
0.064062	1.372875
0.064160	1.368070
0.064258	1.356702
0.064355	1.349189
0.064453	1.345216
0.064551	1.340147
0.064648	1.332797
0.064746	1.323987
0.064844	1.316683
0.064941	1.311681
0.065039	1.308923
0.065137	1.306863
0.065234	1.303688
0.065332	1.297257
0.065430	1.292543
0.065527	1.299187
0.065625	1.317212
0.065723	1.343260
0.065820	1.371706
0.065918	1.390540
0.066016	1.400706
0.066113	1.409658
0.066211	1.415915
0.066309	1.419572
0.066406	1.417830
0.066504	1.409645
0.066602	1.402989
0.066699	1.402485
0.066797	1.404555
0.066895	1.406427
0.066992	1.412023
0.067090	1.413357
0.067187	1.416418
0.067285	1.416942
0.067383	1.400720
0.067480	1.397666
0.067578	1.392277
0.067676	1.382156
0.067773	1.368245
0.067871	1.353914
0.067969	1.345639
0.068066	1.349596
0.068164	1.365076
0.068262	1.390738
0.068359	1.384219
0.068457	1.359478
0.068555	1.335812
0.068652	1.323160
0.068750	1.317683
0.068848	1.305248
0.068945	1.289604
0.069043	1.271480
0.069141	1.273040
0.069238	1.311384
0.069336	1.349456
0.069434	1.363778
0.069531	1.371168
0.069629	1.357391
0.069727	1.341540
0.069824	1.331807
0.069922	1.314714
0.070020	1.296466
0.070117	1.274974
0.070215	1.253426
0.070312	1.236066
0.070410	1.226391
0.070508	1.221556
0.070605	1.217172
0.070703	1.210196
0.070801	1.204066
0.070898	1.206203
0.070996	1.221021
0.071094	1.243467
0.071191	1.267319
0.071289	1.289549
0.071387	1.308859
0.071484	1.327081
0.071582	1.340452
0.071680	1.342431
0.071777	1.337415
0.071875	1.329335
0.071973	1.320761
0.072070	1.313429
0.072168	1.308216
0.072266	1.305524
0.072363	1.306069
0.072461	1.307749
0.072559	1.305486
0.072656	1.299278
0.072754	1.292734
0.072852	1.285964
0.072949	1.276751
0.073047	1.264219
0.073145	1.249912
0.073242	1.235428
0.073340	1.221712
0.073437	1.209541
0.073535	1.199657
0.073633	1.192922
0.073730	1.190427
0.073828	1.192802
0.073926	1.200090
0.074023	1.211411
0.074121	1.223686
0.074219	1.233986
0.074316	1.240700
0.074414	1.243590
0.074512	1.242920
0.074609	1.239431
0.074707	1.234859
0.074805	1.231730
0.074902	1.234922
0.075000	1.245912
0.075098	1.263008
0.075195	1.281190
0.075293	1.297554
0.075391	1.311274
0.075488	1.324998
0.075586	1.339974
0.075684	1.357662
0.075781	1.376379
0.075879	1.396114
0.075977	1.414412
0.076074	1.431345
0.076172	1.441989
0.076270	1.439329
0.076367	1.417370
0.076465	1.377790
0.076562	1.332132
0.076660	1.348332
0.076758	1.406505
0.076855	1.412816
0.076953	1.394922
0.077051	1.372048
0.077148	1.400484
0.077246	1.446939
0.077344	1.463395
0.077441	1.440940
0.077539	1.388856
0.077637	1.337861
0.077734	1.331476
0.077832	1.355498
0.077930	1.397507
0.078027	1.429845
0.078125	1.438692
0.078223	1.445740
0.078320	1.465052
0.078418	1.490940
0.078516	1.494458
0.078613	1.496326
0.078711	1.554347
0.078809	1.559500
0.078906	1.546730
0.079004	1.540763
0.079102	1.496877
0.079199	1.496720
0.079297	1.502768
0.079395	1.512101
0.079492	1.503469
0.079590	1.501612
0.079687	1.514470
0.079785	1.489722
0.079883	1.466349
0.079980	1.466535
0.080078	1.486702
0.080176	1.508728
0.080273	1.506970
0.080371	1.505205
0.080469	1.505414
0.080566	1.499661
0.080664	1.490524
0.080762	1.487691
0.080859	1.492047
0.080957	1.490931
0.081055	1.475471
0.081152	1.468145
0.081250	1.458165
0.081348	1.441420
0.081445	1.433859
0.081543	1.419431
0.081641	1.407703
0.081738	1.408348
0.081836	1.405148
0.081934	1.388748
0.082031	1.385654
0.082129	1.411898
0.082227	1.432737
0.082324	1.425451
0.082422	1.402283
0.082520	1.376210
0.082617	1.353662
0.082715	1.340840
0.082812	1.339518
0.082910	1.344873
0.083008	1.354233
0.083105	1.364768
0.083203	1.371047
0.083301	1.365900
0.083398	1.382647
0.083496	1.424154
0.083594	1.447537
0.083691	1.448387
0.083789	1.469598
0.083887	1.490419
0.083984	1.484223
0.084082	1.462226
0.084180	1.440334
0.084277	1.425890
0.084375	1.419815
0.084473	1.418691
0.084570	1.428399
0.084668	1.410862
0.084766	1.380419
0.084863	1.380603
0.084961	1.383521
0.085059	1.385349
0.085156	1.388147
0.085254	1.395606
0.085352	1.420540
0.085449	1.423782
0.085547	1.415096
0.085645	1.426097
0.085742	1.427745
0.085840	1.430053
0.085937	1.423253
0.086035	1.416664
0.086133	1.419165
0.086230	1.434351
0.086328	1.430771
0.086426	1.423120
0.086523	1.423845
0.086621	1.427178
0.086719	1.429163
0.086816	1.445045
0.086914	1.463381
0.087012	1.457874
0.087109	1.449923
0.087207	1.445714
0.087305	1.450474
0.087402	1.444191
0.087500	1.445384
0.087598	1.455134
0.087695	1.457705
0.087793	1.450902
0.087891	1.447731
0.087988	1.432885
0.088086	1.404397
0.088184	1.406056
0.088281	1.419294
0.088379	1.425019
0.088477	1.423970
0.088574	1.435084
0.088672	1.452491
0.088770	1.494860
0.088867	1.509784
0.088965	1.489064
0.089062	1.481405
0.089160	1.490602
0.089258	1.520538
0.089355	1.539456
0.089453	1.542730
0.089551	1.536318
0.089648	1.515346
0.089746	1.499091
0.089844	1.495580
0.089941	1.491169
0.090039	1.474588
0.090137	1.447070
0.090234	1.408738
0.090332	1.401970
0.090430	1.424495
0.090527	1.456967
0.090625	1.482912
0.090723	1.494326
0.090820	1.503623
0.090918	1.487016
0.091016	1.496716
0.091113	1.493909
0.091211	1.502199
0.091309	1.541330
0.091406	1.542865
0.091504	1.534181
0.091602	1.503085
0.091699	1.490583
0.091797	1.510867
0.091895	1.547849
0.091992	1.577073
0.092090	1.561283
0.092187	1.545292
0.092285	1.533420
0.092383	1.535343
0.092480	1.528205
0.092578	1.510822
0.092676	1.507805
0.092773	1.519658
0.092871	1.529295
0.092969	1.526674
0.093066	1.545475
0.093164	1.531682
0.093262	1.523168
0.093359	1.547530
0.093457	1.547541
0.093555	1.545762
0.093652	1.538437
0.093750	1.509692
0.093848	1.497698
0.093945	1.526217
0.094043	1.539931
0.094141	1.546536
0.094238	1.546927
0.094336	1.540518
0.094434	1.526140
0.094531	1.499492
0.094629	1.483697
0.094727	1.490037
0.094824	1.502535
0.094922	1.500352
0.095020	1.500772
0.095117	1.498657
0.095215	1.486912
0.095312	1.471236
0.095410	1.448104
0.095508	1.442171
0.095605	1.448771
0.095703	1.445779
0.095801	1.437782
0.095898	1.430183
0.095996	1.416236
0.096094	1.397409
0.096191	1.380306
0.096289	1.368195
0.096387	1.361452
0.096484	1.358775
0.096582	1.356305
0.096680	1.351498
0.096777	1.343549
0.096875	1.333957
0.096973	1.323278
0.097070	1.312016
0.097168	1.300224
0.097266	1.287967
0.097363	1.275977
0.097461	1.265314
0.097559	1.257643
0.097656	1.253979
0.097754	1.255157
0.097852	1.260048
0.097949	1.266630
0.098047	1.272540
0.098145	1.274139
0.098242	1.267645
0.098340	1.257595
0.098437	1.249410
0.098535	1.243642
0.098633	1.240620
0.098730	1.241215
0.098828	1.248205
0.098926	1.262340
0.099023	1.280265
0.099121	1.298502
0.099219	1.313427
0.099316	1.322753
0.099414	1.329281
0.099512	1.334866
0.099609	1.337889
0.099707	1.336685
0.099805	1.331177
0.099902	1.324481
0.100000	1.322458
0.100098	1.330223
0.100195	1.350317
0.100293	1.379575
0.100391	1.401889
0.100488	1.417882
0.100586	1.441140
0.100684	1.456098
0.100781	1.465111
0.100879	1.476918
0.100977	1.478925
0.101074	1.468972
0.101172	1.458893
0.101270	1.455100
0.101367	1.447157
0.101465	1.436062
0.101562	1.425995
0.101660	1.426595
0.101758	1.427907
0.101855	1.437208
0.101953	1.441133
0.102051	1.436018
0.102148	1.446731
0.102246	1.455303
0.102344	1.458194
0.102441	1.447698
0.102539	1.425892
0.102637	1.404205
0.102734	1.365758
0.102832	1.328337
0.102930	1.323369
0.103027	1.341538
0.103125	1.344609
0.103223	1.353681
0.103320	1.413355
0.103418	1.457988
0.103516	1.446285
0.103613	1.430983
0.103711	1.450369
0.103809	1.475182
0.103906	1.513329
0.104004	1.504552
0.104102	1.492300
0.104199	1.477558
0.104297	1.446621
0.104395	1.436798
0.104492	1.453204
0.104590	1.470046
0.104687	1.472042
0.104785	1.464109
0.104883	1.450637
0.104980	1.458366
0.105078	1.467657
0.105176	1.472279
0.105273	1.492652
0.105371	1.524882
0.105469	1.540499
0.105566	1.541609
0.105664	1.536770
0.105762	1.536761
0.105859	1.529957
0.105957	1.516937
0.106055	1.514936
0.106152	1.526389
0.106250	1.545556
0.106348	1.535911
0.106445	1.521508
0.106543	1.523749
0.106641	1.530591
0.106738	1.521507
0.106836	1.505490
0.106934	1.500307
0.107031	1.487169
0.107129	1.474123
0.107227	1.458965
0.107324	1.444493
0.107422	1.433883
0.107520	1.398346
0.107617	1.382686
0.107715	1.396151
0.107812	1.402017
0.107910	1.406881
0.108008	1.416989
0.108105	1.420637
0.108203	1.425980
0.108301	1.430110
0.108398	1.435587
0.108496	1.439935
0.108594	1.434527
0.108691	1.414253
0.108789	1.408227
0.108887	1.383588
0.108984	1.348009
0.109082	1.338338
0.109180	1.329991
0.109277	1.319182
0.109375	1.308395
0.109473	1.299436
0.109570	1.290559
0.109668	1.271763
0.109766	1.276029
0.109863	1.313980
0.109961	1.346424
0.110059	1.374338
0.110156	1.392386
0.110254	1.403008
0.110352	1.409648
0.110449	1.414331
0.110547	1.415391
0.110645	1.412850
0.110742	1.405735
0.110840	1.397398
0.110937	1.390550
0.111035	1.385917
0.111133	1.383471
0.111230	1.382531
0.111328	1.382074
0.111426	1.382503
0.111523	1.383513
0.111621	1.385257
0.111719	1.386911
0.111816	1.387179
0.111914	1.385358
0.112012	1.381401
0.112109	1.376476
0.112207	1.371975
0.112305	1.370264
0.112402	1.372036
0.112500	1.374065
0.112598	1.373792
0.112695	1.371191
0.112793	1.362194
0.112891	1.345837
0.112988	1.326017
0.113086	1.305417
0.113184	1.291287
0.113281	1.284056
0.113379	1.274028
0.113477	1.259007
0.113574	1.245163
0.113672	1.243377
0.113770	1.272380
0.113867	1.328018
0.113965	1.355183
0.114062	1.351111
0.114160	1.346372
0.114258	1.358870
0.114355	1.384405
0.114453	1.404717
0.114551	1.407776
0.114648	1.404897
0.114746	1.398526
0.114844	1.395456
0.114941	1.392957
0.115039	1.392043
0.115137	1.392732
0.115234	1.397906
0.115332	1.396477
0.115430	1.409977
0.115527	1.395956
0.115625	1.408305
0.115723	1.433961
0.115820	1.423674
0.115918	1.410651
0.116016	1.395524
0.116113	1.395711
0.116211	1.409630
0.116309	1.418306
0.116406	1.431064
0.116504	1.453293
0.116602	1.481881
0.116699	1.497013
0.116797	1.500200
0.116895	1.516776
0.116992	1.483964
0.117090	1.494685
0.117187	1.501392
0.117285	1.506491
0.117383	1.485756
0.117480	1.454816
0.117578	1.422434
0.117676	1.388877
0.117773	1.368162
0.117871	1.347381
0.117969	1.325526
0.118066	1.309625
0.118164	1.327078
0.118262	1.342389
0.118359	1.352967
0.118457	1.365211
0.118555	1.354434
0.118652	1.346823
0.118750	1.351251
0.118848	1.347436
0.118945	1.330140
0.119043	1.312995
0.119141	1.284364
0.119238	1.278084
0.119336	1.311528
0.119434	1.368078
0.119531	1.426063
0.119629	1.455832
0.119727	1.459972
0.119824	1.443481
0.119922	1.430464
0.120020	1.424918
0.120117	1.421709
0.120215	1.419915
0.120312	1.421172
0.120410	1.424809
0.120508	1.424555
0.120605	1.422256
0.120703	1.414470
0.120801	1.398573
0.120898	1.384391
0.120996	1.376560
0.121094	1.376303
0.121191	1.376549
0.121289	1.390401
0.121387	1.403850
0.121484	1.390105
0.121582	1.372664
0.121680	1.361195
0.121777	1.371526
0.121875	1.387819
0.121973	1.401817
0.122070	1.414136
0.122168	1.404928
0.122266	1.402623
0.122363	1.403420
0.122461	1.414411
0.122559	1.434619
0.122656	1.426625
0.122754	1.403732
0.122852	1.386853
0.122949	1.388128
0.123047	1.395946
0.123145	1.404825
0.123242	1.398782
0.123340	1.389557
0.123437	1.384363
0.123535	1.384764
0.123633	1.366572
0.123730	1.363321
0.123828	1.397309
0.123926	1.425420
0.124023	1.440444
0.124121	1.448406
0.124219	1.459109
0.124316	1.473111
0.124414	1.484728
0.124512	1.496651
0.124609	1.489931
0.124707	1.468687
0.124805	1.464318
0.124902	1.468473
0.125000	1.477035
0.125098	1.474837
0.125195	1.461897
0.125293	1.455574
0.125391	1.460620
0.125488	1.466404
0.125586	1.471857
0.125684	1.475894
0.125781	1.473290
0.125879	1.460654
0.125977	1.439199
0.126074	1.419665
0.126172	1.404251
0.126270	1.394913
0.126367	1.394381
0.126465	1.399421
0.126562	1.403053
0.126660	1.403401
0.126758	1.408238
0.126855	1.413885
0.126953	1.416042
0.127051	1.411460
0.127148	1.391407
0.127246	1.353091
0.127344	1.337445
0.127441	1.363756
0.127539	1.392280
0.127637	1.390308
0.127734	1.364023
0.127832	1.321018
0.127930	1.287577
0.128027	1.301917
0.128125	1.321381
0.128223	1.331152
0.128320	1.388867
0.128418	1.406776
0.128516	1.385122
0.128613	1.332704
0.128711	1.326230
0.128809	1.399078
0.128906	1.381583
0.129004	1.346113
0.129102	1.333472
0.129199	1.364914
0.129297	1.369556
0.129395	1.345555
0.129492	1.346862
0.129590	1.383060
0.129687	1.377948
0.129785	1.348302
0.129883	1.319506
0.129980	1.297519
0.130078	1.283695
0.130176	1.285140
0.130273	1.313317
0.130371	1.364306
0.130469	1.391245
0.130566	1.381949
0.130664	1.352393
0.130762	1.324981
0.130859	1.321055
0.130957	1.343256
0.131055	1.365209
0.131152	1.391838
0.131250	1.409109
0.131348	1.414360
0.131445	1.417144
0.131543	1.413530
0.131641	1.403171
0.131738	1.381182
0.131836	1.351095
0.131934	1.352861
0.132031	1.393388
0.132129	1.406624
0.132227	1.374407
0.132324	1.364335
0.132422	1.375372
0.132520	1.381762
0.132617	1.384733
0.132715	1.397721
0.132812	1.404150
0.132910	1.392632
0.133008	1.333564
0.133105	1.296952
0.133203	1.314837
0.133301	1.342021
0.133398	1.405809
0.133496	1.436070
0.133594	1.415934
0.133691	1.359182
0.133789	1.307263
0.133887	1.283096
0.133984	1.297309
0.134082	1.328591
0.134180	1.381978
0.134277	1.403598
0.134375	1.442464
0.134473	1.475564
0.134570	1.477422
0.134668	1.462512
0.134766	1.452515
0.134863	1.460530
0.134961	1.471607
0.135059	1.483874
0.135156	1.482961
0.135254	1.478988
0.135352	1.473936
0.135449	1.473939
0.135547	1.472627
0.135645	1.466698
0.135742	1.461494
0.135840	1.460593
0.135937	1.458128
0.136035	1.453811
0.136133	1.443812
0.136230	1.432277
0.136328	1.421058
0.136426	1.414804
0.136523	1.427286
0.136621	1.437316
0.136719	1.442768
0.136816	1.454925
0.136914	1.465196
0.137012	1.469103
0.137109	1.462406
0.137207	1.452609
0.137305	1.437858
0.137402	1.413589
0.137500	1.403645
0.137598	1.407836
0.137695	1.428970
0.137793	1.448637
0.137891	1.447584
0.137988	1.428732
0.138086	1.419428
0.138184	1.419300
0.138281	1.430873
0.138379	1.453418
0.138477	1.462825
0.138574	1.462823
0.138672	1.461385
0.138770	1.456116
0.138867	1.445669
0.138965	1.446572
0.139062	1.450309
0.139160	1.443522
0.139258	1.437826
0.139355	1.460716
0.139453	1.447646
0.139551	1.402311
0.139648	1.365945
0.139746	1.369373
0.139844	1.322703
0.139941	1.287472
0.140039	1.330593
0.140137	1.365239
0.140234	1.393888
0.140332	1.408138
0.140430	1.409619
0.140527	1.395831
0.140625	1.375980
0.140723	1.345079
0.140820	1.306588
0.140918	1.271240
0.141016	1.250965
0.141113	1.245610
0.141211	1.258688
0.141309	1.294655
0.141406	1.342545
0.141504	1.380394
0.141602	1.400544
0.141699	1.389193
0.141797	1.418571
0.141895	1.453580
0.141992	1.464427
0.142090	1.472913
0.142187	1.465217
0.142285	1.444265
0.142383	1.417648
0.142480	1.407943
0.142578	1.409353
0.142676	1.428759
0.142773	1.455649
0.142871	1.464714
0.142969	1.453436
0.143066	1.440184
0.143164	1.440021
0.143262	1.438459
0.143359	1.435525
0.143457	1.445079
0.143555	1.431400
0.143652	1.393082
0.143750	1.374920
0.143848	1.395717
0.143945	1.420545
0.144043	1.421020
0.144141	1.411533
0.144238	1.420709
0.144336	1.429243
0.144434	1.444104
0.144531	1.459311
0.144629	1.465706
0.144727	1.454647
0.144824	1.449534
0.144922	1.447608
0.145020	1.435801
0.145117	1.439277
0.145215	1.449714
0.145312	1.443127
0.145410	1.426914
0.145508	1.409347
0.145605	1.393122
0.145703	1.398363
0.145801	1.401741
0.145898	1.395223
0.145996	1.384050
0.146094	1.373199
0.146191	1.368913
0.146289	1.385515
0.146387	1.404162
0.146484	1.404741
0.146582	1.398439
0.146680	1.395398
0.146777	1.389574
0.146875	1.398041
0.146973	1.431359
0.147070	1.450592
0.147168	1.465631
0.147266	1.515226
0.147363	1.573959
0.147461	1.564030
0.147559	1.564934
0.147656	1.566839
0.147754	1.548881
0.147852	1.523860
0.147949	1.500005
0.148047	1.528644
0.148145	1.521456
0.148242	1.490607
0.148340	1.489531
0.148437	1.477678
0.148535	1.469946
0.148633	1.496119
0.148730	1.501784
0.148828	1.526048
0.148926	1.516937
0.149023	1.475093
0.149121	1.460578
0.149219	1.502757
0.149316	1.511906
0.149414	1.474149
0.149512	1.472309
0.149609	1.510939
0.149707	1.490504
0.149805	1.463795
0.149902	1.469374
0.150000	1.454337
0.150098	1.430686
0.150195	1.419079
0.150293	1.468921
0.150391	1.522927
0.150488	1.438939
0.150586	1.426038
0.150684	1.476970
0.150781	1.457669
0.150879	1.511986
0.150977	1.525940
0.151074	1.499448
0.151172	1.491790
0.151270	1.500328
0.151367	1.500395
0.151465	1.503718
0.151562	1.505414
0.151660	1.482541
0.151758	1.479368
0.151855	1.478792
0.151953	1.497904
0.152051	1.468314
0.152148	1.496955
0.152246	1.584273
0.152344	1.574004
0.152441	1.567785
0.152539	1.601593
0.152637	1.617226
0.152734	1.592148
0.152832	1.625484
0.152930	1.584896
0.153027	1.519352
0.153125	1.513750
0.153223	1.553929
0.153320	1.541809
0.153418	1.524356
0.153516	1.509965
0.153613	1.535427
0.153711	1.521944
0.153809	1.501512
0.153906	1.416301
0.154004	1.475897
0.154102	1.529999
0.154199	1.549319
0.154297	1.566108
0.154395	1.498587
0.154492	1.505556
0.154590	1.547322
0.154687	1.499559
0.154785	1.470655
0.154883	1.486331
0.154980	1.550625
0.155078	1.541521
0.155176	1.536578
0.155273	1.569414
0.155371	1.583960
0.155469	1.574087
0.155566	1.531301
0.155664	1.481582
0.155762	1.520520
0.155859	1.514944
0.155957	1.495052
0.156055	1.542093
0.156152	1.581592
0.156250	1.579449
0.156348	1.593558
0.156445	1.575189
0.156543	1.478853
0.156641	1.387383
0.156738	1.381847
0.156836	1.444384
0.156934	1.441267
0.157031	1.441691
0.157129	1.439659
0.157227	1.433051
0.157324	1.445920
0.157422	1.422385
0.157520	1.375427
0.157617	1.333212
0.157715	1.319628
0.157812	1.412768
0.157910	1.486831
0.158008	1.496500
0.158105	1.489605
0.158203	1.487144
0.158301	1.501568
0.158398	1.496686
0.158496	1.496437
0.158594	1.514141
0.158691	1.509681
0.158789	1.509451
0.158887	1.532906
0.158984	1.554670
0.159082	1.554881
0.159180	1.543122
0.159277	1.538145
0.159375	1.549628
0.159473	1.557089
0.159570	1.599289
0.159668	1.597876
0.159766	1.592945
0.159863	1.576037
0.159961	1.567866
0.160059	1.565884
0.160156	1.562590
0.160254	1.532191
0.160352	1.514558
0.160449	1.494197
0.160547	1.468430
0.160645	1.498274
0.160742	1.511619
0.160840	1.461502
0.160937	1.427037
0.161035	1.421196
0.161133	1.359744
0.161230	1.335829
0.161328	1.389346
0.161426	1.463503
0.161523	1.429145
0.161621	1.395085
0.161719	1.393289
0.161816	1.417277
0.161914	1.548460
0.162012	1.598542
0.162109	1.580808
0.162207	1.564735
0.162305	1.534707
0.162402	1.461410
0.162500	1.343633
0.162598	1.362628
0.162695	1.448940
0.162793	1.464824
0.162891	1.444550
0.162988	1.411820
0.163086	1.448116
0.163184	1.447668
0.163281	1.419723
0.163379	1.419539
0.163477	1.394692
0.163574	1.344130
0.163672	1.371624
0.163770	1.448763
0.163867	1.433955
0.163965	1.396663
0.164062	1.375098
0.164160	1.370770
0.164258	1.369977
0.164355	1.361014
0.164453	1.375881
0.164551	1.423321
0.164648	1.438418
0.164746	1.417977
0.164844	1.426548
0.164941	1.422333
0.165039	1.435360
0.165137	1.454015
0.165234	1.460164
0.165332	1.474963
0.165430	1.466699
0.165527	1.482325
0.165625	1.496861
0.165723	1.512149
0.165820	1.494983
0.165918	1.478698
0.166016	1.441449
0.166113	1.430236
0.166211	1.445613
0.166309	1.463661
0.166406	1.539886
0.166504	1.551404
0.166602	1.561551
0.166699	1.551279
0.166797	1.546826
0.166895	1.545739
0.166992	1.542458
0.167090	1.536399
0.167187	1.534452
0.167285	1.532212
0.167383	1.563656
0.167480	1.583743
0.167578	1.556337
0.167676	1.529890
0.167773	1.522668
0.167871	1.541095
0.167969	1.535646
0.168066	1.524372
0.168164	1.519702
0.168262	1.506225
0.168359	1.483393
0.168457	1.463535
0.168555	1.449113
0.168652	1.443977
0.168750	1.443950
0.168848	1.441142
0.168945	1.439678
0.169043	1.437294
0.169141	1.435413
0.169238	1.443117
0.169336	1.469243
0.169434	1.484437
0.169531	1.468905
0.169629	1.472215
0.169727	1.477472
0.169824	1.469806
0.169922	1.439924
0.170020	1.455140
0.170117	1.475392
0.170215	1.464535
0.170312	1.432528
0.170410	1.398475
0.170508	1.363563
0.170605	1.336327
0.170703	1.323841
0.170801	1.318163
0.170898	1.308136
0.170996	1.293453
0.171094	1.282266
0.171191	1.281806
0.171289	1.295675
0.171387	1.322305
0.171484	1.345311
0.171582	1.357420
0.171680	1.364407
0.171777	1.370474
0.171875	1.372999
0.171973	1.366249
0.172070	1.348912
0.172168	1.321231
0.172266	1.293268
0.172363	1.273953
0.172461	1.266363
0.172559	1.274977
0.172656	1.294872
0.172754	1.313082
0.172852	1.324726
0.172949	1.329805
0.173047	1.330403
0.173145	1.326706
0.173242	1.320135
0.173340	1.326353
0.173437	1.344907
0.173535	1.359194
0.173633	1.368759
0.173730	1.373661
0.173828	1.371810
0.173926	1.362130
0.174023	1.345855
0.174121	1.325582
0.174219	1.304903
0.174316	1.286604
0.174414	1.271683
0.174512	1.258637
0.174609	1.246314
0.174707	1.235310
0.174805	1.226983
0.174902	1.222069
0.175000	1.220377
0.175098	1.221227
0.175195	1.223622
0.175293	1.227196
0.175391	1.231265
0.175488	1.235714
0.175586	1.240276
0.175684	1.244752
0.175781	1.248781
0.175879	1.252691
0.175977	1.256181
0.176074	1.259240
0.176172	1.262170
0.176270	1.264065
0.176367	1.265253
0.176465	1.266238
0.176562	1.267585
0.176660	1.270518
0.176758	1.276004
0.176855	1.282787
0.176953	1.287244
0.177051	1.290481
0.177148	1.298701
0.177246	1.313197
0.177344	1.326880
0.177441	1.331757
0.177539	1.326892
0.177637	1.317237
0.177734	1.307091
0.177832	1.298351
0.177930	1.291404
0.178027	1.287163
0.178125	1.285952
0.178223	1.287654
0.178320	1.290227
0.178418	1.291014
0.178516	1.289358
0.178613	1.286893
0.178711	1.285859
0.178809	1.289199
0.178906	1.299821
0.179004	1.313745
0.179102	1.327862
0.179199	1.339798
0.179297	1.350131
0.179395	1.360589
0.179492	1.374237
0.179590	1.389871
0.179687	1.407344
0.179785	1.426160
0.179883	1.451337
0.179980	1.480644
0.180078	1.491064
0.180176	1.483228
0.180273	1.476807
0.180371	1.487372
0.180469	1.504367
0.180566	1.516739
0.180664	1.507419
0.180762	1.494010
0.180859	1.488722
0.180957	1.483557
0.181055	1.467814
0.181152	1.462650
0.181250	1.462368
0.181348	1.469882
0.181445	1.468689
0.181543	1.462036
0.181641	1.464323
0.181738	1.486272
0.181836	1.510047
0.181934	1.509585
0.182031	1.506029
0.182129	1.502359
0.182227	1.495128
0.182324	1.483406
0.182422	1.475946
0.182520	1.470376
0.182617	1.460291
0.182715	1.452185
0.182812	1.446645
0.182910	1.442365
0.183008	1.439485
0.183105	1.439674
0.183203	1.438180
0.183301	1.437524
0.183398	1.439732
0.183496	1.441271
0.183594	1.438713
0.183691	1.434793
0.183789	1.433621
0.183887	1.429030
0.183984	1.425899
0.184082	1.450275
0.184180	1.477272
0.184277	1.486792
0.184375	1.490015
0.184473	1.493423
0.184570	1.509693
0.184668	1.518190
0.184766	1.518221
0.184863	1.505872
0.184961	1.486341
0.185059	1.464292
0.185156	1.444404
0.185254	1.440916
0.185352	1.439161
0.185449	1.443757
0.185547	1.463354
0.185645	1.475362
0.185742	1.470440
0.185840	1.460872
0.185937	1.449084
0.186035	1.424222
0.186133	1.416307
0.186230	1.420125
0.186328	1.420360
0.186426	1.421685
0.186523	1.413331
0.186621	1.402302
0.186719	1.395356
0.186816	1.401930
0.186914	1.403789
0.187012	1.398703
0.187109	1.390520
0.187207	1.380600
0.187305	1.369100
0.187402	1.356029
0.187500	1.341893
0.187598	1.329170
0.187695	1.319312
0.187793	1.312046
0.187891	1.304579
0.187988	1.302810
0.188086	1.316450
0.188184	1.337516
0.188281	1.364562
0.188379	1.397925
0.188477	1.423254
0.188574	1.441353
0.188672	1.440246
0.188770	1.429972
0.188867	1.426032
0.188965	1.422322
0.189062	1.419075
0.189160	1.410427
0.189258	1.392126
0.189355	1.377107
0.189453	1.376576
0.189551	1.389778
0.189648	1.405491
0.189746	1.424775
0.189844	1.440926
0.189941	1.442590
0.190039	1.444854
0.190137	1.442147
0.190234	1.450203
0.190332	1.458630
0.190430	1.463670
0.190527	1.467082
0.190625	1.477331
0.190723	1.491558
0.190820	1.481004
0.190918	1.458681
0.191016	1.433050
0.191113	1.420685
0.191211	1.409827
0.191309	1.402322
0.191406	1.398919
0.191504	1.397403
0.191602	1.388493
0.191699	1.379860
0.191797	1.410571
0.191895	1.439875
0.191992	1.491396
0.192090	1.570015
0.192187	1.586392
0.192285	1.484275
0.192383	1.429194
0.192480	1.379127
0.192578	1.374205
0.192676	1.456226
0.192773	1.532250
0.192871	1.566620
0.192969	1.551487
0.193066	1.545087
0.193164	1.526701
0.193262	1.507261
0.193359	1.509167
0.193457	1.513615
0.193555	1.510314
0.193652	1.502403
0.193750	1.507621
0.193848	1.511585
0.193945	1.520082
0.194043	1.511736
0.194141	1.487904
0.194238	1.468697
0.194336	1.458957
0.194434	1.466165
0.194531	1.418381
0.194629	1.364820
0.194727	1.368521
0.194824	1.463736
0.194922	1.550712
0.195020	1.588205
0.195117	1.600738
0.195215	1.559069
0.195312	1.536230
0.195410	1.561172
0.195508	1.516201
0.195605	1.543646
0.195703	1.555349
0.195801	1.561085
0.195898	1.591372
0.195996	1.620282
0.196094	1.623594
0.196191	1.652495
0.196289	1.648488
0.196387	1.616722
0.196484	1.598692
0.196582	1.588031
0.196680	1.583182
0.196777	1.577951
0.196875	1.584342
0.196973	1.585166
0.197070	1.588435
0.197168	1.588803
0.197266	1.593155
0.197363	1.587651
0.197461	1.567576
0.197559	1.555345
0.197656	1.563385
0.197754	1.541645
0.197852	1.472377
0.197949	1.416659
0.198047	1.414035
0.198145	1.424491
0.198242	1.459189
0.198340	1.469635
0.198437	1.502269
0.198535	1.580596
0.198633	1.635460
0.198730	1.627820
0.198828	1.594380
0.198926	1.540416
0.199023	1.506493
0.199121	1.561148
0.199219	1.592579
0.199316	1.605688
0.199414	1.586748
0.199512	1.537546
0.199609	1.507686
0.199707	1.542497
0.199805	1.536537
0.199902	1.538532
0.200000	1.526836
0.200098	1.521354
0.200195	1.512318
0.200293	1.512774
0.200391	1.523684
0.200488	1.544294
0.200586	1.546358
0.200684	1.540634
0.200781	1.535048
0.200879	1.533376
0.200977	1.526639
0.201074	1.520074
0.201172	1.520277
0.201270	1.517846
0.201367	1.491768
0.201465	1.446014
0.201562	1.429870
0.201660	1.416199
0.201758	1.406829
0.201855	1.396422
0.201953	1.378085
0.202051	1.360198
0.202148	1.358908
0.202246	1.377479
0.202344	1.417583
0.202441	1.480726
0.202539	1.524536
0.202637	1.522452
0.202734	1.501086
0.202832	1.506869
0.202930	1.482047
0.203027	1.443768
0.203125	1.425595
0.203223	1.402709
0.203320	1.393945
0.203418	1.398268
0.203516	1.406765
0.203613	1.409968
0.203711	1.453308
0.203809	1.483079
0.203906	1.478308
0.204004	1.477361
0.204102	1.489788
0.204199	1.511397
0.204297	1.511087
0.204395	1.502851
0.204492	1.496372
0.204590	1.488388
0.204687	1.480029
0.204785	1.472395
0.204883	1.469584
0.204980	1.470456
0.205078	1.473097
0.205176	1.467668
0.205273	1.448684
0.205371	1.422558
0.205469	1.396924
0.205566	1.374053
0.205664	1.361929
0.205762	1.363914
0.205859	1.374874
0.205957	1.393527
0.206055	1.422498
0.206152	1.438568
0.206250	1.418664
0.206348	1.389718
0.206445	1.363096
0.206543	1.347214
0.206641	1.335211
0.206738	1.320276
0.206836	1.295431
0.206934	1.272996
0.207031	1.265564
0.207129	1.295002
0.207227	1.346032
0.207324	1.366256
0.207422	1.371352
0.207520	1.383809
0.207617	1.397472
0.207715	1.405190
0.207812	1.401260
0.207910	1.400957
0.208008	1.374746
0.208105	1.318695
0.208203	1.286567
0.208301	1.293119
0.208398	1.312314
0.208496	1.351680
0.208594	1.395365
0.208691	1.419289
0.208789	1.429421
0.208887	1.437148
0.208984	1.431675
0.209082	1.417821
0.209180	1.424353
0.209277	1.451800
0.209375	1.469223
0.209473	1.467663
0.209570	1.450782
0.209668	1.453131
0.209766	1.471432
0.209863	1.482110
0.209961	1.498824
0.210059	1.509281
0.210156	1.507636
0.210254	1.487399
0.210352	1.492752
0.210449	1.498775
0.210547	1.494745
0.210645	1.506420
0.210742	1.505842
0.210840	1.450015
0.210937	1.442493
0.211035	1.442366
0.211133	1.442757
0.211230	1.492892
0.211328	1.516949
0.211426	1.490788
0.211523	1.479032
0.211621	1.493909
0.211719	1.528194
0.211816	1.525294
0.211914	1.478241
0.212012	1.463240
0.212109	1.441906
0.212207	1.553543
0.212305	1.567634
0.212402	1.550008
0.212500	1.560249
0.212598	1.595255
0.212695	1.592007
0.212793	1.604382
0.212891	1.657780
0.212988	1.647394
0.213086	1.658690
0.213184	1.652069
0.213281	1.653656
0.213379	1.620418
0.213477	1.592749
0.213574	1.598925
0.213672	1.603942
0.213770	1.603054
0.213867	1.583928
0.213965	1.531743
0.214062	1.490086
0.214160	1.528856
0.214258	1.566507
0.214355	1.580006
0.214453	1.578323
0.214551	1.576028
0.214648	1.558615
0.214746	1.568557
0.214844	1.574774
0.214941	1.583848
0.215039	1.604905
0.215137	1.598424
0.215234	1.588377
0.215332	1.580144
0.215430	1.600754
0.215527	1.593527
0.215625	1.572414
0.215723	1.558832
0.215820	1.558689
0.215918	1.555343
0.216016	1.556629
0.216113	1.562467
0.216211	1.570764
0.216309	1.572914
0.216406	1.579696
0.216504	1.567347
0.216602	1.537689
0.216699	1.537327
0.216797	1.515760
0.216895	1.493418
0.216992	1.478401
0.217090	1.466331
0.217187	1.476721
0.217285	1.466396
0.217383	1.448074
0.217480	1.426549
0.217578	1.395853
0.217676	1.349392
0.217773	1.321369
0.217871	1.304383
0.217969	1.294104
0.218066	1.294284
0.218164	1.296037
0.218262	1.293544
0.218359	1.285394
0.218457	1.271846
0.218555	1.255383
0.218652	1.238482
0.218750	1.226511
0.218848	1.226537
0.218945	1.243999
0.219043	1.277017
0.219141	1.308945
0.219238	1.328302
0.219336	1.339760
0.219434	1.347966
0.219531	1.352555
0.219629	1.348264
0.219727	1.334339
0.219824	1.331496
0.219922	1.347081
0.220020	1.358819
0.220117	1.365957
0.220215	1.377756
0.220312	1.394077
0.220410	1.408102
0.220508	1.419557
0.220605	1.430799
0.220703	1.451562
0.220801	1.473990
0.220898	1.488413
0.220996	1.488124
0.221094	1.481941
0.221191	1.465468
0.221289	1.456402
0.221387	1.468272
0.221484	1.476982
0.221582	1.472705
0.221680	1.462450
0.221777	1.458102
0.221875	1.458625
0.221973	1.436883
0.222070	1.458259
0.222168	1.458622
0.222266	1.460829
0.222363	1.435891
0.222461	1.402159
0.222559	1.411669
0.222656	1.397991
0.222754	1.359734
0.222852	1.378121
0.222949	1.456250
0.223047	1.474364
0.223145	1.516989
0.223242	1.558858
0.223340	1.547590
0.223437	1.506722
0.223535	1.479233
0.223633	1.482011
0.223730	1.486511
0.223828	1.512925
0.223926	1.523490
0.224023	1.521903
0.224121	1.511161
0.224219	1.512330
0.224316	1.528119
0.224414	1.518092
0.224512	1.497947
0.224609	1.500075
0.224707	1.487057
0.224805	1.482898
0.224902	1.455146
0.225000	1.406353
0.225098	1.419096
0.225195	1.455894
0.225293	1.459401
0.225391	1.473381
0.225488	1.495866
0.225586	1.495528
0.225684	1.496001
0.225781	1.511723
0.225879	1.504856
0.225977	1.483459
0.226074	1.470830
0.226172	1.479939
0.226270	1.512375
0.226367	1.528183
0.226465	1.513456
0.226562	1.509945
0.226660	1.515009
0.226758	1.529842
0.226855	1.562929
0.226953	1.572519
0.227051	1.568916
0.227148	1.541695
0.227246	1.521144
0.227344	1.504951
0.227441	1.471105
0.227539	1.438514
0.227637	1.462885
0.227734	1.540341
0.227832	1.576205
0.227930	1.585755
0.228027	1.566725
0.228125	1.550686
0.228223	1.545827
0.228320	1.527880
0.228418	1.526593
0.228516	1.523959
0.228613	1.532179
0.228711	1.534045
0.228809	1.503799
0.228906	1.481329
0.229004	1.476696
0.229102	1.472481
0.229199	1.481001
0.229297	1.494228
0.229395	1.509037
0.229492	1.536800
0.229590	1.554780
0.229687	1.576491
0.229785	1.568360
0.229883	1.552093
0.229980	1.549995
0.230078	1.545746
0.230176	1.539646
0.230273	1.541305
0.230371	1.524729
0.230469	1.512090
0.230566	1.504080
0.230664	1.499113
0.230762	1.498446
0.230859	1.505136
0.230957	1.507568
0.231055	1.494776
0.231152	1.488518
0.231250	1.473358
0.231348	1.458032
0.231445	1.452447
0.231543	1.442462
0.231641	1.430162
0.231738	1.425630
0.231836	1.426666
0.231934	1.421751
0.232031	1.406503
0.232129	1.375634
0.232227	1.341407
0.232324	1.319582
0.232422	1.314353
0.232520	1.315166
0.232617	1.322177
0.232715	1.322914
0.232812	1.310490
0.232910	1.310648
0.233008	1.335908
0.233105	1.353189
0.233203	1.351432
0.233301	1.348703
0.233398	1.340335
0.233496	1.319039
0.233594	1.287784
0.233691	1.260261
0.233789	1.248077
0.233887	1.245728
0.233984	1.247457
0.234082	1.252819
0.234180	1.272436
0.234277	1.303448
0.234375	1.335287
0.234473	1.365020
0.234570	1.375774
0.234668	1.372681
0.234766	1.366979
0.234863	1.369914
0.234961	1.368072
0.235059	1.363335
0.235156	1.386211
0.235254	1.392361
0.235352	1.377863
0.235449	1.361873
0.235547	1.357364
0.235645	1.359192
0.235742	1.358964
0.235840	1.357215
0.235937	1.356137
0.236035	1.356722
0.236133	1.358170
0.236230	1.358704
0.236328	1.355993
0.236426	1.350769
0.236523	1.349828
0.236621	1.360414
0.236719	1.381268
0.236816	1.409844
0.236914	1.427497
0.237012	1.450309
0.237109	1.490235
0.237207	1.501987
0.237305	1.500213
0.237402	1.503413
0.237500	1.512243
0.237598	1.517449
0.237695	1.519933
0.237793	1.516242
0.237891	1.507100
0.237988	1.501021
0.238086	1.493195
0.238184	1.487945
0.238281	1.491173
0.238379	1.497425
0.238477	1.488016
0.238574	1.470939
0.238672	1.475875
0.238770	1.477366
0.238867	1.484151
0.238965	1.492407
0.239062	1.497494
0.239160	1.502589
0.239258	1.497187
0.239355	1.490072
0.239453	1.495202
0.239551	1.500706
0.239648	1.487080
0.239746	1.494049
0.239844	1.501230
0.239941	1.477159
0.240039	1.434534
0.240137	1.416257
0.240234	1.418790
0.240332	1.421224
0.240430	1.406563
0.240527	1.385997
0.240625	1.368304
0.240723	1.359442
0.240820	1.353405
0.240918	1.341387
0.241016	1.341650
0.241113	1.356980
0.241211	1.376862
0.241309	1.386506
0.241406	1.379075
0.241504	1.363450
0.241602	1.367037
0.241699	1.368976
0.241797	1.358723
0.241895	1.349979
0.241992	1.335468
0.242090	1.308979
0.242187	1.293202
0.242285	1.351195
0.242383	1.394767
0.242480	1.406812
0.242578	1.408412
0.242676	1.404827
0.242773	1.402826
0.242871	1.396866
0.242969	1.396129
0.243066	1.393998
0.243164	1.397138
0.243262	1.398441
0.243359	1.408746
0.243457	1.420985
0.243555	1.434852
0.243652	1.431342
0.243750	1.450386
0.243848	1.474789
0.243945	1.455985
0.244043	1.444825
0.244141	1.425989
0.244238	1.433962
0.244336	1.448498
0.244434	1.464259
0.244531	1.463816
0.244629	1.480785
0.244727	1.485818
0.244824	1.473723
0.244922	1.463166
0.245020	1.455190
0.245117	1.433142
0.245215	1.418527
0.245312	1.410009
0.245410	1.413567
0.245508	1.450186
0.245605	1.476778
0.245703	1.487223
0.245801	1.502843
0.245898	1.491264
0.245996	1.489351
0.246094	1.489871
0.246191	1.481955
0.246289	1.454560
0.246387	1.425122
0.246484	1.409168
0.246582	1.397544
0.246680	1.357745
0.246777	1.348080
0.246875	1.415613
0.246973	1.430522
0.247070	1.417554
0.247168	1.416185
0.247266	1.403825
0.247363	1.392024
0.247461	1.378850
0.247559	1.381179
0.247656	1.365192
0.247754	1.346193
0.247852	1.329586
0.247949	1.316618
0.248047	1.317450
0.248145	1.325550
0.248242	1.335662
0.248340	1.344027
0.248437	1.358721
0.248535	1.352817
0.248633	1.323951
0.248730	1.287401
0.248828	1.268247
0.248926	1.265786
0.249023	1.270634
0.249121	1.268754
0.249219	1.259987
0.249316	1.254805
0.249414	1.250018
0.249512	1.258068
0.249609	1.285751
0.249707	1.292007
0.249805	1.297522
0.249902	1.306257
0.250000	1.334397
0.250098	1.388792
0.250195	1.405933
0.250293	1.441192
0.250391	1.478482
0.250488	1.483034
0.250586	1.481509
0.250684	1.484614
0.250781	1.493301
0.250879	1.500556
0.250977	1.494685
0.251074	1.478659
0.251172	1.490985
0.251270	1.484772
0.251367	1.493213
0.251465	1.501144
0.251562	1.485103
0.251660	1.460170
0.251758	1.419145
0.251855	1.375118
0.251953	1.364974
0.252051	1.354101
0.252148	1.344267
0.252246	1.350366
0.252344	1.376157
0.252441	1.391076
0.252539	1.368054
0.252637	1.321600
0.252734	1.298034
0.252832	1.348600
0.252930	1.384220
0.253027	1.405948
0.253125	1.401241
0.253223	1.387725
0.253320	1.348091
0.253418	1.356381
0.253516	1.441217
0.253613	1.481973
0.253711	1.488123
0.253809	1.485508
0.253906	1.481308
0.254004	1.447516
0.254102	1.447394
0.254199	1.419808
0.254297	1.412096
0.254395	1.414787
0.254492	1.449208
0.254590	1.458897
0.254687	1.415396
0.254785	1.435077
0.254883	1.456828
0.254980	1.528587
0.255078	1.554624
0.255176	1.605123
0.255273	1.616297
0.255371	1.561882
0.255469	1.515940
0.255566	1.490519
0.255664	1.451147
0.255762	1.442818
0.255859	1.474907
0.255957	1.489089
0.256055	1.484764
0.256152	1.465474
0.256250	1.460428
0.256348	1.456107
0.256445	1.461652
0.256543	1.450067
0.256641	1.437356
0.256738	1.406596
0.256836	1.386892
0.256934	1.422354
0.257031	1.442276
0.257129	1.461254
0.257227	1.455131
0.257324	1.416394
0.257422	1.368326
0.257520	1.332856
0.257617	1.333376
0.257715	1.363586
0.257812	1.401341
0.257910	1.445207
0.258008	1.484133
0.258105	1.477873
0.258203	1.452089
0.258301	1.480226
0.258398	1.497536
0.258496	1.523172
0.258594	1.498810
0.258691	1.481392
0.258789	1.465878
0.258887	1.441453
0.258984	1.446012
0.259082	1.416677
0.259180	1.398208
0.259277	1.380680
0.259375	1.358896
0.259473	1.335705
0.259570	1.327263
0.259668	1.338711
0.259766	1.361409
0.259863	1.416480
0.259961	1.479017
0.260059	1.489650
0.260156	1.491360
0.260254	1.474977
0.260352	1.462391
0.260449	1.450267
0.260547	1.436227
0.260645	1.420733
0.260742	1.399304
0.260840	1.385904
0.260937	1.393049
0.261035	1.421112
0.261133	1.437122
0.261230	1.465153
0.261328	1.496094
0.261426	1.501587
0.261523	1.496288
0.261621	1.486015
0.261719	1.485843
0.261816	1.483326
0.261914	1.483119
0.262012	1.474910
0.262109	1.461036
0.262207	1.444879
0.262305	1.429012
0.262402	1.413807
0.262500	1.405775
0.262598	1.405922
0.262695	1.405742
0.262793	1.404468
0.262891	1.400079
0.262988	1.399401
0.263086	1.393325
0.263184	1.381747
0.263281	1.370068
0.263379	1.350664
0.263477	1.330205
0.263574	1.340097
0.263672	1.353056
0.263770	1.366668
0.263867	1.393112
0.263965	1.399717
0.264062	1.433521
0.264160	1.450136
0.264258	1.458129
0.264355	1.475157
0.264453	1.478310
0.264551	1.453944
0.264648	1.411046
0.264746	1.377121
0.264844	1.314485
0.264941	1.289597
0.265039	1.330665
0.265137	1.391328
0.265234	1.487584
0.265332	1.511582
0.265430	1.579075
0.265527	1.598538
0.265625	1.525246
0.265723	1.546108
0.265820	1.529510
0.265918	1.425006
0.266016	1.414666
0.266113	1.434884
0.266211	1.436267
0.266309	1.425327
0.266406	1.376391
0.266504	1.313742
0.266602	1.362490
0.266699	1.395886
0.266797	1.363407
0.266895	1.381587
0.266992	1.394316
0.267090	1.411704
0.267187	1.413508
0.267285	1.402075
0.267383	1.374051
0.267480	1.392469
0.267578	1.395531
0.267676	1.426439
0.267773	1.428741
0.267871	1.533583
0.267969	1.564971
0.268066	1.528162
0.268164	1.498982
0.268262	1.526721
0.268359	1.524116
0.268457	1.481143
0.268555	1.525937
0.268652	1.554506
0.268750	1.547196
0.268848	1.501382
0.268945	1.468284
0.269043	1.416455
0.269141	1.393811
0.269238	1.354410
0.269336	1.398862
0.269434	1.463887
0.269531	1.501920
0.269629	1.497725
0.269727	1.525477
0.269824	1.556351
0.269922	1.536448
0.270020	1.490147
0.270117	1.469834
0.270215	1.427173
0.270312	1.386682
0.270410	1.339165
0.270508	1.344855
0.270605	1.405337
0.270703	1.432651
0.270801	1.444247
0.270898	1.402674
0.270996	1.339881
0.271094	1.366435
0.271191	1.401378
0.271289	1.422904
0.271387	1.441959
0.271484	1.442939
0.271582	1.429401
0.271680	1.415232
0.271777	1.422054
0.271875	1.441657
0.271973	1.452614
0.272070	1.427589
0.272168	1.475562
0.272266	1.503095
0.272363	1.489596
0.272461	1.464687
0.272559	1.454470
0.272656	1.462738
0.272754	1.469261
0.272852	1.444259
0.272949	1.433909
0.273047	1.445629
0.273145	1.475328
0.273242	1.488096
0.273340	1.469087
0.273437	1.476772
0.273535	1.478127
0.273633	1.484990
0.273730	1.459169
0.273828	1.421981
0.273926	1.392828
0.274023	1.394938
0.274121	1.408364
0.274219	1.393750
0.274316	1.383942
0.274414	1.379488
0.274512	1.378641
0.274609	1.382340
0.274707	1.389252
0.274805	1.390512
0.274902	1.385396
0.275000	1.378545
0.275098	1.366208
0.275195	1.348472
0.275293	1.329963
0.275391	1.311455
0.275488	1.292241
0.275586	1.272383
0.275684	1.257199
0.275781	1.247922
0.275879	1.242461
0.275977	1.239980
0.276074	1.242426
0.276172	1.253104
0.276270	1.267411
0.276367	1.279505
0.276465	1.291098
0.276562	1.300828
0.276660	1.308641
0.276758	1.317124
0.276855	1.330641
0.276953	1.340422
0.277051	1.345075
0.277148	1.349051
0.277246	1.343868
0.277344	1.327452
0.277441	1.306914
0.277539	1.287850
0.277637	1.270775
0.277734	1.255372
0.277832	1.243769
0.277930	1.237607
0.278027	1.235313
0.278125	1.234354
0.278223	1.233690
0.278320	1.233222
0.278418	1.234445
0.278516	1.237336
0.278613	1.241244
0.278711	1.247316
0.278809	1.257245
0.278906	1.271321
0.279004	1.288623
0.279102	1.306991
0.279199	1.322903
0.279297	1.335887
0.279395	1.344776
0.279492	1.347661
0.279590	1.345958
0.279687	1.342486
0.279785	1.340197
0.279883	1.339408
0.279980	1.332540
0.280078	1.314590
0.280176	1.297224
0.280273	1.290588
0.280371	1.293114
0.280469	1.302533
0.280566	1.309927
0.280664	1.304875
0.280762	1.289594
0.280859	1.276363
0.280957	1.266539
0.281055	1.263391
0.281152	1.275561
0.281250	1.295286
0.281348	1.300038
0.281445	1.283077
0.281543	1.316146
0.281641	1.382364
0.281738	1.417211
0.281836	1.425924
0.281934	1.436469
0.282031	1.487933
0.282129	1.514856
0.282227	1.475603
0.282324	1.440123
0.282422	1.417965
0.282520	1.431470
0.282617	1.456946
0.282715	1.474900
0.282812	1.508826
0.282910	1.507035
0.283008	1.501899
0.283105	1.467577
0.283203	1.436346
0.283301	1.465499
0.283398	1.487522
0.283496	1.487191
0.283594	1.476807
0.283691	1.465607
0.283789	1.462425
0.283887	1.458553
0.283984	1.437649
0.284082	1.415382
0.284180	1.410272
0.284277	1.388906
0.284375	1.406191
0.284473	1.460515
0.284570	1.497971
0.284668	1.530966
0.284766	1.553633
0.284863	1.609680
0.284961	1.626694
0.285059	1.620376
0.285156	1.599861
0.285254	1.592611
0.285352	1.587395
0.285449	1.569016
0.285547	1.533333
0.285645	1.547703
0.285742	1.554576
0.285840	1.536643
0.285937	1.542946
0.286035	1.534773
0.286133	1.528223
0.286230	1.514752
0.286328	1.531226
0.286426	1.554127
0.286523	1.557787
0.286621	1.543591
0.286719	1.554745
0.286816	1.528608
0.286914	1.541888
0.287012	1.593880
0.287109	1.585849
0.287207	1.594912
0.287305	1.552027
0.287402	1.549256
0.287500	1.547307
0.287598	1.538555
0.287695	1.523697
0.287793	1.523207
0.287891	1.536559
0.287988	1.548670
0.288086	1.539831
0.288184	1.505884
0.288281	1.481136
0.288379	1.479576
0.288477	1.478354
0.288574	1.470484
0.288672	1.468645
0.288770	1.478052
0.288867	1.501648
0.288965	1.508771
0.289062	1.496814
0.289160	1.482303
0.289258	1.466962
0.289355	1.444822
0.289453	1.429397
0.289551	1.412869
0.289648	1.381753
0.289746	1.350055
0.289844	1.326009
0.289941	1.312676
0.290039	1.310171
0.290137	1.309833
0.290234	1.321954
0.290332	1.339808
0.290430	1.350745
0.290527	1.376275
0.290625	1.404358
0.290723	1.418760
0.290820	1.422165
0.290918	1.413449
0.291016	1.418351
0.291113	1.435800
0.291211	1.443281
0.291309	1.444712
0.291406	1.437472
0.291504	1.429023
0.291602	1.425070
0.291699	1.423626
0.291797	1.422429
0.291895	1.425066
0.291992	1.423710
0.292090	1.416673
0.292187	1.410627
0.292285	1.411834
0.292383	1.406197
0.292480	1.385262
0.292578	1.381042
0.292676	1.382416
0.292773	1.402164
0.292871	1.407329
0.292969	1.405919
0.293066	1.405104
0.293164	1.404666
0.293262	1.400430
0.293359	1.394031
0.293457	1.388502
0.293555	1.380912
0.293652	1.370162
0.293750	1.352356
0.293848	1.346227
0.293945	1.369035
0.294043	1.396355
0.294141	1.456867
0.294238	1.501298
0.294336	1.483990
0.294434	1.456872
0.294531	1.438493
0.294629	1.431326
0.294727	1.435828
0.294824	1.467917
0.294922	1.473105
0.295020	1.445704
0.295117	1.413772
0.295215	1.385873
0.295312	1.359938
0.295410	1.346440
0.295508	1.375652
0.295605	1.392456
0.295703	1.381094
0.295801	1.354968
0.295898	1.323263
0.295996	1.294812
0.296094	1.298556
0.296191	1.336455
0.296289	1.366114
0.296387	1.371187
0.296484	1.374733
0.296582	1.384301
0.296680	1.371486
0.296777	1.344843
0.296875	1.326972
0.296973	1.363184
0.297070	1.420924
0.297168	1.453121
0.297266	1.452440
0.297363	1.418545
0.297461	1.395360
0.297559	1.411572
0.297656	1.423535
0.297754	1.415719
0.297852	1.398888
0.297949	1.370339
0.298047	1.351119
0.298145	1.352779
0.298242	1.366922
0.298340	1.385075
0.298437	1.409584
0.298535	1.423859
0.298633	1.418494
0.298730	1.403768
0.298828	1.380793
0.298926	1.364240
0.299023	1.391015
0.299121	1.437313
0.299219	1.481025
0.299316	1.491925
0.299414	1.497057
0.299512	1.499237
0.299609	1.499257
0.299707	1.475440
0.299805	1.440120
0.299902	1.400820
0.300000	1.379519
0.300098	1.410707
0.300195	1.410809
0.300293	1.389479
0.300391	1.368955
0.300488	1.374506
0.300586	1.415348
0.300684	1.444653
0.300781	1.444798
0.300879	1.463655
0.300977	1.439889
0.301074	1.451325
0.301172	1.448893
0.301270	1.455338
0.301367	1.468159
0.301465	1.455435
0.301562	1.447348
0.301660	1.461041
0.301758	1.467031
0.301855	1.454092
0.301953	1.437489
0.302051	1.430238
0.302148	1.433718
0.302246	1.434826
0.302344	1.428727
0.302441	1.417777
0.302539	1.431307
0.302637	1.443255
0.302734	1.425975
0.302832	1.428078
0.302930	1.464709
0.303027	1.501210
0.303125	1.509048
0.303223	1.504211
0.303320	1.483376
0.303418	1.449714
0.303516	1.420828
0.303613	1.387968
0.303711	1.374024
0.303809	1.373655
0.303906	1.361229
0.304004	1.327180
0.304102	1.294277
0.304199	1.305261
0.304297	1.338434
0.304395	1.356579
0.304492	1.375029
0.304590	1.385540
0.304687	1.388020
0.304785	1.381968
0.304883	1.365257
0.304980	1.345241
0.305078	1.325203
0.305176	1.312181
0.305273	1.303621
0.305371	1.295369
0.305469	1.286457
0.305566	1.277071
0.305664	1.266657
0.305762	1.255137
0.305859	1.243124
0.305957	1.231468
0.306055	1.221400
0.306152	1.212895
0.306250	1.206242
0.306348	1.201129
0.306445	1.197581
0.306543	1.195752
0.306641	1.196373
0.306738	1.199887
0.306836	1.205272
0.306934	1.210882
0.307031	1.214597
0.307129	1.215738
0.307227	1.214533
0.307324	1.211692
0.307422	1.207702
0.307520	1.204349
0.307617	1.201486
0.307715	1.199125
0.307812	1.198256
0.307910	1.202184
0.308008	1.213589
0.308105	1.231085
0.308203	1.249954
0.308301	1.264677
0.308398	1.271067
0.308496	1.267990
0.308594	1.257944
0.308691	1.245541
0.308789	1.236578
0.308887	1.233964
0.308984	1.238702
0.309082	1.252470
0.309180	1.271053
0.309277	1.281844
0.309375	1.279567
0.309473	1.271844
0.309570	1.265316
0.309668	1.261065
0.309766	1.258522
0.309863	1.260804
0.309961	1.268928
0.310059	1.276594
0.310156	1.280052
0.310254	1.282004
0.310352	1.289304
0.310449	1.302221
0.310547	1.320605
0.310645	1.344507
0.310742	1.366228
0.310840	1.380397
0.310937	1.389775
0.311035	1.391563
0.311133	1.379207
0.311230	1.359575
0.311328	1.339475
0.311426	1.325859
0.311523	1.334278
0.311621	1.358430
0.311719	1.380829
0.311816	1.382661
0.311914	1.364450
0.312012	1.343817
0.312109	1.329107
0.312207	1.322834
0.312305	1.321893
0.312402	1.322080
0.312500	1.325663
0.312598	1.333636
0.312695	1.340581
0.312793	1.341690
0.312891	1.337212
0.312988	1.329483
0.313086	1.320021
0.313184	1.310193
0.313281	1.300729
0.313379	1.291955
0.313477	1.282585
0.313574	1.271566
0.313672	1.259294
0.313770	1.249570
0.313867	1.248207
0.313965	1.261381
0.314062	1.287637
0.314160	1.314008
0.314258	1.327725
0.314355	1.327630
0.314453	1.312622
0.314551	1.289712
0.314648	1.268890
0.314746	1.256083
0.314844	1.253841
0.314941	1.267669
0.315039	1.299929
0.315137	1.336147
0.315234	1.362111
0.315332	1.385279
0.315430	1.395775
0.315527	1.401550
0.315625	1.408086
0.315723	1.413717
0.315820	1.432727
0.315918	1.447906
0.316016	1.454506
0.316113	1.458608
0.316211	1.455721
0.316309	1.451101
0.316406	1.453523
0.316504	1.479676
0.316602	1.487310
0.316699	1.484689
0.316797	1.456784
0.316895	1.456582
0.316992	1.467185
0.317090	1.477985
0.317187	1.501478
0.317285	1.516364
0.317383	1.531760
0.317480	1.535926
0.317578	1.514734
0.317676	1.500089
0.317773	1.466642
0.317871	1.452382
0.317969	1.436896
0.318066	1.402688
0.318164	1.335275
0.318262	1.376501
0.318359	1.430827
0.318457	1.425534
0.318555	1.422637
0.318652	1.412207
0.318750	1.405046
0.318848	1.388958
0.318945	1.376265
0.319043	1.368855
0.319141	1.373124
0.319238	1.376147
0.319336	1.367989
0.319434	1.347060
0.319531	1.336051
0.319629	1.334181
0.319727	1.335565
0.319824	1.342287
0.319922	1.353483
0.320020	1.370624
0.320117	1.379313
0.320215	1.379181
0.320312	1.392237
0.320410	1.402779
0.320508	1.393728
0.320605	1.419198
0.320703	1.474127
0.320801	1.523199
0.320898	1.510010
0.320996	1.490993
0.321094	1.496294
0.321191	1.492221
0.321289	1.520329
0.321387	1.527431
0.321484	1.524772
0.321582	1.466162
0.321680	1.414898
0.321777	1.399728
0.321875	1.396554
0.321973	1.404082
0.322070	1.440899
0.322168	1.499992
0.322266	1.547154
0.322363	1.563483
0.322461	1.556776
0.322559	1.564341
0.322656	1.558062
0.322754	1.537007
0.322852	1.538229
0.322949	1.557685
0.323047	1.565380
0.323145	1.546792
0.323242	1.527432
0.323340	1.503558
0.323437	1.469994
0.323535	1.466773
0.323633	1.476825
0.323730	1.487891
0.323828	1.515361
0.323926	1.544447
0.324023	1.532304
0.324121	1.503594
0.324219	1.461230
0.324316	1.471743
0.324414	1.487969
0.324512	1.510689
0.324609	1.517198
0.324707	1.538040
0.324805	1.540844
0.324902	1.583669
0.325000	1.566288
0.325098	1.575335
0.325195	1.536943
0.325293	1.513390
0.325391	1.505354
0.325488	1.473951
0.325586	1.484663
0.325684	1.513793
0.325781	1.549034
0.325879	1.528154
0.325977	1.482609
0.326074	1.474356
0.326172	1.535004
0.326270	1.561995
0.326367	1.582012
0.326465	1.581107
0.326562	1.532029
0.326660	1.535385
0.326758	1.532039
0.326855	1.551186
0.326953	1.526346
0.327051	1.467715
0.327148	1.443220
0.327246	1.437508
0.327344	1.430252
0.327441	1.458940
0.327539	1.430755
0.327637	1.401832
0.327734	1.424819
0.327832	1.410452
0.327930	1.400480
0.328027	1.381964
0.328125	1.402699
0.328223	1.444771
0.328320	1.477853
0.328418	1.484021
0.328516	1.495850
0.328613	1.527205
0.328711	1.542896
0.328809	1.540715
0.328906	1.480699
0.329004	1.448894
0.329102	1.476304
0.329199	1.509065
0.329297	1.503157
0.329395	1.545437
0.329492	1.545653
0.329590	1.528923
0.329687	1.529172
0.329785	1.530321
0.329883	1.513452
0.329980	1.464322
0.330078	1.457719
0.330176	1.486668
0.330273	1.466946
0.330371	1.445087
0.330469	1.451949
0.330566	1.448997
0.330664	1.463351
0.330762	1.471618
0.330859	1.478329
0.330957	1.514260
0.331055	1.545252
0.331152	1.560458
0.331250	1.598869
0.331348	1.591459
0.331445	1.549394
0.331543	1.525893
0.331641	1.514867
0.331738	1.522952
0.331836	1.552811
0.331934	1.534400
0.332031	1.496856
0.332129	1.463768
0.332227	1.451699
0.332324	1.426577
0.332422	1.400940
0.332520	1.417175
0.332617	1.459990
0.332715	1.479222
0.332812	1.445469
0.332910	1.416909
0.333008	1.424948
0.333105	1.422746
0.333203	1.431537
0.333301	1.456537
0.333398	1.458418
0.333496	1.424293
0.333594	1.379709
0.333691	1.387701
0.333789	1.366497
0.333887	1.338472
0.333984	1.394208
0.334082	1.378713
0.334180	1.321604
0.334277	1.316846
0.334375	1.334898
0.334473	1.316012
0.334570	1.295054
0.334668	1.317114
0.334766	1.378822
0.334863	1.443897
0.334961	1.477237
0.335059	1.489592
0.335156	1.488458
0.335254	1.468872
0.335352	1.445616
0.335449	1.438472
0.335547	1.441014
0.335645	1.443481
0.335742	1.469481
0.335840	1.486954
0.335937	1.474488
0.336035	1.462875
0.336133	1.445773
0.336230	1.443931
0.336328	1.450940
0.336426	1.464835
0.336523	1.477357
0.336621	1.473233
0.336719	1.436618
0.336816	1.406917
0.336914	1.410420
0.337012	1.434276
0.337109	1.442219
0.337207	1.424563
0.337305	1.413749
0.337402	1.418383
0.337500	1.405993
0.337598	1.408079
0.337695	1.419022
0.337793	1.427383
0.337891	1.424029
0.337988	1.423759
0.338086	1.413843
0.338184	1.399465
0.338281	1.402498
0.338379	1.407560
0.338477	1.397692
0.338574	1.388123
0.338672	1.403405
0.338770	1.430889
0.338867	1.450369
0.338965	1.439293
0.339062	1.388963
0.339160	1.391925
0.339258	1.419226
0.339355	1.417556
0.339453	1.388406
0.339551	1.365412
0.339648	1.340035
0.339746	1.305734
0.339844	1.265481
0.339941	1.235474
0.340039	1.226028
0.340137	1.226265
0.340234	1.224268
0.340332	1.227343
0.340430	1.234075
0.340527	1.247267
0.340625	1.259189
0.340723	1.306469
0.340820	1.381648
0.340918	1.431570
0.341016	1.447309
0.341113	1.490652
0.341211	1.540590
0.341309	1.514849
0.341406	1.505695
0.341504	1.501789
0.341602	1.520423
0.341699	1.530214
0.341797	1.522572
0.341895	1.502565
0.341992	1.469671
0.342090	1.459158
0.342187	1.505417
0.342285	1.500758
0.342383	1.471232
0.342480	1.467414
0.342578	1.510070
0.342676	1.539132
0.342773	1.526071
0.342871	1.515816
0.342969	1.501312
0.343066	1.506641
0.343164	1.505837
0.343262	1.504435
0.343359	1.488008
0.343457	1.484951
0.343555	1.476792
0.343652	1.463186
0.343750	1.458250
0.343848	1.457481
0.343945	1.456677
0.344043	1.436293
0.344141	1.439183
0.344238	1.440483
0.344336	1.440024
0.344434	1.459520
0.344531	1.478378
0.344629	1.493121
0.344727	1.539100
0.344824	1.554181
0.344922	1.572201
0.345020	1.568573
0.345117	1.559785
0.345215	1.568595
0.345312	1.545651
0.345410	1.523539
0.345508	1.521594
0.345605	1.526940
0.345703	1.525092
0.345801	1.532550
0.345898	1.535483
0.345996	1.523872
0.346094	1.496318
0.346191	1.494298
0.346289	1.497866
0.346387	1.531045
0.346484	1.588473
0.346582	1.603189
0.346680	1.608703
0.346777	1.566137
0.346875	1.554514
0.346973	1.537771
0.347070	1.528185
0.347168	1.533535
0.347266	1.561424
0.347363	1.553652
0.347461	1.539840
0.347559	1.496391
0.347656	1.494729
0.347754	1.496728
0.347852	1.501755
0.347949	1.531851
0.348047	1.530126
0.348145	1.523223
0.348242	1.496214
0.348340	1.470948
0.348437	1.473059
0.348535	1.497154
0.348633	1.501750
0.348730	1.495398
0.348828	1.494708
0.348926	1.496852
0.349023	1.496766
0.349121	1.577872
0.349219	1.624067
0.349316	1.621990
0.349414	1.601570
0.349512	1.572798
0.349609	1.538061
0.349707	1.528733
0.349805	1.557425
0.349902	1.566367
0.350000	1.588578
0.350098	1.606443
0.350195	1.605528
0.350293	1.566724
0.350391	1.531406
0.350488	1.525002
0.350586	1.537071
0.350684	1.550838
0.350781	1.551350
0.350879	1.530748
0.350977	1.505881
0.351074	1.475953
0.351172	1.446095
0.351270	1.431721
0.351367	1.431918
0.351465	1.427804
0.351562	1.419841
0.351660	1.403776
0.351758	1.391484
0.351855	1.383218
0.351953	1.375804
0.352051	1.362365
0.352148	1.361211
0.352246	1.375516
0.352344	1.382422
0.352441	1.371114
0.352539	1.331474
0.352637	1.313194
0.352734	1.350863
0.352832	1.374143
0.352930	1.370026
0.353027	1.354601
0.353125	1.355716
0.353223	1.370309
0.353320	1.368135
0.353418	1.338408
0.353516	1.307261
0.353613	1.283282
0.353711	1.285449
0.353809	1.292532
0.353906	1.296155
0.354004	1.334300
0.354102	1.327833
0.354199	1.313529
0.354297	1.300313
0.354395	1.313599
0.354492	1.335717
0.354590	1.357762
0.354687	1.403393
0.354785	1.463092
0.354883	1.516633
0.354980	1.534645
0.355078	1.528750
0.355176	1.523542
0.355273	1.515492
0.355371	1.506080
0.355469	1.537206
0.355566	1.556345
0.355664	1.547373
0.355762	1.533425
0.355859	1.520036
0.355957	1.506664
0.356055	1.498267
0.356152	1.497939
0.356250	1.486067
0.356348	1.476189
0.356445	1.498214
0.356543	1.489589
0.356641	1.475475
0.356738	1.440948
0.356836	1.415724
0.356934	1.423900
0.357031	1.446195
0.357129	1.447581
0.357227	1.426600
0.357324	1.422625
0.357422	1.410664
0.357520	1.423041
0.357617	1.435382
0.357715	1.443384
0.357812	1.486151
0.357910	1.472135
0.358008	1.455458
0.358105	1.483654
0.358203	1.493604
0.358301	1.511413
0.358398	1.524306
0.358496	1.529218
0.358594	1.521712
0.358691	1.525541
0.358789	1.519677
0.358887	1.500908
0.358984	1.521005
0.359082	1.536004
0.359180	1.539748
0.359277	1.512060
0.359375	1.482758
0.359473	1.417421
0.359570	1.431365
0.359668	1.555137
0.359766	1.556030
0.359863	1.558421
0.359961	1.540245
0.360059	1.539205
0.360156	1.572085
0.360254	1.565970
0.360352	1.544042
0.360449	1.503040
0.360547	1.500733
0.360645	1.497742
0.360742	1.496108
0.360840	1.500655
0.360937	1.551754
0.361035	1.605431
0.361133	1.611963
0.361230	1.579112
0.361328	1.591301
0.361426	1.588864
0.361523	1.607398
0.361621	1.617005
0.361719	1.621006
0.361816	1.586133
0.361914	1.570823
0.362012	1.539044
0.362109	1.513058
0.362207	1.471282
0.362305	1.449863
0.362402	1.487903
0.362500	1.540147
0.362598	1.574823
0.362695	1.579347
0.362793	1.565153
0.362891	1.570435
0.362988	1.569765
0.363086	1.568004
0.363184	1.562972
0.363281	1.543725
0.363379	1.521185
0.363477	1.523363
0.363574	1.538869
0.363672	1.551611
0.363770	1.572736
0.363867	1.603292
0.363965	1.576228
0.364062	1.524298
0.364160	1.526984
0.364258	1.555611
0.364355	1.589576
0.364453	1.570413
0.364551	1.534121
0.364648	1.535458
0.364746	1.555400
0.364844	1.561360
0.364941	1.568381
0.365039	1.554343
0.365137	1.548522
0.365234	1.524232
0.365332	1.497869
0.365430	1.499598
0.365527	1.511926
0.365625	1.469353
0.365723	1.429353
0.365820	1.475985
0.365918	1.497886
0.366016	1.504839
0.366113	1.490899
0.366211	1.466568
0.366309	1.499941
0.366406	1.484281
0.366504	1.447919
0.366602	1.458768
0.366699	1.495691
0.366797	1.486490
0.366895	1.489184
0.366992	1.530841
0.367090	1.549387
0.367187	1.546663
0.367285	1.557673
0.367383	1.564034
0.367480	1.556816
0.367578	1.557389
0.367676	1.554923
0.367773	1.564415
0.367871	1.591414
0.367969	1.579522
0.368066	1.566844
0.368164	1.570791
0.368262	1.558689
0.368359	1.547478
0.368457	1.533908
0.368555	1.533488
0.368652	1.542625
0.368750	1.519169
0.368848	1.509355
0.368945	1.516431
0.369043	1.505138
0.369141	1.490110
0.369238	1.472156
0.369336	1.462481
0.369434	1.440011
0.369531	1.427311
0.369629	1.416860
0.369727	1.403916
0.369824	1.387995
0.369922	1.363454
0.370020	1.335790
0.370117	1.333024
0.370215	1.355283
0.370312	1.380751
0.370410	1.387066
0.370508	1.381950
0.370605	1.376261
0.370703	1.378992
0.370801	1.379860
0.370898	1.373822
0.370996	1.357212
0.371094	1.327927
0.371191	1.298630
0.371289	1.269563
0.371387	1.246067
0.371484	1.238642
0.371582	1.250795
0.371680	1.282536
0.371777	1.322577
0.371875	1.360346
0.371973	1.397745
0.372070	1.421111
0.372168	1.443550
0.372266	1.468273
0.372363	1.478335
0.372461	1.486366
0.372559	1.512603
0.372656	1.520844
0.372754	1.512107
0.372852	1.502692
0.372949	1.499469
0.373047	1.516478
0.373145	1.556716
0.373242	1.566557
0.373340	1.525923
0.373437	1.496525
0.373535	1.468589
0.373633	1.439237
0.373730	1.466570
0.373828	1.458931
0.373926	1.416668
0.374023	1.375487
0.374121	1.376948
0.374219	1.383685
0.374316	1.417388
0.374414	1.394291
0.374512	1.348333
0.374609	1.359272
0.374707	1.328964
0.374805	1.328478
0.374902	1.415397
0.375000	1.438672
0.375098	1.429016
0.375195	1.396369
0.375293	1.464975
0.375391	1.556774
0.375488	1.549584
0.375586	1.557303
0.375684	1.545074
0.375781	1.516669
0.375879	1.521173
0.375977	1.552774
0.376074	1.504985
0.376172	1.483487
0.376270	1.446623
0.376367	1.424843
0.376465	1.378185
0.376562	1.442405
0.376660	1.468042
0.376758	1.482141
0.376855	1.504867
0.376953	1.497337
0.377051	1.521773
0.377148	1.558210
0.377246	1.561120
0.377344	1.552264
0.377441	1.542378
0.377539	1.546082
0.377637	1.561897
0.377734	1.578081
0.377832	1.617767
0.377930	1.602407
0.378027	1.598454
0.378125	1.591544
0.378223	1.584643
0.378320	1.608717
0.378418	1.585481
0.378516	1.534931
0.378613	1.534333
0.378711	1.542171
0.378809	1.528780
0.378906	1.522505
0.379004	1.513139
0.379102	1.545310
0.379199	1.557603
0.379297	1.521361
0.379395	1.473755
0.379492	1.482873
0.379590	1.528710
0.379687	1.550896
0.379785	1.551808
0.379883	1.570050
0.379980	1.571785
0.380078	1.539025
0.380176	1.538375
0.380273	1.522678
0.380371	1.474658
0.380469	1.465059
0.380566	1.521942
0.380664	1.522844
0.380762	1.541712
0.380859	1.563940
0.380957	1.559339
0.381055	1.573500
0.381152	1.562343
0.381250	1.569264
0.381348	1.567202
0.381445	1.547026
0.381543	1.525474
0.381641	1.523280
0.381738	1.511467
0.381836	1.499863
0.381934	1.483242
0.382031	1.492841
0.382129	1.527548
0.382227	1.542095
0.382324	1.566554
0.382422	1.532331
0.382520	1.500141
0.382617	1.520746
0.382715	1.549476
0.382812	1.563489
0.382910	1.533004
0.383008	1.513313
0.383105	1.494225
0.383203	1.475043
0.383301	1.464644
0.383398	1.438515
0.383496	1.437502
0.383594	1.476330
0.383691	1.464014
0.383789	1.479747
0.383887	1.489314
0.383984	1.473779
0.384082	1.489459
0.384180	1.523040
0.384277	1.530848
0.384375	1.535665
0.384473	1.561743
0.384570	1.566502
0.384668	1.524447
0.384766	1.504987
0.384863	1.482530
0.384961	1.466485
0.385059	1.452839
0.385156	1.435234
0.385254	1.424731
0.385352	1.416718
0.385449	1.418217
0.385547	1.424746
0.385645	1.412292
0.385742	1.397155
0.385840	1.387323
0.385937	1.396261
0.386035	1.426014
0.386133	1.451023
0.386230	1.477054
0.386328	1.500460
0.386426	1.494716
0.386523	1.458191
0.386621	1.418541
0.386719	1.404705
0.386816	1.413867
0.386914	1.410414
0.387012	1.398344
0.387109	1.386121
0.387207	1.373791
0.387305	1.366852
0.387402	1.363581
0.387500	1.360285
0.387598	1.352865
0.387695	1.340888
0.387793	1.325680
0.387891	1.308824
0.387988	1.291404
0.388086	1.275723
0.388184	1.263855
0.388281	1.258761
0.388379	1.261778
0.388477	1.271534
0.388574	1.286825
0.388672	1.307400
0.388770	1.329536
0.388867	1.352940
0.388965	1.377124
0.389062	1.396914
0.389160	1.402134
0.389258	1.402703
0.389355	1.406302
0.389453	1.411424
0.389551	1.417790
0.389648	1.434435
0.389746	1.452924
0.389844	1.459545
0.389941	1.445512
0.390039	1.420932
0.390137	1.406808
0.390234	1.410195
0.390332	1.442094
0.390430	1.457113
0.390527	1.452239
0.390625	1.434523
0.390723	1.409508
0.390820	1.388294
0.390918	1.381676
0.391016	1.381503
0.391113	1.400420
0.391211	1.419110
0.391309	1.417913
0.391406	1.409359
0.391504	1.412856
0.391602	1.423201
0.391699	1.435140
0.391797	1.459067
0.391895	1.478037
0.391992	1.492945
0.392090	1.511852
0.392187	1.529879
0.392285	1.542458
0.392383	1.549532
0.392480	1.574921
0.392578	1.577645
0.392676	1.560118
0.392773	1.530389
0.392871	1.496693
0.392969	1.473136
0.393066	1.454870
0.393164	1.451676
0.393262	1.453667
0.393359	1.456744
0.393457	1.475793
0.393555	1.503384
0.393652	1.527925
0.393750	1.517010
0.393848	1.480080
0.393945	1.460167
0.394043	1.444310
0.394141	1.427942
0.394238	1.394703
0.394336	1.382479
0.394434	1.438088
0.394531	1.445603
0.394629	1.450687
0.394727	1.451578
0.394824	1.446885
0.394922	1.436409
0.395020	1.431130
0.395117	1.424276
0.395215	1.424353
0.395312	1.446477
0.395410	1.478214
0.395508	1.508547
0.395605	1.602278
0.395703	1.603135
0.395801	1.567056
0.395898	1.569796
0.395996	1.588419
0.396094	1.601120
0.396191	1.613916
0.396289	1.629419
0.396387	1.628826
0.396484	1.624762
0.396582	1.614560
0.396680	1.606866
0.396777	1.596993
0.396875	1.578074
0.396973	1.568221
0.397070	1.559687
0.397168	1.510420
0.397266	1.546353
0.397363	1.589535
0.397461	1.596784
0.397559	1.595489
0.397656	1.598856
0.397754	1.615404
0.397852	1.617547
0.397949	1.599841
0.398047	1.622725
0.398145	1.613090
0.398242	1.577744
0.398340	1.564075
0.398437	1.556865
0.398535	1.571822
0.398633	1.575482
0.398730	1.577451
0.398828	1.579032
0.398926	1.578076
0.399023	1.571112
0.399121	1.569311
0.399219	1.567178
0.399316	1.566349
0.399414	1.558816
0.399512	1.557831
0.399609	1.562261
0.399707	1.558779
0.399805	1.558164
0.399902	1.545240
0.400000	1.543495
0.400098	1.541150
0.400195	1.550130
0.400293	1.553659
0.400391	1.537520
0.400488	1.507013
0.400586	1.477335
0.400684	1.462159
0.400781	1.457092
0.400879	1.451931
0.400977	1.441496
0.401074	1.429703
0.401172	1.428304
0.401270	1.430199
0.401367	1.438415
0.401465	1.438554
0.401562	1.438684
0.401660	1.451645
0.401758	1.444802
0.401855	1.418616
0.401953	1.385019
0.402051	1.351919
0.402148	1.327729
0.402246	1.316317
0.402344	1.298888
0.402441	1.297508
0.402539	1.300566
0.402637	1.299201
0.402734	1.313479
0.402832	1.339607
0.402930	1.351004
0.403027	1.348820
0.403125	1.350899
0.403223	1.350218
0.403320	1.339045
0.403418	1.371889
0.403516	1.382877
0.403613	1.382985
0.403711	1.385427
0.403809	1.374466
0.403906	1.332355
0.404004	1.315315
0.404102	1.319035
0.404199	1.358305
0.404297	1.360157
0.404395	1.304558
0.404492	1.307110
0.404590	1.297464
0.404687	1.315315
0.404785	1.354175
0.404883	1.396851
0.404980	1.391696
0.405078	1.373697
0.405176	1.359883
0.405273	1.358286
0.405371	1.347056
0.405469	1.334731
0.405566	1.334521
0.405664	1.346381
0.405762	1.364686
0.405859	1.405521
0.405957	1.446421
0.406055	1.442402
0.406152	1.413825
0.406250	1.388028
0.406348	1.373305
0.406445	1.367059
0.406543	1.377511
0.406641	1.396445
0.406738	1.396988
0.406836	1.382998
0.406934	1.379691
0.407031	1.407824
0.407129	1.444559
0.407227	1.462238
0.407324	1.482709
0.407422	1.502046
0.407520	1.518576
0.407617	1.530875
0.407715	1.541209
0.407812	1.581662
0.407910	1.573929
0.408008	1.566452
0.408105	1.572472
0.408203	1.545372
0.408301	1.562133
0.408398	1.580133
0.408496	1.574452
0.408594	1.543328
0.408691	1.534795
0.408789	1.517765
0.408887	1.527946
0.408984	1.583038
0.409082	1.632531
0.409180	1.659158
0.409277	1.660661
0.409375	1.647806
0.409473	1.679839
0.409570	1.718070
0.409668	1.679246
0.409766	1.700221
0.409863	1.688450
0.409961	1.684858
0.410059	1.680472
0.410156	1.670904
0.410254	1.676080
0.410352	1.674017
0.410449	1.677665
0.410547	1.660202
0.410645	1.649791
0.410742	1.645529
0.410840	1.638110
0.410937	1.640375
0.411035	1.642219
0.411133	1.636806
0.411230	1.658543
0.411328	1.667909
0.411426	1.661990
0.411523	1.651961
0.411621	1.634788
0.411719	1.626805
0.411816	1.624844
0.411914	1.624337
0.412012	1.599995
0.412109	1.592760
0.412207	1.589045
0.412305	1.576947
0.412402	1.557395
0.412500	1.557492
0.412598	1.555694
0.412695	1.535400
0.412793	1.505228
0.412891	1.508065
0.412988	1.510297
0.413086	1.501637
0.413184	1.477704
0.413281	1.466364
0.413379	1.452721
0.413477	1.457515
0.413574	1.456980
0.413672	1.454346
0.413770	1.466135
0.413867	1.494011
0.413965	1.511247
0.414062	1.503552
0.414160	1.493086
0.414258	1.495929
0.414355	1.476960
0.414453	1.440710
0.414551	1.413645
0.414648	1.399832
0.414746	1.398228
0.414844	1.391118
0.414941	1.379765
0.415039	1.363819
0.415137	1.353145
0.415234	1.346528
0.415332	1.342804
0.415430	1.338877
0.415527	1.336086
0.415625	1.334474
0.415723	1.337683
0.415820	1.345272
0.415918	1.353900
0.416016	1.358343
0.416113	1.353870
0.416211	1.335976
0.416309	1.316915
0.416406	1.312118
0.416504	1.342350
0.416602	1.373598
0.416699	1.377367
0.416797	1.368777
0.416895	1.370855
0.416992	1.404124
0.417090	1.434777
0.417187	1.423078
0.417285	1.475039
0.417383	1.505916
0.417480	1.487095
0.417578	1.471716
0.417676	1.513202
0.417773	1.563539
0.417871	1.561779
0.417969	1.564451
0.418066	1.568500
0.418164	1.560210
0.418262	1.552879
0.418359	1.551565
0.418457	1.558720
0.418555	1.561694
0.418652	1.563992
0.418750	1.565935
0.418848	1.571684
0.418945	1.591190
0.419043	1.591066
0.419141	1.586223
0.419238	1.591771
0.419336	1.600306
0.419434	1.604545
0.419531	1.607958
0.419629	1.608592
0.419727	1.613944
0.419824	1.596780
0.419922	1.571117
0.420020	1.586187
0.420117	1.587370
0.420215	1.586514
0.420312	1.584677
0.420410	1.586032
0.420508	1.585365
0.420605	1.588580
0.420703	1.586716
0.420801	1.579881
0.420898	1.572402
0.420996	1.573011
0.421094	1.570639
0.421191	1.562811
0.421289	1.557769
0.421387	1.536786
0.421484	1.490952
0.421582	1.458809
0.421680	1.438814
0.421777	1.474033
0.421875	1.517251
0.421973	1.525369
0.422070	1.468388
0.422168	1.440539
0.422266	1.454332
0.422363	1.433025
0.422461	1.402197
0.422559	1.394146
0.422656	1.427338
0.422754	1.452867
0.422852	1.460629
0.422949	1.446560
0.423047	1.430055
0.423145	1.434876
0.423242	1.439752
0.423340	1.439328
0.423437	1.435183
0.423535	1.405238
0.423633	1.365434
0.423730	1.379874
0.423828	1.389871
0.423926	1.355736
0.424023	1.336660
0.424121	1.324954
0.424219	1.331596
0.424316	1.311511
0.424414	1.304048
0.424512	1.297976
0.424609	1.276609
0.424707	1.267542
0.424805	1.334395
0.424902	1.422946
0.425000	1.453332
0.425098	1.462623
0.425195	1.440594
0.425293	1.429025
0.425391	1.450007
0.425488	1.465431
0.425586	1.467147
0.425684	1.484470
0.425781	1.514365
0.425879	1.516937
0.425977	1.495388
0.426074	1.486563
0.426172	1.474060
0.426270	1.457339
0.426367	1.454418
0.426465	1.445093
0.426562	1.424010
0.426660	1.415711
0.426758	1.425340
0.426855	1.431976
0.426953	1.442839
0.427051	1.416155
0.427148	1.380410
0.427246	1.380865
0.427344	1.365245
0.427441	1.341502
0.427539	1.333979
0.427637	1.352431
0.427734	1.365622
0.427832	1.362197
0.427930	1.353596
0.428027	1.329766
0.428125	1.303037
0.428223	1.297197
0.428320	1.324265
0.428418	1.350927
0.428516	1.358059
0.428613	1.352666
0.428711	1.344079
0.428809	1.326961
0.428906	1.323279
0.429004	1.331986
0.429102	1.324699
0.429199	1.305785
0.429297	1.286552
0.429395	1.278543
0.429492	1.286996
0.429590	1.317697
0.429687	1.344906
0.429785	1.319862
0.429883	1.284741
0.429980	1.332764
0.430078	1.380014
0.430176	1.403925
0.430273	1.409403
0.430371	1.461875
0.430469	1.464180
0.430566	1.450084
0.430664	1.441465
0.430762	1.417157
0.430859	1.386100
0.430957	1.350649
0.431055	1.363852
0.431152	1.430097
0.431250	1.457335
0.431348	1.455762
0.431445	1.445390
0.431543	1.436596
0.431641	1.434768
0.431738	1.438772
0.431836	1.437775
0.431934	1.439217
0.432031	1.487418
0.432129	1.532249
0.432227	1.502973
0.432324	1.468635
0.432422	1.436826
0.432520	1.428527
0.432617	1.481004
0.432715	1.448817
0.432812	1.439753
0.432910	1.430002
0.433008	1.422653
0.433105	1.443725
0.433203	1.466084
0.433301	1.484235
0.433398	1.497990
0.433496	1.463126
0.433594	1.446862
0.433691	1.463200
0.433789	1.491209
0.433887	1.459296
0.433984	1.452590
0.434082	1.466757
0.434180	1.500930
0.434277	1.537232
0.434375	1.482011
0.434473	1.393456
0.434570	1.354311
0.434668	1.311573
0.434766	1.360010
0.434863	1.475181
0.434961	1.490859
0.435059	1.467173
0.435156	1.447892
0.435254	1.434493
0.435352	1.416037
0.435449	1.394438
0.435547	1.379871
0.435645	1.384123
0.435742	1.389260
0.435840	1.385341
0.435937	1.374719
0.436035	1.366232
0.436133	1.365908
0.436230	1.378254
0.436328	1.395874
0.436426	1.426386
0.436523	1.439003
0.436621	1.419881
0.436719	1.418383
0.436816	1.448858
0.436914	1.487393
0.437012	1.496131
0.437109	1.485505
0.437207	1.451733
0.437305	1.416255
0.437402	1.405083
0.437500	1.422887
0.437598	1.465117
0.437695	1.493472
0.437793	1.489448
0.437891	1.472447
0.437988	1.455476
0.438086	1.459434
0.438184	1.455851
0.438281	1.479670
0.438379	1.505696
0.438477	1.529055
0.438574	1.502424
0.438672	1.475617
0.438770	1.508526
0.438867	1.498888
0.438965	1.495269
0.439062	1.505163
0.439160	1.486729
0.439258	1.487449
0.439355	1.482571
0.439453	1.461366
0.439551	1.438548
0.439648	1.417292
0.439746	1.413516
0.439844	1.386005
0.439941	1.328142
0.440039	1.283225
0.440137	1.303497
0.440234	1.347174
0.440332	1.414409
0.440430	1.458045
0.440527	1.461579
0.440625	1.445943
0.440723	1.464605
0.440820	1.473931
0.440918	1.480400
0.441016	1.475273
0.441113	1.455439
0.441211	1.444710
0.441309	1.426857
0.441406	1.456737
0.441504	1.466083
0.441602	1.424681
0.441699	1.429194
0.441797	1.424826
0.441895	1.364017
0.441992	1.360286
0.442090	1.359705
0.442187	1.341532
0.442285	1.355767
0.442383	1.384695
0.442480	1.410471
0.442578	1.461664
0.442676	1.481817
0.442773	1.496421
0.442871	1.501334
0.442969	1.485425
0.443066	1.503734
0.443164	1.523626
0.443262	1.519375
0.443359	1.523535
0.443457	1.557832
0.443555	1.593211
0.443652	1.628749
0.443750	1.604102
0.443848	1.526823
0.443945	1.444140
0.444043	1.363666
0.444141	1.331768
0.444238	1.321870
0.444336	1.319834
0.444434	1.333499
0.444531	1.400582
0.444629	1.400282
0.444727	1.385108
0.444824	1.411418
0.444922	1.419838
0.445020	1.412323
0.445117	1.403401
0.445215	1.417400
0.445312	1.432347
0.445410	1.474371
0.445508	1.541980
0.445605	1.562066
0.445703	1.525450
0.445801	1.402801
0.445898	1.355158
0.445996	1.424230
0.446094	1.490592
0.446191	1.537642
0.446289	1.548193
0.446387	1.528044
0.446484	1.448877
0.446582	1.419455
0.446680	1.448251
0.446777	1.506083
0.446875	1.509959
0.446973	1.461772
0.447070	1.379583
0.447168	1.409634
0.447266	1.412706
0.447363	1.398283
0.447461	1.385421
0.447559	1.336289
0.447656	1.326912
0.447754	1.313128
0.447852	1.329876
0.447949	1.403398
0.448047	1.473720
0.448145	1.513829
0.448242	1.531287
0.448340	1.574009
0.448437	1.548735
0.448535	1.468494
0.448633	1.480320
0.448730	1.491098
0.448828	1.536675
0.448926	1.554938
0.449023	1.597266
0.449121	1.579331
0.449219	1.560757
0.449316	1.603444
0.449414	1.623522
0.449512	1.554305
0.449609	1.521611
0.449707	1.509543
0.449805	1.437317
0.449902	1.401233
0.450000	1.419568
0.450098	1.483724
0.450195	1.518288
0.450293	1.548508
0.450391	1.504138
0.450488	1.513071
0.450586	1.560973
0.450684	1.587489
0.450781	1.597806
0.450879	1.575872
0.450977	1.582983
0.451074	1.602975
0.451172	1.633864
0.451270	1.606693
0.451367	1.626661
0.451465	1.632635
0.451562	1.612327
0.451660	1.600001
0.451758	1.601449
0.451855	1.593374
0.451953	1.575845
0.452051	1.571509
0.452148	1.521201
0.452246	1.487508
0.452344	1.467862
0.452441	1.449818
0.452539	1.442457
0.452637	1.441955
0.452734	1.448913
0.452832	1.449221
0.452930	1.445085
0.453027	1.445256
0.453125	1.449121
0.453223	1.469994
0.453320	1.470453
0.453418	1.479741
0.453516	1.507558
0.453613	1.495133
0.453711	1.465435
0.453809	1.441738
0.453906	1.472718
0.454004	1.473566
0.454102	1.458377
0.454199	1.448226
0.454297	1.414348
0.454395	1.351746
0.454492	1.305747
0.454590	1.317449
0.454687	1.330985
0.454785	1.332631
0.454883	1.358006
0.454980	1.399622
0.455078	1.444456
0.455176	1.459238
0.455273	1.447043
0.455371	1.425949
0.455469	1.394300
0.455566	1.356761
0.455664	1.335191
0.455762	1.328681
0.455859	1.314870
0.455957	1.289992
0.456055	1.285282
0.456152	1.328729
0.456250	1.391148
0.456348	1.422576
0.456445	1.426054
0.456543	1.415804
0.456641	1.408163
0.456738	1.413723
0.456836	1.414811
0.456934	1.395822
0.457031	1.394727
0.457129	1.404698
0.457227	1.399510
0.457324	1.386430
0.457422	1.391108
0.457520	1.421965
0.457617	1.450213
0.457715	1.463156
0.457812	1.457168
0.457910	1.447570
0.458008	1.473785
0.458105	1.472295
0.458203	1.427699
0.458301	1.376974
0.458398	1.414265
0.458496	1.463500
0.458594	1.475681
0.458691	1.488107
0.458789	1.489825
0.458887	1.486602
0.458984	1.491566
0.459082	1.496717
0.459180	1.525766
0.459277	1.538414
0.459375	1.525190
0.459473	1.531278
0.459570	1.554910
0.459668	1.523994
0.459766	1.567468
0.459863	1.577869
0.459961	1.552956
0.460059	1.548638
0.460156	1.557623
0.460254	1.556438
0.460352	1.523186
0.460449	1.521344
0.460547	1.529049
0.460645	1.553375
0.460742	1.545130
0.460840	1.546396
0.460937	1.558518
0.461035	1.550779
0.461133	1.546869
0.461230	1.525678
0.461328	1.502016
0.461426	1.498650
0.461523	1.484290
0.461621	1.468119
0.461719	1.470964
0.461816	1.470177
0.461914	1.454491
0.462012	1.439312
0.462109	1.427588
0.462207	1.394357
0.462305	1.367957
0.462402	1.354924
0.462500	1.367214
0.462598	1.408208
0.462695	1.442407
0.462793	1.434343
0.462891	1.431864
0.462988	1.439806
0.463086	1.428163
0.463184	1.417398
0.463281	1.383514
0.463379	1.355891
0.463477	1.370472
0.463574	1.393555
0.463672	1.419615
0.463770	1.440149
0.463867	1.481388
0.463965	1.425479
0.464062	1.390944
0.464160	1.409165
0.464258	1.389823
0.464355	1.424488
0.464453	1.451190
0.464551	1.433020
0.464648	1.397048
0.464746	1.372091
0.464844	1.364687
0.464941	1.388716
0.465039	1.444450
0.465137	1.460898
0.465234	1.454260
0.465332	1.440437
0.465430	1.452108
0.465527	1.511830
0.465625	1.556503
0.465723	1.549813
0.465820	1.540927
0.465918	1.471287
0.466016	1.527515
0.466113	1.625534
0.466211	1.572036
0.466309	1.502000
0.466406	1.465717
0.466504	1.470525
0.466602	1.531377
0.466699	1.577868
0.466797	1.564515
0.466895	1.560342
0.466992	1.548580
0.467090	1.527673
0.467187	1.504017
0.467285	1.488466
0.467383	1.489053
0.467480	1.494757
0.467578	1.494176
0.467676	1.506756
0.467773	1.513272
0.467871	1.529201
0.467969	1.559111
0.468066	1.543440
0.468164	1.509782
0.468262	1.522222
0.468359	1.542532
0.468457	1.511290
0.468555	1.456270
0.468652	1.408713
0.468750	1.399553
0.468848	1.421711
0.468945	1.420429
0.469043	1.397105
0.469141	1.360747
0.469238	1.319573
0.469336	1.290820
0.469434	1.285688
0.469531	1.289260
0.469629	1.296908
0.469727	1.324592
0.469824	1.357496
0.469922	1.392293
0.470020	1.422873
0.470117	1.449479
0.470215	1.474331
0.470312	1.489447
0.470410	1.501722
0.470508	1.519775
0.470605	1.516283
0.470703	1.494055
0.470801	1.481336
0.470898	1.447852
0.470996	1.415419
0.471094	1.380240
0.471191	1.349316
0.471289	1.324230
0.471387	1.308247
0.471484	1.298206
0.471582	1.301687
0.471680	1.318147
0.471777	1.345222
0.471875	1.364674
0.471973	1.393108
0.472070	1.426951
0.472168	1.441408
0.472266	1.447157
0.472363	1.415546
0.472461	1.395285
0.472559	1.399413
0.472656	1.405225
0.472754	1.379319
0.472852	1.364771
0.472949	1.333478
0.473047	1.358314
0.473145	1.435326
0.473242	1.478030
0.473340	1.454597
0.473437	1.461490
0.473535	1.473596
0.473633	1.486871
0.473730	1.485440
0.473828	1.490580
0.473926	1.470650
0.474023	1.458692
0.474121	1.509008
0.474219	1.506839
0.474316	1.501225
0.474414	1.470560
0.474512	1.449661
0.474609	1.468169
0.474707	1.483404
0.474805	1.503490
0.474902	1.537265
0.475000	1.553509
0.475098	1.534272
0.475195	1.533135
0.475293	1.537332
0.475391	1.543618
0.475488	1.550800
0.475586	1.542954
0.475684	1.561206
0.475781	1.584922
0.475879	1.573851
0.475977	1.577609
0.476074	1.555329
0.476172	1.480375
0.476270	1.483115
0.476367	1.521277
0.476465	1.552784
0.476562	1.553718
0.476660	1.532259
0.476758	1.570778
0.476855	1.561600
0.476953	1.559439
0.477051	1.532168
0.477148	1.494850
0.477246	1.516272
0.477344	1.564573
0.477441	1.589036
0.477539	1.612164
0.477637	1.605071
0.477734	1.597608
0.477832	1.575887
0.477930	1.554789
0.478027	1.577249
0.478125	1.569744
0.478223	1.566469
0.478320	1.564045
0.478418	1.570211
0.478516	1.592717
0.478613	1.603961
0.478711	1.597483
0.478809	1.594762
0.478906	1.608677
0.479004	1.588856
0.479102	1.593464
0.479199	1.606479
0.479297	1.607365
0.479395	1.573451
0.479492	1.567086
0.479590	1.564261
0.479687	1.540567
0.479785	1.524721
0.479883	1.533619
0.479980	1.527334
0.480078	1.573784
0.480176	1.593410
0.480273	1.577786
0.480371	1.574988
0.480469	1.544998
0.480566	1.486503
0.480664	1.467286
0.480762	1.512738
0.480859	1.527529
0.480957	1.516671
0.481055	1.546425
0.481152	1.554623
0.481250	1.539765
0.481348	1.525780
0.481445	1.543319
0.481543	1.567216
0.481641	1.544649
0.481738	1.575067
0.481836	1.563837
0.481934	1.578467
0.482031	1.584908
0.482129	1.590479
0.482227	1.596557
0.482324	1.598495
0.482422	1.585829
0.482520	1.563639
0.482617	1.566337
0.482715	1.563099
0.482812	1.556175
0.482910	1.555112
0.483008	1.575765
0.483105	1.559456
0.483203	1.588530
0.483301	1.602638
0.483398	1.583153
0.483496	1.570845
0.483594	1.573102
0.483691	1.572532
0.483789	1.562680
0.483887	1.528601
0.483984	1.509171
0.484082	1.496269
0.484180	1.521492
0.484277	1.544045
0.484375	1.514258
0.484473	1.517558
0.484570	1.491009
0.484668	1.454345
0.484766	1.447897
0.484863	1.478796
0.484961	1.499010
0.485059	1.537843
0.485156	1.562167
0.485254	1.564103
0.485352	1.551176
0.485449	1.590806
0.485547	1.607553
0.485645	1.564457
0.485742	1.580671
0.485840	1.562872
0.485937	1.533304
0.486035	1.525733
0.486133	1.480754
0.486230	1.430281
0.486328	1.436375
0.486426	1.460772
0.486523	1.483545
0.486621	1.487663
0.486719	1.522358
0.486816	1.512863
0.486914	1.488661
0.487012	1.481366
0.487109	1.462495
0.487207	1.457583
0.487305	1.444598
0.487402	1.429920
0.487500	1.414358
0.487598	1.399681
0.487695	1.384971
0.487793	1.362779
0.487891	1.337619
0.487988	1.328922
0.488086	1.320900
0.488184	1.302022
0.488281	1.275748
0.488379	1.248272
0.488477	1.228150
0.488574	1.230081
0.488672	1.255663
0.488770	1.289522
0.488867	1.331119
0.488965	1.394729
0.489062	1.401857
0.489160	1.400475
0.489258	1.409818
0.489355	1.399401
0.489453	1.387647
0.489551	1.383769
0.489648	1.397626
0.489746	1.405173
0.489844	1.429471
0.489941	1.445840
0.490039	1.457756
0.490137	1.524752
0.490234	1.541774
0.490332	1.517733
0.490430	1.517629
0.490527	1.494424
0.490625	1.460624
0.490723	1.489149
0.490820	1.537071
0.490918	1.513180
0.491016	1.496853
0.491113	1.461136
0.491211	1.475505
0.491309	1.531791
0.491406	1.563359
0.491504	1.585465
0.491602	1.576615
0.491699	1.556262
0.491797	1.591165
0.491895	1.605709
0.491992	1.605679
0.492090	1.604557
0.492187	1.615192
0.492285	1.610342
0.492383	1.590136
0.492480	1.552647
0.492578	1.547937
0.492676	1.570095
0.492773	1.602396
0.492871	1.592764
0.492969	1.594418
0.493066	1.597525
0.493164	1.627260
0.493262	1.609599
0.493359	1.590105
0.493457	1.601197
0.493555	1.586710
0.493652	1.564298
0.493750	1.584010
0.493848	1.594932
0.493945	1.588890
0.494043	1.573010
0.494141	1.531775
0.494238	1.507429
0.494336	1.498279
0.494434	1.494920
0.494531	1.483848
0.494629	1.496797
0.494727	1.532099
0.494824	1.543370
0.494922	1.506404
0.495020	1.460423
0.495117	1.424533
0.495215	1.383191
0.495312	1.341874
0.495410	1.330256
0.495508	1.351546
0.495605	1.358001
0.495703	1.356566
0.495801	1.346659
0.495898	1.318900
0.495996	1.340076
0.496094	1.338896
0.496191	1.318933
0.496289	1.304189
0.496387	1.263854
0.496484	1.274877
0.496582	1.379192
0.496680	1.403138
0.496777	1.381979
0.496875	1.348801
0.496973	1.383562
0.497070	1.425961
0.497168	1.441675
0.497266	1.464896
0.497363	1.461493
0.497461	1.446584
0.497559	1.419847
0.497656	1.435971
0.497754	1.442528
0.497852	1.433789
0.497949	1.466257
0.498047	1.525316
0.498145	1.494875
0.498242	1.469951
0.498340	1.535228
0.498437	1.523654
0.498535	1.518909
0.498633	1.519728
0.498730	1.499158
0.498828	1.485154
0.498926	1.477192
0.499023	1.468156
0.499121	1.475891
0.499219	1.485295
0.499316	1.523814
0.499414	1.567662
0.499512	1.582042
0.499609	1.571819
0.499707	1.542771
0.499805	1.493915
0.499902	1.509671
0.500000	1.543552
0.500098	1.554750
0.500195	1.578779
0.500293	1.586751
0.500391	1.570432
0.500488	1.580911
0.500586	1.577005
0.500684	1.561720
0.500781	1.575217
0.500879	1.566523
0.500977	1.570684
0.501074	1.565062
0.501172	1.550399
0.501270	1.544203
0.501367	1.543952
0.501465	1.521545
0.501562	1.514042
0.501660	1.524332
0.501758	1.557416
0.501855	1.568255
0.501953	1.572733
0.502051	1.563538
0.502148	1.563975
0.502246	1.557239
0.502344	1.550323
0.502441	1.543785
0.502539	1.541612
0.502637	1.529135
0.502734	1.510505
0.502832	1.494727
0.502930	1.483582
0.503027	1.482452
0.503125	1.492222
0.503223	1.502691
0.503320	1.509763
0.503418	1.499811
0.503516	1.488601
0.503613	1.479410
0.503711	1.478668
0.503809	1.472368
0.503906	1.466614
0.504004	1.458954
0.504102	1.459151
0.504199	1.458030
0.504297	1.453657
0.504395	1.444824
0.504492	1.435562
0.504590	1.428935
0.504687	1.430908
0.504785	1.436976
0.504883	1.447923
0.504980	1.456194
0.505078	1.474541
0.505176	1.489251
0.505273	1.508451
0.505371	1.510235
0.505469	1.500543
0.505566	1.481950
0.505664	1.500657
0.505762	1.532346
0.505859	1.516034
0.505957	1.526957
0.506055	1.515116
0.506152	1.521353
0.506250	1.537999
0.506348	1.511554
0.506445	1.482996
0.506543	1.467962
0.506641	1.488811
0.506738	1.490640
0.506836	1.470191
0.506934	1.466634
0.507031	1.439363
0.507129	1.416747
0.507227	1.395740
0.507324	1.391107
0.507422	1.383001
0.507520	1.380919
0.507617	1.371417
0.507715	1.365284
0.507812	1.364430
0.507910	1.360576
0.508008	1.354812
0.508105	1.353872
0.508203	1.363125
0.508301	1.378061
0.508398	1.395673
0.508496	1.411670
0.508594	1.442488
0.508691	1.463215
0.508789	1.451912
0.508887	1.436220
0.508984	1.430612
0.509082	1.428497
0.509180	1.434158
0.509277	1.458279
0.509375	1.475767
0.509473	1.479008
0.509570	1.474064
0.509668	1.477543
0.509766	1.475651
0.509863	1.470740
0.509961	1.485145
0.510059	1.510423
0.510156	1.522541
0.510254	1.517654
0.510352	1.518819
0.510449	1.548306
0.510547	1.558196
0.510645	1.557778
0.510742	1.564519
0.510840	1.579435
0.510937	1.592399
0.511035	1.583503
0.511133	1.598703
0.511230	1.569333
0.511328	1.535052
0.511426	1.527546
0.511523	1.520106
0.511621	1.521954
0.511719	1.530834
0.511816	1.540213
0.511914	1.550492
0.512012	1.559925
0.512109	1.571225
0.512207	1.577778
0.512305	1.582307
0.512402	1.594596
0.512500	1.602049
0.512598	1.605665
0.512695	1.584360
0.512793	1.551090
0.512891	1.546787
0.512988	1.545747
0.513086	1.536390
0.513184	1.519554
0.513281	1.506060
0.513379	1.492985
0.513477	1.473756
0.513574	1.453482
0.513672	1.440923
0.513770	1.439466
0.513867	1.404812
0.513965	1.402112
0.514062	1.375301
0.514160	1.378187
0.514258	1.430483
0.514355	1.419835
0.514453	1.390338
0.514551	1.408088
0.514648	1.456410
0.514746	1.460292
0.514844	1.482011
0.514941	1.519374
0.515039	1.549627
0.515137	1.556819
0.515234	1.553337
0.515332	1.564108
0.515430	1.575830
0.515527	1.585528
0.515625	1.559021
0.515723	1.541070
0.515820	1.532157
0.515918	1.536240
0.516016	1.553598
0.516113	1.552145
0.516211	1.526191
0.516309	1.498884
0.516406	1.488495
0.516504	1.499560
0.516602	1.501483
0.516699	1.501265
0.516797	1.482049
0.516895	1.457138
0.516992	1.434155
0.517090	1.419688
0.517187	1.402569
0.517285	1.376534
0.517383	1.348685
0.517480	1.323806
0.517578	1.301778
0.517676	1.298555
0.517773	1.312160
0.517871	1.326168
0.517969	1.335202
0.518066	1.352129
0.518164	1.364202
0.518262	1.410618
0.518359	1.438740
0.518457	1.443201
0.518555	1.473192
0.518652	1.459898
0.518750	1.477217
0.518848	1.485790
0.518945	1.503126
0.519043	1.507630
0.519141	1.468679
0.519238	1.441400
0.519336	1.470535
0.519434	1.496069
0.519531	1.492768
0.519629	1.460440
0.519727	1.411671
0.519824	1.405218
0.519922	1.394468
0.520020	1.375690
0.520117	1.372959
0.520215	1.351177
0.520312	1.320179
0.520410	1.293698
0.520508	1.274109
0.520605	1.259613
0.520703	1.247880
0.520801	1.239669
0.520898	1.233979
0.520996	1.230629
0.521094	1.232638
0.521191	1.246321
0.521289	1.281090
0.521387	1.316249
0.521484	1.333087
0.521582	1.349299
0.521680	1.371017
0.521777	1.390387
0.521875	1.397411
0.521973	1.393478
0.522070	1.392279
0.522168	1.386217
0.522266	1.363503
0.522363	1.368886
0.522461	1.389978
0.522559	1.410107
0.522656	1.414003
0.522754	1.414016
0.522852	1.422282
0.522949	1.412679
0.523047	1.394244
0.523145	1.381124
0.523242	1.380117
0.523340	1.402566
0.523437	1.413599
0.523535	1.398680
0.523633	1.421233
0.523730	1.451466
0.523828	1.436887
0.523926	1.400641
0.524023	1.390892
0.524121	1.405471
0.524219	1.424961
0.524316	1.427751
0.524414	1.402809
0.524512	1.396317
0.524609	1.393474
0.524707	1.391796
0.524805	1.391818
0.524902	1.388896
0.525000	1.386918
0.525098	1.392226
0.525195	1.401032
0.525293	1.412571
0.525391	1.421765
0.525488	1.421322
0.525586	1.426021
0.525684	1.426927
0.525781	1.425157
0.525879	1.409940
0.525977	1.380978
0.526074	1.368706
0.526172	1.397707
0.526270	1.395655
0.526367	1.402098
0.526465	1.423500
0.526562	1.418152
0.526660	1.398203
0.526758	1.413882
0.526855	1.444885
0.526953	1.468103
0.527051	1.485060
0.527148	1.464757
0.527246	1.435911
0.527344	1.401366
0.527441	1.395624
0.527539	1.423319
0.527637	1.423308
0.527734	1.415275
0.527832	1.420797
0.527930	1.411426
0.528027	1.404229
0.528125	1.409516
0.528223	1.409275
0.528320	1.391794
0.528418	1.385820
0.528516	1.469859
0.528613	1.461703
0.528711	1.454762
0.528809	1.462667
0.528906	1.414026
0.529004	1.351083
0.529102	1.341892
0.529199	1.338256
0.529297	1.425072
0.529395	1.401376
0.529492	1.402369
0.529590	1.380440
0.529687	1.437612
0.529785	1.443610
0.529883	1.362377
0.529980	1.328231
0.530078	1.335202
0.530176	1.380118
0.530273	1.449795
0.530371	1.472338
0.530469	1.377431
0.530566	1.314925
0.530664	1.286884
0.530762	1.344132
0.530859	1.466429
0.530957	1.520923
0.531055	1.493348
0.531152	1.486453
0.531250	1.456974
0.531348	1.385463
0.531445	1.341682
0.531543	1.368797
0.531641	1.388376
0.531738	1.393490
0.531836	1.385651
0.531934	1.399255
0.532031	1.455713
0.532129	1.453027
0.532227	1.443561
0.532324	1.420070
0.532422	1.374900
0.532520	1.341091
0.532617	1.317703
0.532715	1.308106
0.532812	1.370213
0.532910	1.442743
0.533008	1.409188
0.533105	1.380755
0.533203	1.373047
0.533301	1.407351
0.533398	1.459087
0.533496	1.463960
0.533594	1.480736
0.533691	1.512386
0.533789	1.568897
0.533887	1.602834
0.533984	1.597826
0.534082	1.588871
0.534180	1.610508
0.534277	1.617025
0.534375	1.624756
0.534473	1.570491
0.534570	1.558484
0.534668	1.594132
0.534766	1.589808
0.534863	1.600292
0.534961	1.632994
0.535059	1.663790
0.535156	1.634401
0.535254	1.630814
0.535352	1.619612
0.535449	1.609582
0.535547	1.593496
0.535645	1.560380
0.535742	1.529558
0.535840	1.528832
0.535937	1.532944
0.536035	1.525618
0.536133	1.523035
0.536230	1.526258
0.536328	1.532658
0.536426	1.526417
0.536523	1.519900
0.536621	1.507080
0.536719	1.485989
0.536816	1.466551
0.536914	1.453561
0.537012	1.432497
0.537109	1.417129
0.537207	1.403432
0.537305	1.376369
0.537402	1.338929
0.537500	1.331625
0.537598	1.341382
0.537695	1.333351
0.537793	1.310992
0.537891	1.284329
0.537988	1.278409
0.538086	1.301677
0.538184	1.316572
0.538281	1.315072
0.538379	1.325425
0.538477	1.322369
0.538574	1.313476
0.538672	1.324711
0.538770	1.339930
0.538867	1.344535
0.538965	1.348256
0.539062	1.358105
0.539160	1.391504
0.539258	1.408896
0.539355	1.386418
0.539453	1.357196
0.539551	1.313427
0.539648	1.278403
0.539746	1.285807
0.539844	1.352197
0.539941	1.402108
0.540039	1.401452
0.540137	1.403470
0.540234	1.423582
0.540332	1.436220
0.540430	1.413165
0.540527	1.387625
0.540625	1.363406
0.540723	1.362822
0.540820	1.371886
0.540918	1.368691
0.541016	1.412876
0.541113	1.411755
0.541211	1.398541
0.541309	1.398712
0.541406	1.402682
0.541504	1.408749
0.541602	1.391855
0.541699	1.381581
0.541797	1.356251
0.541895	1.335283
0.541992	1.284297
0.542090	1.313748
0.542187	1.434533
0.542285	1.445105
0.542383	1.440092
0.542480	1.435094
0.542578	1.451813
0.542676	1.478164
0.542773	1.453236
0.542871	1.443917
0.542969	1.464781
0.543066	1.457355
0.543164	1.448656
0.543262	1.468920
0.543359	1.491698
0.543457	1.490055
0.543555	1.501182
0.543652	1.493015
0.543750	1.472911
0.543848	1.454357
0.543945	1.446686
0.544043	1.429844
0.544141	1.426428
0.544238	1.439903
0.544336	1.448414
0.544434	1.439361
0.544531	1.437938
0.544629	1.452192
0.544727	1.450135
0.544824	1.421532
0.544922	1.398581
0.545020	1.398910
0.545117	1.409472
0.545215	1.423834
0.545312	1.429778
0.545410	1.449915
0.545508	1.455561
0.545605	1.468705
0.545703	1.485196
0.545801	1.457437
0.545898	1.521969
0.545996	1.568260
0.546094	1.586919
0.546191	1.588019
0.546289	1.587641
0.546387	1.585381
0.546484	1.551048
0.546582	1.512665
0.546680	1.528341
0.546777	1.589439
0.546875	1.595193
0.546973	1.585760
0.547070	1.573713
0.547168	1.581247
0.547266	1.604177
0.547363	1.609633
0.547461	1.612748
0.547559	1.613249
0.547656	1.622456
0.547754	1.614726
0.547852	1.612246
0.547949	1.614078
0.548047	1.617369
0.548145	1.606542
0.548242	1.614474
0.548340	1.635788
0.548437	1.632330
0.548535	1.620614
0.548633	1.612001
0.548730	1.598630
0.548828	1.597352
0.548926	1.585264
0.549023	1.572896
0.549121	1.566457
0.549219	1.557197
0.549316	1.548034
0.549414	1.549909
0.549512	1.541103
0.549609	1.525116
0.549707	1.510121
0.549805	1.479966
0.549902	1.445192
0.550000	1.410546
0.550098	1.377116
0.550195	1.341296
0.550293	1.312967
0.550391	1.294434
0.550488	1.288042
0.550586	1.294517
0.550684	1.320727
0.550781	1.351841
0.550879	1.381614
0.550977	1.394551
0.551074	1.393504
0.551172	1.392399
0.551270	1.387018
0.551367	1.366945
0.551465	1.334515
0.551562	1.308060
0.551660	1.294949
0.551758	1.294334
0.551855	1.295359
0.551953	1.294102
0.552051	1.289323
0.552148	1.279412
0.552246	1.265405
0.552344	1.255056
0.552441	1.252008
0.552539	1.253711
0.552637	1.255697
0.552734	1.260131
0.552832	1.273081
0.552930	1.297426
0.553027	1.332631
0.553125	1.373377
0.553223	1.414080
0.553320	1.439938
0.553418	1.458051
0.553516	1.476983
0.553613	1.493233
0.553711	1.509745
0.553809	1.511484
0.553906	1.512961
0.554004	1.517921
0.554102	1.519450
0.554199	1.513973
0.554297	1.512058
0.554395	1.521987
0.554492	1.524949
0.554590	1.513211
0.554687	1.495997
0.554785	1.504873
0.554883	1.543384
0.554980	1.564850
0.555078	1.561167
0.555176	1.520035
0.555273	1.518607
0.555371	1.528375
0.555469	1.503262
0.555566	1.564688
0.555664	1.582471
0.555762	1.570184
0.555859	1.590358
0.555957	1.598836
0.556055	1.610326
0.556152	1.582738
0.556250	1.581181
0.556348	1.611067
0.556445	1.625723
0.556543	1.658768
0.556641	1.694129
0.556738	1.624695
0.556836	1.636497
0.556934	1.580756
0.557031	1.511294
0.557129	1.502816
0.557227	1.525073
0.557324	1.551187
0.557422	1.541894
0.557520	1.570532
0.557617	1.566718
0.557715	1.525699
0.557812	1.513310
0.557910	1.458129
0.558008	1.373345
0.558105	1.353538
0.558203	1.336262
0.558301	1.339685
0.558398	1.344555
0.558496	1.393677
0.558594	1.448392
0.558691	1.456119
0.558789	1.493688
0.558887	1.539780
0.558984	1.562092
0.559082	1.566537
0.559180	1.542779
0.559277	1.568288
0.559375	1.586535
0.559473	1.602546
0.559570	1.594781
0.559668	1.605449
0.559766	1.588354
0.559863	1.561525
0.559961	1.569070
0.560059	1.583046
0.560156	1.565921
0.560254	1.549902
0.560352	1.542993
0.560449	1.615655
0.560547	1.625391
0.560645	1.591909
0.560742	1.569825
0.560840	1.601541
0.560937	1.644866
0.561035	1.601042
0.561133	1.566498
0.561230	1.528810
0.561328	1.481511
0.561426	1.468668
0.561523	1.452343
0.561621	1.427412
0.561719	1.442942
0.561816	1.484873
0.561914	1.491381
0.562012	1.494716
0.562109	1.536731
0.562207	1.533484
0.562305	1.507945
0.562402	1.526128
0.562500	1.550225
0.562598	1.586379
0.562695	1.606432
0.562793	1.561115
0.562891	1.548345
0.562988	1.540023
0.563086	1.571837
0.563184	1.581591
0.563281	1.569639
0.563379	1.568022
0.563477	1.563604
0.563574	1.563562
0.563672	1.555590
0.563770	1.585092
0.563867	1.582800
0.563965	1.571119
0.564062	1.581199
0.564160	1.572610
0.564258	1.549074
0.564355	1.544604
0.564453	1.576565
0.564551	1.583615
0.564648	1.559784
0.564746	1.517635
0.564844	1.478380
0.564941	1.500660
0.565039	1.494613
0.565137	1.477797
0.565234	1.469657
0.565332	1.471177
0.565430	1.496314
0.565527	1.516594
0.565625	1.544476
0.565723	1.532332
0.565820	1.551523
0.565918	1.564315
0.566016	1.542570
0.566113	1.511281
0.566211	1.478959
0.566309	1.480671
0.566406	1.513760
0.566504	1.523343
0.566602	1.506890
0.566699	1.483416
0.566797	1.467756
0.566895	1.454788
0.566992	1.434877
0.567090	1.416682
0.567187	1.403274
0.567285	1.402494
0.567383	1.404451
0.567480	1.406668
0.567578	1.410530
0.567676	1.412171
0.567773	1.411688
0.567871	1.403793
0.567969	1.393278
0.568066	1.376456
0.568164	1.360972
0.568262	1.354084
0.568359	1.346108
0.568457	1.332664
0.568555	1.314655
0.568652	1.301952
0.568750	1.297500
0.568848	1.303057
0.568945	1.326599
0.569043	1.357744
0.569141	1.369576
0.569238	1.358360
0.569336	1.333429
0.569434	1.301598
0.569531	1.265761
0.569629	1.234767
0.569727	1.217066
0.569824	1.212468
0.569922	1.210618
0.570020	1.208676
0.570117	1.216061
0.570215	1.257539
0.570312	1.304421
0.570410	1.324133
0.570508	1.335607
0.570605	1.349901
0.570703	1.369451
0.570801	1.383533
0.570898	1.400876
0.570996	1.408924
0.571094	1.411811
0.571191	1.409588
0.571289	1.397954
0.571387	1.379652
0.571484	1.379312
0.571582	1.353662
0.571680	1.343591
0.571777	1.386291
0.571875	1.394240
0.571973	1.375792
0.572070	1.386451
0.572168	1.403441
0.572266	1.411236
0.572363	1.407435
0.572461	1.409156
0.572559	1.424302
0.572656	1.401068
0.572754	1.377608
0.572852	1.371912
0.572949	1.370712
0.573047	1.368421
0.573145	1.363546
0.573242	1.356155
0.573340	1.359867
0.573437	1.382473
0.573535	1.394005
0.573633	1.406619
0.573730	1.413449
0.573828	1.405978
0.573926	1.400963
0.574023	1.396299
0.574121	1.397018
0.574219	1.394643
0.574316	1.377107
0.574414	1.353875
0.574512	1.342965
0.574609	1.360590
0.574707	1.391026
0.574805	1.415500
0.574902	1.428581
0.575000	1.449195
0.575098	1.467988
0.575195	1.476844
0.575293	1.469451
0.575391	1.413786
0.575488	1.363748
0.575586	1.355811
0.575684	1.379223
0.575781	1.406745
0.575879	1.423061
0.575977	1.462834
0.576074	1.475071
0.576172	1.479818
0.576270	1.474483
0.576367	1.460813
0.576465	1.476991
0.576562	1.497819
0.576660	1.519845
0.576758	1.532841
0.576855	1.542038
0.576953	1.540202
0.577051	1.519190
0.577148	1.503077
0.577246	1.484445
0.577344	1.483648
0.577441	1.498133
0.577539	1.506392
0.577637	1.503967
0.577734	1.497182
0.577832	1.482300
0.577930	1.467498
0.578027	1.456318
0.578125	1.452003
0.578223	1.444198
0.578320	1.432682
0.578418	1.417540
0.578516	1.400742
0.578613	1.396110
0.578711	1.399774
0.578809	1.403819
0.578906	1.399056
0.579004	1.403643
0.579102	1.420552
0.579199	1.430302
0.579297	1.429528
0.579395	1.419266
0.579492	1.412847
0.579590	1.416069
0.579687	1.419963
0.579785	1.419608
0.579883	1.429744
0.579980	1.438299
0.580078	1.430249
0.580176	1.426962
0.580273	1.432156
0.580371	1.436866
0.580469	1.442499
0.580566	1.445461
0.580664	1.458956
0.580762	1.473813
0.580859	1.461745
0.580957	1.460877
0.581055	1.451964
0.581152	1.431853
0.581250	1.433728
0.581348	1.464997
0.581445	1.469244
0.581543	1.458239
0.581641	1.446524
0.581738	1.432237
0.581836	1.405841
0.581934	1.371740
0.582031	1.342933
0.582129	1.322380
0.582227	1.308962
0.582324	1.300674
0.582422	1.296673
0.582520	1.293687
0.582617	1.288839
0.582715	1.280035
0.582812	1.269227
0.582910	1.259657
0.583008	1.253577
0.583105	1.250392
0.583203	1.248052
0.583301	1.244875
0.583398	1.240309
0.583496	1.235183
0.583594	1.230370
0.583691	1.227372
0.583789	1.227143
0.583887	1.231634
0.583984	1.242316
0.584082	1.260508
0.584180	1.288356
0.584277	1.321996
0.584375	1.354077
0.584473	1.377544
0.584570	1.392495
0.584668	1.403951
0.584766	1.405937
0.584863	1.398657
0.584961	1.385975
0.585059	1.370895
0.585156	1.358446
0.585254	1.346001
0.585352	1.332819
0.585449	1.318523
0.585547	1.303716
0.585645	1.291325
0.585742	1.285758
0.585840	1.288005
0.585937	1.293116
0.586035	1.299993
0.586133	1.311475
0.586230	1.326865
0.586328	1.328880
0.586426	1.307053
0.586523	1.278873
0.586621	1.285934
0.586719	1.312232
0.586816	1.308429
0.586914	1.303239
0.587012	1.313073
0.587109	1.327955
0.587207	1.318122
0.587305	1.290377
0.587402	1.265163
0.587500	1.321676
0.587598	1.408277
0.587695	1.409780
0.587793	1.404800
0.587891	1.413957
0.587988	1.425318
0.588086	1.422267
0.588184	1.429323
0.588281	1.446140
0.588379	1.454093
0.588477	1.458693
0.588574	1.459121
0.588672	1.463135
0.588770	1.467480
0.588867	1.468737
0.588965	1.467871
0.589062	1.469484
0.589160	1.471768
0.589258	1.470123
0.589355	1.463932
0.589453	1.452535
0.589551	1.435178
0.589648	1.417976
0.589746	1.414994
0.589844	1.425246
0.589941	1.439846
0.590039	1.446959
0.590137	1.448190
0.590234	1.444946
0.590332	1.443990
0.590430	1.439982
0.590527	1.444209
0.590625	1.443968
0.590723	1.447380
0.590820	1.450132
0.590918	1.444288
0.591016	1.425674
0.591113	1.415696
0.591211	1.433464
0.591309	1.444002
0.591406	1.486324
0.591504	1.534160
0.591602	1.554280
0.591699	1.562880
0.591797	1.541315
0.591895	1.510310
0.591992	1.505291
0.592090	1.481156
0.592187	1.459058
0.592285	1.487004
0.592383	1.528941
0.592480	1.542770
0.592578	1.539593
0.592676	1.519537
0.592773	1.547053
0.592871	1.593839
0.592969	1.623834
0.593066	1.621648
0.593164	1.601366
0.593262	1.574961
0.593359	1.555946
0.593457	1.600757
0.593555	1.587046
0.593652	1.544721
0.593750	1.488462
0.593848	1.465902
0.593945	1.462473
0.594043	1.475203
0.594141	1.496186
0.594238	1.520082
0.594336	1.529744
0.594434	1.549482
0.594531	1.546138
0.594629	1.536230
0.594727	1.547914
0.594824	1.538361
0.594922	1.516456
0.595020	1.528495
0.595117	1.541127
0.595215	1.548857
0.595312	1.555824
0.595410	1.548913
0.595508	1.525305
0.595605	1.508985
0.595703	1.504983
0.595801	1.495492
0.595898	1.487990
0.595996	1.488246
0.596094	1.486014
0.596191	1.480979
0.596289	1.469938
0.596387	1.458617
0.596484	1.452368
0.596582	1.449739
0.596680	1.448032
0.596777	1.434806
0.596875	1.421489
0.596973	1.413386
0.597070	1.407077
0.597168	1.396535
0.597266	1.384807
0.597363	1.380885
0.597461	1.380202
0.597559	1.381649
0.597656	1.382797
0.597754	1.386453
0.597852	1.388281
0.597949	1.383898
0.598047	1.380568
0.598145	1.381280
0.598242	1.384394
0.598340	1.386340
0.598437	1.384027
0.598535	1.374769
0.598633	1.358017
0.598730	1.336932
0.598828	1.315534
0.598926	1.292557
0.599023	1.271077
0.599121	1.255610
0.599219	1.250090
0.599316	1.258758
0.599414	1.279792
0.599512	1.303918
0.599609	1.322482
0.599707	1.331311
0.599805	1.331748
0.599902	1.327056
0.600000	1.322145
0.600098	1.321945
0.600195	1.326131
0.600293	1.328506
0.600391	1.330252
0.600488	1.340800
0.600586	1.360400
0.600684	1.378745
0.600781	1.391688
0.600879	1.394255
0.600977	1.390169
0.601074	1.383969
0.601172	1.381088
0.601270	1.383089
0.601367	1.395210
0.601465	1.401532
0.601562	1.414895
0.601660	1.432373
0.601758	1.441078
0.601855	1.449905
0.601953	1.451523
0.602051	1.447489
0.602148	1.445168
0.602246	1.448338
0.602344	1.455983
0.602441	1.466903
0.602539	1.468079
0.602637	1.456924
0.602734	1.436928
0.602832	1.410808
0.602930	1.391711
0.603027	1.404225
0.603125	1.444364
0.603223	1.462854
0.603320	1.457267
0.603418	1.458948
0.603516	1.463063
0.603613	1.453281
0.603711	1.439117
0.603809	1.426719
0.603906	1.420257
0.604004	1.424550
0.604102	1.432686
0.604199	1.438197
0.604297	1.441312
0.604395	1.440640
0.604492	1.437879
0.604590	1.433231
0.604687	1.458839
0.604785	1.494709
0.604883	1.487545
0.604980	1.455986
0.605078	1.435156
0.605176	1.421773
0.605273	1.395371
0.605371	1.380156
0.605469	1.378156
0.605566	1.403876
0.605664	1.449617
0.605762	1.474557
0.605859	1.491501
0.605957	1.491264
0.606055	1.488905
0.606152	1.484350
0.606250	1.474431
0.606348	1.449159
0.606445	1.441332
0.606543	1.468311
0.606641	1.455479
0.606738	1.423739
0.606836	1.413283
0.606934	1.437655
0.607031	1.480254
0.607129	1.514446
0.607227	1.512209
0.607324	1.521632
0.607422	1.511401
0.607520	1.503080
0.607617	1.507032
0.607715	1.514432
0.607812	1.513463
0.607910	1.483564
0.608008	1.452133
0.608105	1.442166
0.608203	1.445405
0.608301	1.445422
0.608398	1.424673
0.608496	1.398971
0.608594	1.405249
0.608691	1.411725
0.608789	1.425938
0.608887	1.441480
0.608984	1.461955
0.609082	1.451164
0.609180	1.426548
0.609277	1.436076
0.609375	1.449242
0.609473	1.458422
0.609570	1.456675
0.609668	1.438097
0.609766	1.413561
0.609863	1.400680
0.609961	1.396110
0.610059	1.387865
0.610156	1.374904
0.610254	1.361662
0.610352	1.349987
0.610449	1.348795
0.610547	1.339049
0.610645	1.308459
0.610742	1.284068
0.610840	1.285608
0.610937	1.317532
0.611035	1.345419
0.611133	1.341415
0.611230	1.329021
0.611328	1.335468
0.611426	1.341341
0.611523	1.338408
0.611621	1.330142
0.611719	1.320139
0.611816	1.316508
0.611914	1.322648
0.612012	1.328819
0.612109	1.326779
0.612207	1.317334
0.612305	1.302097
0.612402	1.286934
0.612500	1.274736
0.612598	1.266974
0.612695	1.262902
0.612793	1.261867
0.612891	1.264189
0.612988	1.271144
0.613086	1.280861
0.613184	1.288705
0.613281	1.289919
0.613379	1.285361
0.613477	1.282854
0.613574	1.292758
0.613672	1.311479
0.613770	1.321809
0.613867	1.312138
0.613965	1.291402
0.614062	1.277193
0.614160	1.277663
0.614258	1.284498
0.614355	1.298232
0.614453	1.315199
0.614551	1.330533
0.614648	1.334882
0.614746	1.337005
0.614844	1.351662
0.614941	1.396395
0.615039	1.435063
0.615137	1.451064
0.615234	1.458373
0.615332	1.467581
0.615430	1.452863
0.615527	1.441016
0.615625	1.409091
0.615723	1.355483
0.615820	1.302717
0.615918	1.306303
0.616016	1.347839
0.616113	1.337423
0.616211	1.329163
0.616309	1.377691
0.616406	1.455341
0.616504	1.461387
0.616602	1.472160
0.616699	1.459400
0.616797	1.450071
0.616895	1.404946
0.616992	1.373191
0.617090	1.330752
0.617187	1.293565
0.617285	1.303723
0.617383	1.315097
0.617480	1.304628
0.617578	1.356946
0.617676	1.394635
0.617773	1.414183
0.617871	1.392411
0.617969	1.379625
0.618066	1.353375
0.618164	1.342277
0.618262	1.367576
0.618359	1.417049
0.618457	1.454188
0.618555	1.487414
0.618652	1.526496
0.618750	1.538365
0.618848	1.538501
0.618945	1.487992
0.619043	1.433992
0.619141	1.417053
0.619238	1.446925
0.619336	1.471972
0.619434	1.503341
0.619531	1.503347
0.619629	1.484532
0.619727	1.464402
0.619824	1.460119
0.619922	1.438834
0.620020	1.418203
0.620117	1.420121
0.620215	1.430041
0.620312	1.440924
0.620410	1.451144
0.620508	1.459629
0.620605	1.467189
0.620703	1.463480
0.620801	1.452893
0.620898	1.463721
0.620996	1.477860
0.621094	1.476046
0.621191	1.465237
0.621289	1.454164
0.621387	1.443703
0.621484	1.452341
0.621582	1.488509
0.621680	1.496777
0.621777	1.498922
0.621875	1.504546
0.621973	1.518792
0.622070	1.510436
0.622168	1.480404
0.622266	1.437710
0.622363	1.431926
0.622461	1.459862
0.622559	1.469475
0.622656	1.473947
0.622754	1.469178
0.622852	1.464012
0.622949	1.455177
0.623047	1.449883
0.623145	1.477924
0.623242	1.536795
0.623340	1.560977
0.623437	1.569762
0.623535	1.566114
0.623633	1.553494
0.623730	1.545807
0.623828	1.543080
0.623926	1.519849
0.624023	1.503889
0.624121	1.508151
0.624219	1.508123
0.624316	1.502439
0.624414	1.491329
0.624512	1.459267
0.624609	1.487027
0.624707	1.503655
0.624805	1.485256
0.624902	1.486253
0.625000	1.507786
0.625098	1.506611
0.625195	1.516236
0.625293	1.536401
0.625391	1.534926
0.625488	1.540177
0.625586	1.530979
0.625684	1.521759
0.625781	1.486980
0.625879	1.453838
0.625977	1.432250
0.626074	1.421078
0.626172	1.417774
0.626270	1.423513
0.626367	1.393554
0.626465	1.332188
0.626562	1.323081
0.626660	1.344372
0.626758	1.356334
0.626855	1.351919
0.626953	1.337061
0.627051	1.313950
0.627148	1.293713
0.627246	1.295000
0.627344	1.304536
0.627441	1.310462
0.627539	1.318717
0.627637	1.336212
0.627734	1.358001
0.627832	1.371265
0.627930	1.331640
0.628027	1.288390
0.628125	1.265805
0.628223	1.256324
0.628320	1.268118
0.628418	1.320963
0.628516	1.356994
0.628613	1.433497
0.628711	1.558815
0.628809	1.564680
0.628906	1.561620
0.629004	1.541091
0.629102	1.539125
0.629199	1.536899
0.629297	1.540216
0.629395	1.535987
0.629492	1.524386
0.629590	1.521167
0.629687	1.494751
0.629785	1.473149
0.629883	1.478996
0.629980	1.489785
0.630078	1.467453
0.630176	1.441923
0.630273	1.444755
0.630371	1.422556
0.630469	1.412410
0.630566	1.430642
0.630664	1.452762
0.630762	1.455122
0.630859	1.434060
0.630957	1.400939
0.631055	1.370907
0.631152	1.352986
0.631250	1.343696
0.631348	1.360303
0.631445	1.398916
0.631543	1.418460
0.631641	1.434333
0.631738	1.442587
0.631836	1.433511
0.631934	1.402474
0.632031	1.385767
0.632129	1.390773
0.632227	1.394140
0.632324	1.389839
0.632422	1.395008
0.632520	1.417235
0.632617	1.434729
0.632715	1.448982
0.632812	1.451721
0.632910	1.447624
0.633008	1.443710
0.633105	1.445978
0.633203	1.450259
0.633301	1.454099
0.633398	1.456482
0.633496	1.457024
0.633594	1.456759
0.633691	1.456647
0.633789	1.462022
0.633887	1.462592
0.633984	1.458701
0.634082	1.453555
0.634180	1.443296
0.634277	1.430340
0.634375	1.421493
0.634473	1.423697
0.634570	1.433383
0.634668	1.436168
0.634766	1.433523
0.634863	1.433518
0.634961	1.434857
0.635059	1.441010
0.635156	1.449449
0.635254	1.452972
0.635352	1.454486
0.635449	1.454840
0.635547	1.458067
0.635645	1.458930
0.635742	1.468185
0.635840	1.473574
0.635937	1.458239
0.636035	1.496032
0.636133	1.521557
0.636230	1.533137
0.636328	1.553396
0.636426	1.560163
0.636523	1.542573
0.636621	1.531242
0.636719	1.544520
0.636816	1.531216
0.636914	1.495305
0.637012	1.468399
0.637109	1.481117
0.637207	1.508671
0.637305	1.466528
0.637402	1.440418
0.637500	1.482094
0.637598	1.541408
0.637695	1.545584
0.637793	1.510361
0.637891	1.428542
0.637988	1.461888
0.638086	1.539624
0.638184	1.555352
0.638281	1.545643
0.638379	1.528267
0.638477	1.529154
0.638574	1.577166
0.638672	1.621428
0.638770	1.612921
0.638867	1.583070
0.638965	1.553748
0.639062	1.560143
0.639160	1.564755
0.639258	1.561006
0.639355	1.556423
0.639453	1.552895
0.639551	1.549900
0.639648	1.548272
0.639746	1.547629
0.639844	1.547721
0.639941	1.546522
0.640039	1.546454
0.640137	1.554401
0.640234	1.577013
0.640332	1.539710
0.640430	1.509282
0.640527	1.502777
0.640625	1.477580
0.640723	1.443832
0.640820	1.450581
0.640918	1.504970
0.641016	1.517778
0.641113	1.474248
0.641211	1.449386
0.641309	1.429628
0.641406	1.415244
0.641504	1.433280
0.641602	1.440037
0.641699	1.431898
0.641797	1.428529
0.641895	1.424118
0.641992	1.421598
0.642090	1.414036
0.642187	1.404190
0.642285	1.390413
0.642383	1.383041
0.642480	1.370797
0.642578	1.352272
0.642676	1.332102
0.642773	1.313170
0.642871	1.298898
0.642969	1.289467
0.643066	1.288894
0.643164	1.303682
0.643262	1.328897
0.643359	1.359371
0.643457	1.390596
0.643555	1.407380
0.643652	1.393736
0.643750	1.380314
0.643848	1.386035
0.643945	1.409425
0.644043	1.438866
0.644141	1.464042
0.644238	1.470275
0.644336	1.479158
0.644434	1.501675
0.644531	1.504479
0.644629	1.510362
0.644727	1.515800
0.644824	1.514839
0.644922	1.508477
0.645020	1.501984
0.645117	1.489925
0.645215	1.477749
0.645312	1.470207
0.645410	1.471685
0.645508	1.475025
0.645605	1.479977
0.645703	1.478322
0.645801	1.482968
0.645898	1.499831
0.645996	1.507194
0.646094	1.508460
0.646191	1.502687
0.646289	1.499367
0.646387	1.511386
0.646484	1.515089
0.646582	1.512748
0.646680	1.493995
0.646777	1.464457
0.646875	1.448308
0.646973	1.434175
0.647070	1.447451
0.647168	1.468796
0.647266	1.490552
0.647363	1.509686
0.647461	1.527469
0.647559	1.523972
0.647656	1.516519
0.647754	1.507041
0.647852	1.494259
0.647949	1.486862
0.648047	1.471905
0.648145	1.458318
0.648242	1.457313
0.648340	1.442158
0.648437	1.437378
0.648535	1.436699
0.648633	1.437981
0.648730	1.445179
0.648828	1.466151
0.648926	1.463550
0.649023	1.456936
0.649121	1.481163
0.649219	1.513738
0.649316	1.560181
0.649414	1.543627
0.649512	1.508625
0.649609	1.491248
0.649707	1.499193
0.649805	1.515154
0.649902	1.494949
0.650000	1.468093
0.650098	1.508010
0.650195	1.522393
0.650293	1.527574
0.650391	1.507738
0.650488	1.494754
0.650586	1.479251
0.650684	1.459343
0.650781	1.459956
0.650879	1.477137
0.650977	1.510671
0.651074	1.533664
0.651172	1.536221
0.651270	1.539511
0.651367	1.543716
0.651465	1.534192
0.651562	1.510072
0.651660	1.477299
0.651758	1.465694
0.651855	1.448005
0.651953	1.431614
0.652051	1.428451
0.652148	1.444073
0.652246	1.498601
0.652344	1.517745
0.652441	1.517990
0.652539	1.528347
0.652637	1.540097
0.652734	1.527276
0.652832	1.540673
0.652930	1.542861
0.653027	1.564534
0.653125	1.553728
0.653223	1.533700
0.653320	1.554341
0.653418	1.554251
0.653516	1.561208
0.653613	1.552336
0.653711	1.562994
0.653809	1.539385
0.653906	1.539512
0.654004	1.570198
0.654102	1.564373
0.654199	1.538018
0.654297	1.537157
0.654395	1.524060
0.654492	1.516249
0.654590	1.516950
0.654687	1.522394
0.654785	1.509142
0.654883	1.500835
0.654980	1.499890
0.655078	1.504421
0.655176	1.518627
0.655273	1.547293
0.655371	1.533606
0.655469	1.515911
0.655566	1.484902
0.655664	1.454215
0.655762	1.426869
0.655859	1.369906
0.655957	1.358260
0.656055	1.398629
0.656152	1.480816
0.656250	1.500031
0.656348	1.468123
0.656445	1.446116
0.656543	1.454621
0.656641	1.468707
0.656738	1.451446
0.656836	1.426340
0.656934	1.447644
0.657031	1.467670
0.657129	1.435738
0.657227	1.396776
0.657324	1.366189
0.657422	1.392305
0.657520	1.435507
0.657617	1.433552
0.657715	1.453766
0.657812	1.458380
0.657910	1.448995
0.658008	1.452947
0.658105	1.481890
0.658203	1.477252
0.658301	1.462606
0.658398	1.456468
0.658496	1.444379
0.658594	1.433715
0.658691	1.425209
0.658789	1.421004
0.658887	1.414212
0.658984	1.403705
0.659082	1.391923
0.659180	1.383560
0.659277	1.372169
0.659375	1.355137
0.659473	1.333067
0.659570	1.367920
0.659668	1.408994
0.659766	1.411040
0.659863	1.431916
0.659961	1.440156
0.660059	1.444010
0.660156	1.459768
0.660254	1.460586
0.660352	1.452321
0.660449	1.437462
0.660547	1.414820
0.660645	1.386643
0.660742	1.360744
0.660840	1.338139
0.660937	1.320166
0.661035	1.326911
0.661133	1.361338
0.661230	1.395363
0.661328	1.415220
0.661426	1.422952
0.661523	1.416379
0.661621	1.400011
0.661719	1.381089
0.661816	1.364623
0.661914	1.356621
0.662012	1.355306
0.662109	1.357937
0.662207	1.363734
0.662305	1.373531
0.662402	1.389577
0.662500	1.407322
0.662598	1.421512
0.662695	1.432645
0.662793	1.442204
0.662891	1.445909
0.662988	1.438091
0.663086	1.415574
0.663184	1.397227
0.663281	1.423159
0.663379	1.477078
0.663477	1.492369
0.663574	1.482613
0.663672	1.463311
0.663770	1.430689
0.663867	1.381005
0.663965	1.370179
0.664062	1.354849
0.664160	1.328460
0.664258	1.293022
0.664355	1.273156
0.664453	1.300471
0.664551	1.335640
0.664648	1.369042
0.664746	1.457124
0.664844	1.502908
0.664941	1.541656
0.665039	1.527239
0.665137	1.521856
0.665234	1.543078
0.665332	1.526800
0.665430	1.514096
0.665527	1.519882
0.665625	1.539578
0.665723	1.527876
0.665820	1.524916
0.665918	1.523719
0.666016	1.518725
0.666113	1.495782
0.666211	1.472404
0.666309	1.467214
0.666406	1.486626
0.666504	1.497514
0.666602	1.489852
0.666699	1.477363
0.666797	1.476340
0.666895	1.495938
0.666992	1.510439
0.667090	1.494398
0.667187	1.464117
0.667285	1.448129
0.667383	1.440885
0.667480	1.430910
0.667578	1.417518
0.667676	1.402011
0.667773	1.396851
0.667871	1.417642
0.667969	1.435919
0.668066	1.443496
0.668164	1.472202
0.668262	1.506411
0.668359	1.508665
0.668457	1.504853
0.668555	1.486776
0.668652	1.462512
0.668750	1.432567
0.668848	1.433160
0.668945	1.427763
0.669043	1.390619
0.669141	1.378794
0.669238	1.394897
0.669336	1.407421
0.669434	1.399480
0.669531	1.374527
0.669629	1.362828
0.669727	1.359124
0.669824	1.368094
0.669922	1.400142
0.670020	1.411673
0.670117	1.386192
0.670215	1.456875
0.670312	1.460133
0.670410	1.457256
0.670508	1.509671
0.670605	1.497595
0.670703	1.503391
0.670801	1.489953
0.670898	1.498691
0.670996	1.483642
0.671094	1.494323
0.671191	1.518246
0.671289	1.488993
0.671387	1.469567
0.671484	1.453533
0.671582	1.428774
0.671680	1.420570
0.671777	1.438347
0.671875	1.438454
0.671973	1.431563
0.672070	1.409375
0.672168	1.387188
0.672266	1.370494
0.672363	1.391144
0.672461	1.428274
0.672559	1.441222
0.672656	1.452728
0.672754	1.446949
0.672852	1.437558
0.672949	1.424606
0.673047	1.440586
0.673145	1.455383
0.673242	1.473928
0.673340	1.436442
0.673437	1.427520
0.673535	1.436672
0.673633	1.441740
0.673730	1.470882
0.673828	1.481454
0.673926	1.479518
0.674023	1.473958
0.674121	1.459735
0.674219	1.473251
0.674316	1.471821
0.674414	1.452666
0.674512	1.454183
0.674609	1.446684
0.674707	1.478014
0.674805	1.521437
0.674902	1.530204
0.675000	1.507555
0.675098	1.495111
0.675195	1.495735
0.675293	1.484224
0.675391	1.486998
0.675488	1.516848
0.675586	1.495218
0.675684	1.456781
0.675781	1.446807
0.675879	1.443278
0.675977	1.427893
0.676074	1.406065
0.676172	1.415187
0.676270	1.427559
0.676367	1.416299
0.676465	1.389095
0.676562	1.356570
0.676660	1.351946
0.676758	1.361228
0.676855	1.356143
0.676953	1.361587
0.677051	1.382768
0.677148	1.384793
0.677246	1.370264
0.677344	1.361492
0.677441	1.365393
0.677539	1.364293
0.677637	1.363805
0.677734	1.370550
0.677832	1.376064
0.677930	1.376931
0.678027	1.385089
0.678125	1.379536
0.678223	1.384349
0.678320	1.413371
0.678418	1.448068
0.678516	1.441803
0.678613	1.407657
0.678711	1.402349
0.678809	1.397133
0.678906	1.382237
0.679004	1.395794
0.679102	1.390576
0.679199	1.380621
0.679297	1.393994
0.679395	1.399941
0.679492	1.401450
0.679590	1.406707
0.679687	1.405592
0.679785	1.385488
0.679883	1.366661
0.679980	1.350317
0.680078	1.338982
0.680176	1.326958
0.680273	1.317758
0.680371	1.310709
0.680469	1.316796
0.680566	1.330298
0.680664	1.342893
0.680762	1.351208
0.680859	1.356628
0.680957	1.370574
0.681055	1.383738
0.681152	1.391942
0.681250	1.396320
0.681348	1.390875
0.681445	1.392271
0.681543	1.390050
0.681641	1.380578
0.681738	1.369918
0.681836	1.356230
0.681934	1.345167
0.682031	1.331630
0.682129	1.318861
0.682227	1.315560
0.682324	1.318768
0.682422	1.318829
0.682520	1.316289
0.682617	1.314648
0.682715	1.314411
0.682812	1.316073
0.682910	1.318274
0.683008	1.318187
0.683105	1.314754
0.683203	1.308723
0.683301	1.302205
0.683398	1.297908
0.683496	1.297519
0.683594	1.301486
0.683691	1.307777
0.683789	1.313389
0.683887	1.316008
0.683984	1.314570
0.684082	1.311501
0.684180	1.310906
0.684277	1.316243
0.684375	1.328718
0.684473	1.350678
0.684570	1.386177
0.684668	1.430432
0.684766	1.455327
0.684863	1.464159
0.684961	1.456274
0.685059	1.431683
0.685156	1.406421
0.685254	1.402935
0.685352	1.397852
0.685449	1.395124
0.685547	1.398986
0.685645	1.384810
0.685742	1.357613
0.685840	1.343582
0.685937	1.342203
0.686035	1.331105
0.686133	1.319663
0.686230	1.365488
0.686328	1.395202
0.686426	1.427088
0.686523	1.444356
0.686621	1.443437
0.686719	1.455678
0.686816	1.460102
0.686914	1.469993
0.687012	1.507077
0.687109	1.508311
0.687207	1.536212
0.687305	1.558134
0.687402	1.550266
0.687500	1.548530
0.687598	1.518767
0.687695	1.475600
0.687793	1.439741
0.687891	1.425955
0.687988	1.413663
0.688086	1.396857
0.688184	1.376892
0.688281	1.367527
0.688379	1.368678
0.688477	1.373360
0.688574	1.373734
0.688672	1.401378
0.688770	1.420609
0.688867	1.479215
0.688965	1.482098
0.689062	1.450347
0.689160	1.425578
0.689258	1.396954
0.689355	1.383596
0.689453	1.383334
0.689551	1.407235
0.689648	1.462087
0.689746	1.504444
0.689844	1.549570
0.689941	1.576358
0.690039	1.584041
0.690137	1.582175
0.690234	1.574539
0.690332	1.559511
0.690430	1.559655
0.690527	1.576103
0.690625	1.571019
0.690723	1.527207
0.690820	1.496853
0.690918	1.508877
0.691016	1.527396
0.691113	1.479869
0.691211	1.442075
0.691309	1.459256
0.691406	1.425734
0.691504	1.389657
0.691602	1.438855
0.691699	1.493596
0.691797	1.505797
0.691895	1.494524
0.691992	1.473335
0.692090	1.466684
0.692187	1.475439
0.692285	1.479141
0.692383	1.482819
0.692480	1.458889
0.692578	1.458357
0.692676	1.449964
0.692773	1.439629
0.692871	1.432997
0.692969	1.449804
0.693066	1.463555
0.693164	1.466840
0.693262	1.459247
0.693359	1.440719
0.693457	1.517746
0.693555	1.546782
0.693652	1.531573
0.693750	1.512158
0.693848	1.503325
0.693945	1.509577
0.694043	1.513867
0.694141	1.503076
0.694238	1.506097
0.694336	1.498462
0.694434	1.461963
0.694531	1.418048
0.694629	1.385211
0.694727	1.367232
0.694824	1.363038
0.694922	1.366920
0.695020	1.369463
0.695117	1.350939
0.695215	1.371504
0.695312	1.379673
0.695410	1.354717
0.695508	1.364137
0.695605	1.430353
0.695703	1.482297
0.695801	1.519536
0.695898	1.537523
0.695996	1.541750
0.696094	1.524660
0.696191	1.499922
0.696289	1.481204
0.696387	1.466596
0.696484	1.451272
0.696582	1.443200
0.696680	1.435674
0.696777	1.424380
0.696875	1.402965
0.696973	1.394977
0.697070	1.374783
0.697168	1.367556
0.697266	1.383646
0.697363	1.395424
0.697461	1.431420
0.697559	1.443687
0.697656	1.435406
0.697754	1.428205
0.697852	1.410658
0.697949	1.384702
0.698047	1.368066
0.698145	1.357338
0.698242	1.362109
0.698340	1.370843
0.698437	1.372088
0.698535	1.368389
0.698633	1.361956
0.698730	1.351495
0.698828	1.341899
0.698926	1.343107
0.699023	1.351104
0.699121	1.363600
0.699219	1.374947
0.699316	1.378599
0.699414	1.370629
0.699512	1.355667
0.699609	1.343427
0.699707	1.340372
0.699805	1.354389
0.699902	1.376879
0.700000	1.395487
0.700098	1.405848
0.700195	1.406729
0.700293	1.399548
0.700391	1.388461
0.700488	1.376971
0.700586	1.363097
0.700684	1.349355
0.700781	1.336702
0.700879	1.327329
0.700977	1.321508
0.701074	1.317769
0.701172	1.312458
0.701270	1.304253
0.701367	1.292406
0.701465	1.278429
0.701562	1.264164
0.701660	1.255372
0.701758	1.257562
0.701855	1.268014
0.701953	1.283560
0.702051	1.302392
0.702148	1.321366
0.702246	1.333934
0.702344	1.338633
0.702441	1.337842
0.702539	1.334460
0.702637	1.331467
0.702734	1.328730
0.702832	1.323460
0.702930	1.310937
0.703027	1.290439
0.703125	1.269905
0.703223	1.255440
0.703320	1.247982
0.703418	1.249131
0.703516	1.263145
0.703613	1.289986
0.703711	1.322919
0.703809	1.351576
0.703906	1.377302
0.704004	1.398045
0.704102	1.408276
0.704199	1.405572
0.704297	1.402626
0.704395	1.398834
0.704492	1.393839
0.704590	1.393543
0.704687	1.401589
0.704785	1.412940
0.704883	1.431829
0.704980	1.453086
0.705078	1.467401
0.705176	1.484375
0.705273	1.505546
0.705371	1.529979
0.705469	1.554809
0.705566	1.566906
0.705664	1.578616
0.705762	1.587602
0.705859	1.587691
0.705957	1.582562
0.706055	1.572420
0.706152	1.561042
0.706250	1.550775
0.706348	1.544570
0.706445	1.544281
0.706543	1.537501
0.706641	1.521195
0.706738	1.487812
0.706836	1.480414
0.706934	1.464145
0.707031	1.469734
0.707129	1.468974
0.707227	1.455480
0.707324	1.449615
0.707422	1.483849
0.707520	1.551910
0.707617	1.536366
0.707715	1.508965
0.707812	1.484626
0.707910	1.451428
0.708008	1.420551
0.708105	1.419619
0.708203	1.415599
0.708301	1.399251
0.708398	1.357419
0.708496	1.300046
0.708594	1.273297
0.708691	1.270965
0.708789	1.275208
0.708887	1.277068
0.708984	1.277079
0.709082	1.273014
0.709180	1.273403
0.709277	1.281148
0.709375	1.299261
0.709473	1.312885
0.709570	1.312649
0.709668	1.298644
0.709766	1.291659
0.709863	1.297320
0.709961	1.315519
0.710059	1.335195
0.710156	1.330301
0.710254	1.307494
0.710352	1.283649
0.710449	1.268093
0.710547	1.259796
0.710645	1.257179
0.710742	1.256568
0.710840	1.256298
0.710937	1.259904
0.711035	1.267801
0.711133	1.275138
0.711230	1.282711
0.711328	1.291704
0.711426	1.306044
0.711523	1.325519
0.711621	1.344861
0.711719	1.357256
0.711816	1.360548
0.711914	1.359935
0.712012	1.359935
0.712109	1.365386
0.712207	1.370007
0.712305	1.368407
0.712402	1.365548
0.712500	1.353341
0.712598	1.333442
0.712695	1.315899
0.712793	1.312248
0.712891	1.320348
0.712988	1.333504
0.713086	1.349911
0.713184	1.366904
0.713281	1.385916
0.713379	1.391256
0.713477	1.374677
0.713574	1.356959
0.713672	1.356847
0.713770	1.370109
0.713867	1.376419
0.713965	1.376980
0.714062	1.374666
0.714160	1.383788
0.714258	1.391380
0.714355	1.391851
0.714453	1.390501
0.714551	1.381805
0.714648	1.372575
0.714746	1.366472
0.714844	1.364544
0.714941	1.353977
0.715039	1.346706
0.715137	1.350050
0.715234	1.354576
0.715332	1.361738
0.715430	1.367819
0.715527	1.367718
0.715625	1.348350
0.715723	1.319295
0.715820	1.322109
0.715918	1.339218
0.716016	1.347885
0.716113	1.352092
0.716211	1.349681
0.716309	1.341201
0.716406	1.326349
0.716504	1.304903
0.716602	1.279716
0.716699	1.257155
0.716797	1.244032
0.716895	1.238815
0.716992	1.237405
0.717090	1.237148
0.717187	1.235329
0.717285	1.229966
0.717383	1.224200
0.717480	1.222355
0.717578	1.225375
0.717676	1.230074
0.717773	1.235766
0.717871	1.235742
0.717969	1.249615
0.718066	1.303990
0.718164	1.338714
0.718262	1.358300
0.718359	1.370361
0.718457	1.375619
0.718555	1.370593
0.718652	1.361032
0.718750	1.356694
0.718848	1.349634
0.718945	1.335475
0.719043	1.318759
0.719141	1.309428
0.719238	1.310667
0.719336	1.315723
0.719434	1.320420
0.719531	1.328003
0.719629	1.336247
0.719727	1.339685
0.719824	1.338702
0.719922	1.334849
0.720020	1.325943
0.720117	1.307564
0.720215	1.277338
0.720312	1.245585
0.720410	1.244894
0.720508	1.292491
0.720605	1.338544
0.720703	1.356044
0.720801	1.349557
0.720898	1.335512
0.720996	1.344540
0.721094	1.380839
0.721191	1.403361
0.721289	1.415681
0.721387	1.424097
0.721484	1.415916
0.721582	1.395832
0.721680	1.379807
0.721777	1.384467
0.721875	1.421543
0.721973	1.444313
0.722070	1.443726
0.722168	1.442098
0.722266	1.440198
0.722363	1.434366
0.722461	1.423484
0.722559	1.416897
0.722656	1.415671
0.722754	1.412631
0.722852	1.421187
0.722949	1.438765
0.723047	1.440548
0.723145	1.431886
0.723242	1.438601
0.723340	1.435003
0.723437	1.424207
0.723535	1.402795
0.723633	1.375691
0.723730	1.360495
0.723828	1.366859
0.723926	1.386276
0.724023	1.384507
0.724121	1.370804
0.724219	1.353162
0.724316	1.330896
0.724414	1.301845
0.724512	1.264317
0.724609	1.237813
0.724707	1.237889
0.724805	1.262914
0.724902	1.331312
0.725000	1.379947
0.725098	1.396003
0.725195	1.400206
0.725293	1.386940
0.725391	1.372482
0.725488	1.360758
0.725586	1.354686
0.725684	1.356942
0.725781	1.379962
0.725879	1.404202
0.725977	1.405915
0.726074	1.406832
0.726172	1.420207
0.726270	1.439723
0.726367	1.461935
0.726465	1.472534
0.726562	1.477518
0.726660	1.479921
0.726758	1.469631
0.726855	1.456656
0.726953	1.452076
0.727051	1.461308
0.727148	1.460696
0.727246	1.443778
0.727344	1.424365
0.727441	1.457725
0.727539	1.486258
0.727637	1.490029
0.727734	1.481355
0.727832	1.469628
0.727930	1.462919
0.728027	1.453597
0.728125	1.438914
0.728223	1.430844
0.728320	1.437289
0.728418	1.442722
0.728516	1.444418
0.728613	1.440160
0.728711	1.432759
0.728809	1.437576
0.728906	1.419812
0.729004	1.401675
0.729102	1.407006
0.729199	1.415980
0.729297	1.426295
0.729395	1.441711
0.729492	1.459764
0.729590	1.466773
0.729687	1.472370
0.729785	1.473130
0.729883	1.466235
0.729980	1.454923
0.730078	1.440409
0.730176	1.427171
0.730273	1.421435
0.730371	1.428026
0.730469	1.470417
0.730566	1.475285
0.730664	1.439314
0.730762	1.438347
0.730859	1.422771
0.730957	1.447717
0.731055	1.471403
0.731152	1.457614
0.731250	1.456987
0.731348	1.460602
0.731445	1.444343
0.731543	1.426203
0.731641	1.463894
0.731738	1.515863
0.731836	1.518325
0.731934	1.449736
0.732031	1.407504
0.732129	1.374171
0.732227	1.395714
0.732324	1.389613
0.732422	1.402969
0.732520	1.410355
0.732617	1.448443
0.732715	1.464333
0.732812	1.461874
0.732910	1.492168
0.733008	1.482349
0.733105	1.470151
0.733203	1.453512
0.733301	1.433898
0.733398	1.416783
0.733496	1.426957
0.733594	1.410113
0.733691	1.377402
0.733789	1.340092
0.733887	1.338854
0.733984	1.361824
0.734082	1.376757
0.734180	1.384998
0.734277	1.400988
0.734375	1.423067
0.734473	1.437907
0.734570	1.437484
0.734668	1.420261
0.734766	1.412720
0.734863	1.421402
0.734961	1.423671
0.735059	1.404683
0.735156	1.385180
0.735254	1.385390
0.735352	1.385781
0.735449	1.395819
0.735547	1.384931
0.735645	1.375709
0.735742	1.456980
0.735840	1.482892
0.735937	1.474835
0.736035	1.454713
0.736133	1.434960
0.736230	1.404317
0.736328	1.390379
0.736426	1.384218
0.736523	1.415612
0.736621	1.443053
0.736719	1.449966
0.736816	1.464665
0.736914	1.449121
0.737012	1.446428
0.737109	1.433196
0.737207	1.423665
0.737305	1.416777
0.737402	1.412272
0.737500	1.395193
0.737598	1.374339
0.737695	1.354607
0.737793	1.338502
0.737891	1.321423
0.737988	1.304900
0.738086	1.291080
0.738184	1.280670
0.738281	1.284949
0.738379	1.308751
0.738477	1.328255
0.738574	1.334616
0.738672	1.330327
0.738770	1.318933
0.738867	1.303815
0.738965	1.291908
0.739062	1.283637
0.739160	1.278936
0.739258	1.278042
0.739355	1.279668
0.739453	1.282311
0.739551	1.291013
0.739648	1.307841
0.739746	1.316104
0.739844	1.302907
0.739941	1.265131
0.740039	1.253717
0.740137	1.323596
0.740234	1.371556
0.740332	1.386670
0.740430	1.407426
0.740527	1.407286
0.740625	1.399078
0.740723	1.414018
0.740820	1.427353
0.740918	1.427639
0.741016	1.452053
0.741113	1.466234
0.741211	1.443203
0.741309	1.406267
0.741406	1.375396
0.741504	1.357333
0.741602	1.386639
0.741699	1.400949
0.741797	1.383010
0.741895	1.385506
0.741992	1.421187
0.742090	1.443833
0.742187	1.442421
0.742285	1.439900
0.742383	1.445099
0.742480	1.469792
0.742578	1.466337
0.742676	1.491317
0.742773	1.524228
0.742871	1.523775
0.742969	1.503590
0.743066	1.492582
0.743164	1.491775
0.743262	1.486558
0.743359	1.464559
0.743457	1.413772
0.743555	1.400828
0.743652	1.434852
0.743750	1.472012
0.743848	1.505313
0.743945	1.536825
0.744043	1.623042
0.744141	1.654539
0.744238	1.611708
0.744336	1.674712
0.744434	1.676466
0.744531	1.677197
0.744629	1.674971
0.744727	1.631105
0.744824	1.603459
0.744922	1.605636
0.745020	1.590076
0.745117	1.565561
0.745215	1.535192
0.745312	1.568054
0.745410	1.601513
0.745508	1.620405
0.745605	1.597387
0.745703	1.586481
0.745801	1.564716
0.745898	1.569214
0.745996	1.576342
0.746094	1.570455
0.746191	1.564882
0.746289	1.560032
0.746387	1.554064
0.746484	1.550655
0.746582	1.548831
0.746680	1.546280
0.746777	1.535505
0.746875	1.523783
0.746973	1.497254
0.747070	1.507676
0.747168	1.527759
0.747266	1.547076
0.747363	1.530926
0.747461	1.502073
0.747559	1.482504
0.747656	1.483900
0.747754	1.519976
0.747852	1.549736
0.747949	1.549733
0.748047	1.521146
0.748145	1.496848
0.748242	1.484442
0.748340	1.458478
0.748437	1.469704
0.748535	1.483734
0.748633	1.470758
0.748730	1.488021
0.748828	1.508631
0.748926	1.491975
0.749023	1.456440
0.749121	1.458878
0.749219	1.468466
0.749316	1.446558
0.749414	1.416094
0.749512	1.447658
0.749609	1.491066
0.749707	1.507774
0.749805	1.463583
0.749902	1.387178
0.750000	1.348292
0.750098	1.374801
0.750195	1.428775
0.750293	1.466312
0.750391	1.483307
0.750488	1.492395
0.750586	1.491283
0.750684	1.464782
0.750781	1.413785
0.750879	1.371028
0.750977	1.315760
0.751074	1.350178
0.751172	1.410198
0.751270	1.424355
0.751367	1.424917
0.751465	1.406757
0.751562	1.380563
0.751660	1.354769
0.751758	1.334794
0.751855	1.312580
0.751953	1.294102
0.752051	1.289590
0.752148	1.305665
0.752246	1.319798
0.752344	1.320168
0.752441	1.315075
0.752539	1.316326
0.752637	1.317666
0.752734	1.333719
0.752832	1.367557
0.752930	1.416963
0.753027	1.453457
0.753125	1.470864
0.753223	1.478661
0.753320	1.482934
0.753418	1.471624
0.753516	1.464356
0.753613	1.458474
0.753711	1.458748
0.753809	1.437408
0.753906	1.435416
0.754004	1.468712
0.754102	1.465753
0.754199	1.467804
0.754297	1.458682
0.754395	1.469878
0.754492	1.458996
0.754590	1.430680
0.754687	1.403189
0.754785	1.391345
0.754883	1.399939
0.754980	1.431135
0.755078	1.442979
0.755176	1.465977
0.755273	1.493113
0.755371	1.503317
0.755469	1.507657
0.755566	1.500351
0.755664	1.485767
0.755762	1.503453
0.755859	1.500743
0.755957	1.482598
0.756055	1.494328
0.756152	1.490550
0.756250	1.460358
0.756348	1.440604
0.756445	1.441274
0.756543	1.436135
0.756641	1.425407
0.756738	1.419397
0.756836	1.415172
0.756934	1.419118
0.757031	1.432770
0.757129	1.458032
0.757227	1.465004
0.757324	1.467175
0.757422	1.450738
0.757520	1.493517
0.757617	1.533223
0.757715	1.525034
0.757812	1.491261
0.757910	1.450333
0.758008	1.459915
0.758105	1.445674
0.758203	1.429073
0.758301	1.413901
0.758398	1.414129
0.758496	1.422232
0.758594	1.420929
0.758691	1.432813
0.758789	1.443247
0.758887	1.464879
0.758984	1.465302
0.759082	1.448949
0.759180	1.441449
0.759277	1.426117
0.759375	1.414943
0.759473	1.414557
0.759570	1.424269
0.759668	1.434828
0.759766	1.435351
0.759863	1.440893
0.759961	1.441297
0.760059	1.444059
0.760156	1.431977
0.760254	1.418861
0.760352	1.432488
0.760449	1.446233
0.760547	1.462682
0.760645	1.446848
0.760742	1.400830
0.760840	1.369080
0.760937	1.355226
0.761035	1.344537
0.761133	1.338049
0.761230	1.344386
0.761328	1.359669
0.761426	1.377720
0.761523	1.406165
0.761621	1.430234
0.761719	1.435354
0.761816	1.428035
0.761914	1.422948
0.762012	1.427041
0.762109	1.430628
0.762207	1.427904
0.762305	1.420736
0.762402	1.412872
0.762500	1.403919
0.762598	1.393187
0.762695	1.386498
0.762793	1.383789
0.762891	1.380678
0.762988	1.376905
0.763086	1.372874
0.763184	1.366784
0.763281	1.356526
0.763379	1.344677
0.763477	1.333720
0.763574	1.325971
0.763672	1.315404
0.763770	1.306003
0.763867	1.307496
0.763965	1.323930
0.764062	1.351138
0.764160	1.378538
0.764258	1.386597
0.764355	1.386093
0.764453	1.403941
0.764551	1.447656
0.764648	1.486014
0.764746	1.511882
0.764844	1.510932
0.764941	1.508100
0.765039	1.497611
0.765137	1.478327
0.765234	1.480863
0.765332	1.485495
0.765430	1.464468
0.765527	1.447753
0.765625	1.418160
0.765723	1.435941
0.765820	1.459369
0.765918	1.467144
0.766016	1.469186
0.766113	1.487255
0.766211	1.506389
0.766309	1.488603
0.766406	1.480388
0.766504	1.469944
0.766602	1.458224
0.766699	1.457911
0.766797	1.452637
0.766895	1.435370
0.766992	1.418602
0.767090	1.410557
0.767187	1.418923
0.767285	1.440551
0.767383	1.449293
0.767480	1.428593
0.767578	1.398991
0.767676	1.351929
0.767773	1.319035
0.767871	1.311076
0.767969	1.338530
0.768066	1.380227
0.768164	1.412222
0.768262	1.440389
0.768359	1.445551
0.768457	1.446996
0.768555	1.429604
0.768652	1.417990
0.768750	1.422857
0.768848	1.431328
0.768945	1.431746
0.769043	1.420131
0.769141	1.405938
0.769238	1.403845
0.769336	1.408102
0.769434	1.396337
0.769531	1.387373
0.769629	1.384421
0.769727	1.373088
0.769824	1.367336
0.769922	1.372049
0.770020	1.382733
0.770117	1.396107
0.770215	1.403448
0.770312	1.396958
0.770410	1.382518
0.770508	1.368001
0.770605	1.358513
0.770703	1.348362
0.770801	1.334202
0.770898	1.313570
0.770996	1.292217
0.771094	1.290096
0.771191	1.314906
0.771289	1.337681
0.771387	1.345091
0.771484	1.341019
0.771582	1.334295
0.771680	1.335811
0.771777	1.343048
0.771875	1.360639
0.771973	1.398280
0.772070	1.427564
0.772168	1.447137
0.772266	1.450215
0.772363	1.449771
0.772461	1.441228
0.772559	1.426266
0.772656	1.403673
0.772754	1.398020
0.772852	1.397120
0.772949	1.415251
0.773047	1.413938
0.773145	1.410123
0.773242	1.428268
0.773340	1.417289
0.773437	1.407576
0.773535	1.410207
0.773633	1.434383
0.773730	1.444824
0.773828	1.454865
0.773926	1.453395
0.774023	1.451339
0.774121	1.439511
0.774219	1.421773
0.774316	1.397637
0.774414	1.379269
0.774512	1.362525
0.774609	1.351976
0.774707	1.342892
0.774805	1.336704
0.774902	1.331718
0.775000	1.332915
0.775098	1.338872
0.775195	1.345123
0.775293	1.347948
0.775391	1.347001
0.775488	1.342500
0.775586	1.336583
0.775684	1.331143
0.775781	1.327185
0.775879	1.322623
0.775977	1.317826
0.776074	1.316182
0.776172	1.334243
0.776270	1.359102
0.776367	1.376005
0.776465	1.386227
0.776562	1.379268
0.776660	1.365372
0.776758	1.354839
0.776855	1.343240
0.776953	1.330032
0.777051	1.324592
0.777148	1.331451
0.777246	1.339101
0.777344	1.347065
0.777441	1.356350
0.777539	1.358639
0.777637	1.350298
0.777734	1.355946
0.777832	1.377606
0.777930	1.390625
0.778027	1.394459
0.778125	1.397616
0.778223	1.398828
0.778320	1.401331
0.778418	1.414624
0.778516	1.424173
0.778613	1.420396
0.778711	1.407824
0.778809	1.398585
0.778906	1.395188
0.779004	1.388216
0.779102	1.381894
0.779199	1.381908
0.779297	1.381819
0.779395	1.374519
0.779492	1.375293
0.779590	1.389473
0.779687	1.398385
0.779785	1.400552
0.779883	1.403323
0.779980	1.412491
0.780078	1.418245
0.780176	1.412930
0.780273	1.410175
0.780371	1.409605
0.780469	1.402823
0.780566	1.388588
0.780664	1.367809
0.780762	1.347455
0.780859	1.332823
0.780957	1.332326
0.781055	1.341436
0.781152	1.368055
0.781250	1.392809
0.781348	1.422580
0.781445	1.476497
0.781543	1.514786
0.781641	1.502418
0.781738	1.492720
0.781836	1.477763
0.781934	1.482772
0.782031	1.488504
0.782129	1.517070
0.782227	1.518436
0.782324	1.519946
0.782422	1.527128
0.782520	1.522563
0.782617	1.531768
0.782715	1.521024
0.782812	1.533933
0.782910	1.551702
0.783008	1.564989
0.783105	1.550427
0.783203	1.544889
0.783301	1.542119
0.783398	1.524431
0.783496	1.499561
0.783594	1.502320
0.783691	1.505105
0.783789	1.488778
0.783887	1.498021
0.783984	1.506256
0.784082	1.514210
0.784180	1.498562
0.784277	1.493057
0.784375	1.491100
0.784473	1.480134
0.784570	1.471291
0.784668	1.476274
0.784766	1.467024
0.784863	1.445885
0.784961	1.414743
0.785059	1.379472
0.785156	1.354975
0.785254	1.348578
0.785352	1.352767
0.785449	1.377084
0.785547	1.392988
0.785645	1.390114
0.785742	1.376529
0.785840	1.352482
0.785937	1.324630
0.786035	1.297856
0.786133	1.275102
0.786230	1.258437
0.786328	1.250756
0.786426	1.249616
0.786523	1.250653
0.786621	1.253929
0.786719	1.259255
0.786816	1.266012
0.786914	1.273527
0.787012	1.279453
0.787109	1.282176
0.787207	1.281179
0.787305	1.277095
0.787402	1.271304
0.787500	1.264980
0.787598	1.259051
0.787695	1.253642
0.787793	1.248472
0.787891	1.243494
0.787988	1.238427
0.788086	1.233541
0.788184	1.228322
0.788281	1.223325
0.788379	1.218517
0.788477	1.214256
0.788574	1.210035
0.788672	1.205837
0.788770	1.202279
0.788867	1.201449
0.788965	1.207629
0.789062	1.225973
0.789160	1.257017
0.789258	1.290441
0.789355	1.318197
0.789453	1.341427
0.789551	1.366212
0.789648	1.385259
0.789746	1.395065
0.789844	1.397969
0.789941	1.396790
0.790039	1.390810
0.790137	1.392265
0.790234	1.407258
0.790332	1.415265
0.790430	1.433788
0.790527	1.464433
0.790625	1.487485
0.790723	1.490100
0.790820	1.478199
0.790918	1.466350
0.791016	1.452939
0.791113	1.440517
0.791211	1.438258
0.791309	1.440882
0.791406	1.442910
0.791504	1.444722
0.791602	1.445488
0.791699	1.444204
0.791797	1.442804
0.791895	1.440523
0.791992	1.433148
0.792090	1.429314
0.792187	1.426050
0.792285	1.430498
0.792383	1.414126
0.792480	1.421449
0.792578	1.442023
0.792676	1.452252
0.792773	1.456905
0.792871	1.464111
0.792969	1.481294
0.793066	1.498777
0.793164	1.500103
0.793262	1.505328
0.793359	1.509109
0.793457	1.510194
0.793555	1.497937
0.793652	1.484396
0.793750	1.493907
0.793848	1.497191
0.793945	1.488266
0.794043	1.475004
0.794141	1.469429
0.794238	1.450546
0.794336	1.445778
0.794434	1.471306
0.794531	1.478089
0.794629	1.476912
0.794727	1.464966
0.794824	1.455505
0.794922	1.455732
0.795020	1.457013
0.795117	1.466647
0.795215	1.490143
0.795312	1.491823
0.795410	1.492381
0.795508	1.513324
0.795605	1.512703
0.795703	1.523673
0.795801	1.527573
0.795898	1.522937
0.795996	1.524003
0.796094	1.523702
0.796191	1.519684
0.796289	1.499360
0.796387	1.479462
0.796484	1.489354
0.796582	1.491062
0.796680	1.483470
0.796777	1.472150
0.796875	1.502626
0.796973	1.507927
0.797070	1.501609
0.797168	1.498678
0.797266	1.478164
0.797363	1.472716
0.797461	1.469736
0.797559	1.462490
0.797656	1.434764
0.797754	1.416629
0.797852	1.409871
0.797949	1.413722
0.798047	1.401803
0.798145	1.404143
0.798242	1.423585
0.798340	1.416671
0.798437	1.404060
0.798535	1.409907
0.798633	1.412391
0.798730	1.410220
0.798828	1.392810
0.798926	1.373405
0.799023	1.366408
0.799121	1.358214
0.799219	1.351009
0.799316	1.350739
0.799414	1.364943
0.799512	1.379776
0.799609	1.377303
0.799707	1.356967
0.799805	1.327618
0.799902	1.300765
0.800000	1.291972
0.800098	1.297277
0.800195	1.305442
0.800293	1.313660
0.800391	1.320073
0.800488	1.328620
0.800586	1.332996
0.800684	1.317808
0.800781	1.296230
0.800879	1.310263
0.800977	1.346428
0.801074	1.355409
0.801172	1.356238
0.801270	1.339212
0.801367	1.323557
0.801465	1.328619
0.801562	1.315089
0.801660	1.299956
0.801758	1.305776
0.801855	1.317030
0.801953	1.325358
0.802051	1.347850
0.802148	1.379567
0.802246	1.393987
0.802344	1.399870
0.802441	1.407198
0.802539	1.414433
0.802637	1.414458
0.802734	1.403566
0.802832	1.389333
0.802930	1.382880
0.803027	1.385277
0.803125	1.391276
0.803223	1.394515
0.803320	1.393001
0.803418	1.396300
0.803516	1.434091
0.803613	1.483179
0.803711	1.455374
0.803809	1.432389
0.803906	1.451001
0.804004	1.493050
0.804102	1.485648
0.804199	1.432090
0.804297	1.421330
0.804395	1.417646
0.804492	1.426091
0.804590	1.444569
0.804687	1.462293
0.804785	1.459071
0.804883	1.438753
0.804980	1.411818
0.805078	1.405468
0.805176	1.389773
0.805273	1.361196
0.805371	1.320510
0.805469	1.312698
0.805566	1.342177
0.805664	1.339447
0.805762	1.327628
0.805859	1.352229
0.805957	1.418093
0.806055	1.429653
0.806152	1.467686
0.806250	1.532355
0.806348	1.524592
0.806445	1.525991
0.806543	1.537332
0.806641	1.546893
0.806738	1.550310
0.806836	1.547670
0.806934	1.529043
0.807031	1.517802
0.807129	1.517604
0.807227	1.514873
0.807324	1.481142
0.807422	1.506518
0.807520	1.540574
0.807617	1.527491
0.807715	1.506625
0.807812	1.482687
0.807910	1.480287
0.808008	1.477004
0.808105	1.460141
0.808203	1.436703
0.808301	1.438022
0.808398	1.449306
0.808496	1.458340
0.808594	1.459857
0.808691	1.454824
0.808789	1.450229
0.808887	1.443005
0.808984	1.428525
0.809082	1.401651
0.809180	1.372751
0.809277	1.355008
0.809375	1.347753
0.809473	1.347112
0.809570	1.348489
0.809668	1.354637
0.809766	1.365808
0.809863	1.373091
0.809961	1.374293
0.810059	1.370749
0.810156	1.366601
0.810254	1.360966
0.810352	1.354775
0.810449	1.347227
0.810547	1.333839
0.810645	1.313836
0.810742	1.297606
0.810840	1.293335
0.810937	1.295183
0.811035	1.302076
0.811133	1.308476
0.811230	1.310991
0.811328	1.321162
0.811426	1.339668
0.811523	1.353544
0.811621	1.360756
0.811719	1.362393
0.811816	1.366424
0.811914	1.377875
0.812012	1.391879
0.812109	1.397181
0.812207	1.389142
0.812305	1.380623
0.812402	1.371378
0.812500	1.355391
0.812598	1.348334
0.812695	1.364966
0.812793	1.384784
0.812891	1.392317
0.812988	1.393346
0.813086	1.390489
0.813184	1.389968
0.813281	1.392312
0.813379	1.394912
0.813477	1.394615
0.813574	1.391036
0.813672	1.385761
0.813770	1.381675
0.813867	1.379773
0.813965	1.378530
0.814062	1.374697
0.814160	1.369351
0.814258	1.366748
0.814355	1.368451
0.814453	1.373827
0.814551	1.378772
0.814648	1.375918
0.814746	1.364395
0.814844	1.351898
0.814941	1.339755
0.815039	1.324227
0.815137	1.304619
0.815234	1.281416
0.815332	1.258119
0.815430	1.243022
0.815527	1.252321
0.815625	1.267087
0.815723	1.270937
0.815820	1.271814
0.815918	1.270131
0.816016	1.265985
0.816113	1.259421
0.816211	1.253598
0.816309	1.252589
0.816406	1.259071
0.816504	1.271825
0.816602	1.285966
0.816699	1.295379
0.816797	1.297717
0.816895	1.293707
0.816992	1.285733
0.817090	1.275985
0.817187	1.266848
0.817285	1.260011
0.817383	1.258869
0.817480	1.266755
0.817578	1.282144
0.817676	1.300685
0.817773	1.318167
0.817871	1.333342
0.817969	1.348791
0.818066	1.362911
0.818164	1.362686
0.818262	1.354485
0.818359	1.353208
0.818457	1.365245
0.818555	1.377200
0.818652	1.381662
0.818750	1.384278
0.818848	1.386147
0.818945	1.386781
0.819043	1.386554
0.819141	1.390291
0.819238	1.405270
0.819336	1.422948
0.819434	1.436621
0.819531	1.448154
0.819629	1.458298
0.819727	1.460042
0.819824	1.446381
0.819922	1.436057
0.820020	1.432140
0.820117	1.430270
0.820215	1.426672
0.820312	1.421837
0.820410	1.416692
0.820508	1.421313
0.820605	1.427752
0.820703	1.432381
0.820801	1.445154
0.820898	1.441215
0.820996	1.423387
0.821094	1.435448
0.821191	1.449718
0.821289	1.453055
0.821387	1.455620
0.821484	1.445148
0.821582	1.432222
0.821680	1.421316
0.821777	1.400101
0.821875	1.381373
0.821973	1.382716
0.822070	1.388521
0.822168	1.400409
0.822266	1.438289
0.822363	1.456811
0.822461	1.458264
0.822559	1.455443
0.822656	1.457573
0.822754	1.456486
0.822852	1.417763
0.822949	1.402887
0.823047	1.397961
0.823145	1.411855
0.823242	1.423491
0.823340	1.419333
0.823437	1.405192
0.823535	1.383402
0.823633	1.379326
0.823730	1.401282
0.823828	1.416442
0.823926	1.415915
0.824023	1.411161
0.824121	1.402715
0.824219	1.396511
0.824316	1.399579
0.824414	1.409354
0.824512	1.419611
0.824609	1.427602
0.824707	1.433356
0.824805	1.440427
0.824902	1.442305
0.825000	1.436372
0.825098	1.424902
0.825195	1.409730
0.825293	1.374996
0.825391	1.338492
0.825488	1.314329
0.825586	1.295051
0.825684	1.284569
0.825781	1.272618
0.825879	1.255115
0.825977	1.240653
0.826074	1.238278
0.826172	1.242805
0.826270	1.250599
0.826367	1.256424
0.826465	1.252430
0.826562	1.249617
0.826660	1.266727
0.826758	1.296448
0.826855	1.333225
0.826953	1.361130
0.827051	1.371642
0.827148	1.368907
0.827246	1.382437
0.827344	1.413669
0.827441	1.422513
0.827539	1.421516
0.827637	1.423647
0.827734	1.430534
0.827832	1.432136
0.827930	1.441269
0.828027	1.454633
0.828125	1.481655
0.828223	1.503236
0.828320	1.502232
0.828418	1.476378
0.828516	1.462994
0.828613	1.474590
0.828711	1.492958
0.828809	1.494100
0.828906	1.488446
0.829004	1.481496
0.829102	1.471502
0.829199	1.463937
0.829297	1.464289
0.829395	1.466025
0.829492	1.470122
0.829590	1.483353
0.829687	1.522942
0.829785	1.527027
0.829883	1.534604
0.829980	1.538963
0.830078	1.558041
0.830176	1.568819
0.830273	1.560863
0.830371	1.545534
0.830469	1.543638
0.830566	1.565934
0.830664	1.599387
0.830762	1.588579
0.830859	1.549573
0.830957	1.529724
0.831055	1.557214
0.831152	1.504120
0.831250	1.502671
0.831348	1.549365
0.831445	1.508981
0.831543	1.553858
0.831641	1.569223
0.831738	1.567994
0.831836	1.582671
0.831934	1.610519
0.832031	1.599327
0.832129	1.572777
0.832227	1.555464
0.832324	1.544535
0.832422	1.511564
0.832520	1.524161
0.832617	1.559551
0.832715	1.552373
0.832812	1.530028
0.832910	1.537166
0.833008	1.576214
0.833105	1.607855
0.833203	1.588095
0.833301	1.561559
0.833398	1.591835
0.833496	1.613254
0.833594	1.603972
0.833691	1.591570
0.833789	1.588303
0.833887	1.596968
0.833984	1.577871
0.834082	1.576877
0.834180	1.584875
0.834277	1.568399
0.834375	1.559750
0.834473	1.559020
0.834570	1.571177
0.834668	1.561469
0.834766	1.535552
0.834863	1.508543
0.834961	1.509641
0.835059	1.528326
0.835156	1.537305
0.835254	1.534182
0.835352	1.502701
0.835449	1.501057
0.835547	1.557944
0.835645	1.559471
0.835742	1.548878
0.835840	1.554848
0.835937	1.534578
0.836035	1.528518
0.836133	1.491887
0.836230	1.464711
0.836328	1.500344
0.836426	1.517544
0.836523	1.523951
0.836621	1.549573
0.836719	1.517521
0.836816	1.496914
0.836914	1.535383
0.837012	1.534640
0.837109	1.511212
0.837207	1.519795
0.837305	1.523609
0.837402	1.500701
0.837500	1.485446
0.837598	1.471731
0.837695	1.482427
0.837793	1.485589
0.837891	1.484166
0.837988	1.521677
0.838086	1.538627
0.838184	1.540721
0.838281	1.540950
0.838379	1.540756
0.838477	1.566112
0.838574	1.546559
0.838672	1.528352
0.838770	1.509213
0.838867	1.542478
0.838965	1.568278
0.839062	1.568946
0.839160	1.544919
0.839258	1.506625
0.839355	1.516339
0.839453	1.530990
0.839551	1.549243
0.839648	1.543496
0.839746	1.509908
0.839844	1.488419
0.839941	1.505200
0.840039	1.520236
0.840137	1.562322
0.840234	1.562166
0.840332	1.544183
0.840430	1.558596
0.840527	1.584488
0.840625	1.581683
0.840723	1.536079
0.840820	1.500148
0.840918	1.480899
0.841016	1.497093
0.841113	1.507434
0.841211	1.494924
0.841309	1.468486
0.841406	1.445972
0.841504	1.458727
0.841602	1.433349
0.841699	1.398520
0.841797	1.375609
0.841895	1.360359
0.841992	1.352440
0.842090	1.343752
0.842187	1.327308
0.842285	1.307250
0.842383	1.287984
0.842480	1.272340
0.842578	1.268959
0.842676	1.278599
0.842773	1.305238
0.842871	1.335712
0.842969	1.355677
0.843066	1.346052
0.843164	1.319259
0.843262	1.336551
0.843359	1.376075
0.843457	1.402774
0.843555	1.410833
0.843652	1.411335
0.843750	1.408798
0.843848	1.400312
0.843945	1.408002
0.844043	1.434123
0.844141	1.504774
0.844238	1.531315
0.844336	1.518796
0.844434	1.508024
0.844531	1.496781
0.844629	1.505095
0.844727	1.514193
0.844824	1.513316
0.844922	1.481890
0.845020	1.452339
0.845117	1.462031
0.845215	1.453246
0.845312	1.428751
0.845410	1.427714
0.845508	1.428026
0.845605	1.456439
0.845703	1.483814
0.845801	1.485613
0.845898	1.515448
0.845996	1.593856
0.846094	1.612681
0.846191	1.598235
0.846289	1.581440
0.846387	1.561399
0.846484	1.481376
0.846582	1.534099
0.846680	1.572060
0.846777	1.585223
0.846875	1.627041
0.846973	1.649702
0.847070	1.677286
0.847168	1.673784
0.847266	1.676182
0.847363	1.678886
0.847461	1.657897
0.847559	1.654358
0.847656	1.652267
0.847754	1.647239
0.847852	1.653711
0.847949	1.657272
0.848047	1.662719
0.848145	1.658687
0.848242	1.657483
0.848340	1.663497
0.848437	1.670929
0.848535	1.674042
0.848633	1.667407
0.848730	1.661038
0.848828	1.652064
0.848926	1.652668
0.849023	1.639575
0.849121	1.644295
0.849219	1.644079
0.849316	1.629729
0.849414	1.618156
0.849512	1.613076
0.849609	1.627123
0.849707	1.616223
0.849805	1.603194
0.849902	1.608567
0.850000	1.592745
0.850098	1.578331
0.850195	1.574643
0.850293	1.559271
0.850391	1.556149
0.850488	1.551234
0.850586	1.549914
0.850684	1.554363
0.850781	1.556201
0.850879	1.555057
0.850977	1.553231
0.851074	1.558439
0.851172	1.560915
0.851270	1.579734
0.851367	1.594113
0.851465	1.621371
0.851562	1.601656
0.851660	1.553325
0.851758	1.562540
0.851855	1.518887
0.851953	1.487253
0.852051	1.450326
0.852148	1.417429
0.852246	1.415970
0.852344	1.409935
0.852441	1.362604
0.852539	1.361112
0.852637	1.369050
0.852734	1.378040
0.852832	1.400309
0.852930	1.421739
0.853027	1.456407
0.853125	1.469966
0.853223	1.479536
0.853320	1.478157
0.853418	1.494869
0.853516	1.506033
0.853613	1.481564
0.853711	1.482806
0.853809	1.467366
0.853906	1.445481
0.854004	1.442716
0.854102	1.467081
0.854199	1.455295
0.854297	1.471674
0.854395	1.460235
0.854492	1.421469
0.854590	1.438138
0.854687	1.431062
0.854785	1.415114
0.854883	1.400696
0.854980	1.430838
0.855078	1.506457
0.855176	1.513392
0.855273	1.504208
0.855371	1.518920
0.855469	1.531120
0.855566	1.496066
0.855664	1.537295
0.855762	1.573594
0.855859	1.588719
0.855957	1.581884
0.856055	1.557250
0.856152	1.513062
0.856250	1.488376
0.856348	1.502746
0.856445	1.517679
0.856543	1.516901
0.856641	1.507179
0.856738	1.506495
0.856836	1.502901
0.856934	1.494962
0.857031	1.485563
0.857129	1.491767
0.857227	1.487424
0.857324	1.479327
0.857422	1.496016
0.857520	1.499754
0.857617	1.500163
0.857715	1.486090
0.857812	1.468867
0.857910	1.421407
0.858008	1.398695
0.858105	1.428860
0.858203	1.430021
0.858301	1.422150
0.858398	1.417545
0.858496	1.424064
0.858594	1.418499
0.858691	1.403716
0.858789	1.381139
0.858887	1.361378
0.858984	1.351282
0.859082	1.355105
0.859180	1.361723
0.859277	1.361259
0.859375	1.352400
0.859473	1.348407
0.859570	1.352712
0.859668	1.351619
0.859766	1.329774
0.859863	1.316262
0.859961	1.331364
0.860059	1.352239
0.860156	1.365879
0.860254	1.369899
0.860352	1.367759
0.860449	1.366906
0.860547	1.364783
0.860645	1.362207
0.860742	1.366334
0.860840	1.378072
0.860937	1.371125
0.861035	1.407368
0.861133	1.442787
0.861230	1.430468
0.861328	1.395021
0.861426	1.386093
0.861523	1.428047
0.861621	1.473370
0.861719	1.451906
0.861816	1.510654
0.861914	1.531303
0.862012	1.508201
0.862109	1.506926
0.862207	1.471204
0.862305	1.441422
0.862402	1.425742
0.862500	1.491822
0.862598	1.560996
0.862695	1.602772
0.862793	1.617052
0.862891	1.620673
0.862988	1.634796
0.863086	1.643851
0.863184	1.644508
0.863281	1.639347
0.863379	1.636174
0.863477	1.624516
0.863574	1.603988
0.863672	1.615846
0.863770	1.626710
0.863867	1.626151
0.863965	1.630839
0.864062	1.633049
0.864160	1.641912
0.864258	1.632120
0.864355	1.638811
0.864453	1.616755
0.864551	1.612360
0.864648	1.619946
0.864746	1.583929
0.864844	1.565450
0.864941	1.593392
0.865039	1.608798
0.865137	1.593527
0.865234	1.564334
0.865332	1.564790
0.865430	1.564924
0.865527	1.560520
0.865625	1.580566
0.865723	1.554603
0.865820	1.491193
0.865918	1.549280
0.866016	1.613743
0.866113	1.577850
0.866211	1.575866
0.866309	1.595415
0.866406	1.554748
0.866504	1.503244
0.866602	1.556464
0.866699	1.577163
0.866797	1.572379
0.866895	1.578570
0.866992	1.564621
0.867090	1.572833
0.867187	1.579475
0.867285	1.589202
0.867383	1.613028
0.867480	1.636627
0.867578	1.598790
0.867676	1.552110
0.867773	1.514576
0.867871	1.600368
0.867969	1.555081
0.868066	1.561454
0.868164	1.523395
0.868262	1.545514
0.868359	1.568009
0.868457	1.557490
0.868555	1.580533
0.868652	1.582713
0.868750	1.540768
0.868848	1.519152
0.868945	1.601809
0.869043	1.605874
0.869141	1.598665
0.869238	1.552700
0.869336	1.576822
0.869434	1.520271
0.869531	1.440783
0.869629	1.415839
0.869727	1.504141
0.869824	1.480788
0.869922	1.432037
0.870020	1.381771
0.870117	1.355150
0.870215	1.358499
0.870312	1.403531
0.870410	1.437634
0.870508	1.428413
0.870605	1.396658
0.870703	1.380202
0.870801	1.405874
0.870898	1.481240
0.870996	1.481362
0.871094	1.486799
0.871191	1.513799
0.871289	1.498595
0.871387	1.545717
0.871484	1.632913
0.871582	1.623882
0.871680	1.568688
0.871777	1.559392
0.871875	1.528641
0.871973	1.522070
0.872070	1.519835
0.872168	1.520074
0.872266	1.522389
0.872363	1.520752
0.872461	1.524205
0.872559	1.526424
0.872656	1.526960
0.872754	1.528080
0.872852	1.524360
0.872949	1.517070
0.873047	1.500825
0.873145	1.474030
0.873242	1.451653
0.873340	1.426596
0.873437	1.413153
0.873535	1.420278
0.873633	1.423455
0.873730	1.424245
0.873828	1.425116
0.873926	1.437169
0.874023	1.450388
0.874121	1.463281
0.874219	1.471699
0.874316	1.477172
0.874414	1.473921
0.874512	1.470019
0.874609	1.482909
0.874707	1.490101
0.874805	1.493760
0.874902	1.495341
0.875000	1.493774
0.875098	1.486984
0.875195	1.484242
0.875293	1.481271
0.875391	1.476862
0.875488	1.468522
0.875586	1.461730
0.875684	1.456595
0.875781	1.458433
0.875879	1.461793
0.875977	1.455137
0.876074	1.438091
0.876172	1.419151
0.876270	1.403592
0.876367	1.398063
0.876465	1.401051
0.876562	1.406223
0.876660	1.410571
0.876758	1.406862
0.876855	1.394567
0.876953	1.377717
0.877051	1.357994
0.877148	1.339895
0.877246	1.326396
0.877344	1.317169
0.877441	1.310772
0.877539	1.307027
0.877637	1.305916
0.877734	1.306500
0.877832	1.306648
0.877930	1.306892
0.878027	1.306268
0.878125	1.305873
0.878223	1.304698
0.878320	1.303875
0.878418	1.304784
0.878516	1.311855
0.878613	1.321358
0.878711	1.334663
0.878809	1.347688
0.878906	1.358008
0.879004	1.367056
0.879102	1.380974
0.879199	1.372514
0.879297	1.371235
0.879395	1.379853
0.879492	1.389180
0.879590	1.407387
0.879687	1.430488
0.879785	1.425091
0.879883	1.371260
0.879980	1.349211
0.880078	1.354155
0.880176	1.340327
0.880273	1.302362
0.880371	1.277350
0.880469	1.272991
0.880566	1.285735
0.880664	1.281305
0.880762	1.287343
0.880859	1.318471
0.880957	1.382188
0.881055	1.440386
0.881152	1.455951
0.881250	1.507772
0.881348	1.541205
0.881445	1.567905
0.881543	1.576930
0.881641	1.588027
0.881738	1.593169
0.881836	1.609511
0.881934	1.613677
0.882031	1.607331
0.882129	1.582800
0.882227	1.569053
0.882324	1.546158
0.882422	1.555365
0.882520	1.552804
0.882617	1.530427
0.882715	1.510635
0.882812	1.507521
0.882910	1.511273
0.883008	1.526663
0.883105	1.524248
0.883203	1.531636
0.883301	1.581942
0.883398	1.609946
0.883496	1.601784
0.883594	1.577576
0.883691	1.569205
0.883789	1.562468
0.883887	1.505984
0.883984	1.427869
0.884082	1.447099
0.884180	1.439831
0.884277	1.407681
0.884375	1.401192
0.884473	1.422118
0.884570	1.421197
0.884668	1.405484
0.884766	1.399046
0.884863	1.412833
0.884961	1.423844
0.885059	1.450851
0.885156	1.460255
0.885254	1.467291
0.885352	1.472900
0.885449	1.507210
0.885547	1.485782
0.885645	1.472193
0.885742	1.462276
0.885840	1.453580
0.885937	1.435999
0.886035	1.422487
0.886133	1.403932
0.886230	1.368449
0.886328	1.359545
0.886426	1.363155
0.886523	1.355735
0.886621	1.339187
0.886719	1.305602
0.886816	1.297402
0.886914	1.324944
0.887012	1.324152
0.887109	1.304198
0.887207	1.283859
0.887305	1.278576
0.887402	1.282703
0.887500	1.286276
0.887598	1.285945
0.887695	1.280743
0.887793	1.272880
0.887891	1.265426
0.887988	1.256728
0.888086	1.247494
0.888184	1.241506
0.888281	1.240771
0.888379	1.242889
0.888477	1.244612
0.888574	1.248190
0.888672	1.259319
0.888770	1.279776
0.888867	1.301777
0.888965	1.324225
0.889062	1.341914
0.889160	1.353242
0.889258	1.362764
0.889355	1.371621
0.889453	1.377276
0.889551	1.375560
0.889648	1.367508
0.889746	1.354797
0.889844	1.352011
0.889941	1.355994
0.890039	1.354710
0.890137	1.348822
0.890234	1.346320
0.890332	1.342751
0.890430	1.334495
0.890527	1.320678
0.890625	1.331732
0.890723	1.363174
0.890820	1.397549
0.890918	1.385882
0.891016	1.400697
0.891113	1.463032
0.891211	1.487155
0.891309	1.483958
0.891406	1.454914
0.891504	1.450162
0.891602	1.448366
0.891699	1.424590
0.891797	1.385296
0.891895	1.355716
0.891992	1.341249
0.892090	1.336789
0.892187	1.333059
0.892285	1.329315
0.892383	1.328727
0.892480	1.327091
0.892578	1.321713
0.892676	1.315597
0.892773	1.310856
0.892871	1.304042
0.892969	1.301790
0.893066	1.309239
0.893164	1.319384
0.893262	1.331480
0.893359	1.337836
0.893457	1.337673
0.893555	1.334676
0.893652	1.331377
0.893750	1.329047
0.893848	1.323150
0.893945	1.317038
0.894043	1.318392
0.894141	1.319161
0.894238	1.318760
0.894336	1.324326
0.894434	1.336257
0.894531	1.351065
0.894629	1.367154
0.894727	1.389258
0.894824	1.416070
0.894922	1.424770
0.895020	1.416387
0.895117	1.402961
0.895215	1.388368
0.895312	1.399159
0.895410	1.438573
0.895508	1.466464
0.895605	1.485538
0.895703	1.499864
0.895801	1.512599
0.895898	1.507129
0.895996	1.524420
0.896094	1.535105
0.896191	1.508920
0.896289	1.488262
0.896387	1.466027
0.896484	1.445392
0.896582	1.428962
0.896680	1.433865
0.896777	1.465111
0.896875	1.482086
0.896973	1.479785
0.897070	1.503005
0.897168	1.528629
0.897266	1.539666
0.897363	1.533484
0.897461	1.557744
0.897559	1.576827
0.897656	1.562360
0.897754	1.521850
0.897852	1.495607
0.897949	1.505003
0.898047	1.523730
0.898145	1.596206
0.898242	1.613956
0.898340	1.614329
0.898437	1.604644
0.898535	1.626369
0.898633	1.575518
0.898730	1.583874
0.898828	1.590846
0.898926	1.565350
0.899023	1.525703
0.899121	1.518916
0.899219	1.487538
0.899316	1.479631
0.899414	1.499560
0.899512	1.536765
0.899609	1.580723
0.899707	1.590534
0.899805	1.576712
0.899902	1.587338
0.900000	1.596287
0.900098	1.580165
0.900195	1.528936
0.900293	1.489439
0.900391	1.505214
0.900488	1.500366
0.900586	1.512586
0.900684	1.540502
0.900781	1.552134
0.900879	1.522777
0.900977	1.502512
0.901074	1.490199
0.901172	1.494815
0.901270	1.489219
0.901367	1.484799
0.901465	1.480041
0.901562	1.451865
0.901660	1.407601
0.901758	1.359483
0.901855	1.358288
0.901953	1.428783
0.902051	1.481572
0.902148	1.490118
0.902246	1.495012
0.902344	1.496144
0.902441	1.480793
0.902539	1.466044
0.902637	1.471973
0.902734	1.477681
0.902832	1.475617
0.902930	1.465023
0.903027	1.463591
0.903125	1.467580
0.903223	1.457678
0.903320	1.442728
0.903418	1.433362
0.903516	1.397870
0.903613	1.369901
0.903711	1.366693
0.903809	1.349851
0.903906	1.298340
0.904004	1.313435
0.904102	1.346519
0.904199	1.370984
0.904297	1.395728
0.904395	1.396282
0.904492	1.394513
0.904590	1.387174
0.904687	1.372135
0.904785	1.353310
0.904883	1.339364
0.904980	1.332603
0.905078	1.331864
0.905176	1.329939
0.905273	1.319792
0.905371	1.305078
0.905469	1.293769
0.905566	1.290441
0.905664	1.288791
0.905762	1.292175
0.905859	1.305664
0.905957	1.317562
0.906055	1.318247
0.906152	1.316462
0.906250	1.320678
0.906348	1.325030
0.906445	1.323390
0.906543	1.320580
0.906641	1.319118
0.906738	1.316262
0.906836	1.299018
0.906934	1.297164
0.907031	1.319766
0.907129	1.339011
0.907227	1.340904
0.907324	1.360674
0.907422	1.398131
0.907520	1.419123
0.907617	1.438625
0.907715	1.447115
0.907812	1.443634
0.907910	1.433991
0.908008	1.434491
0.908105	1.433089
0.908203	1.420164
0.908301	1.405104
0.908398	1.386488
0.908496	1.383157
0.908594	1.396262
0.908691	1.405495
0.908789	1.410476
0.908887	1.407627
0.908984	1.381220
0.909082	1.356102
0.909180	1.355276
0.909277	1.367529
0.909375	1.385357
0.909473	1.392615
0.909570	1.380128
0.909668	1.353186
0.909766	1.345761
0.909863	1.346476
0.909961	1.320761
0.910059	1.308788
0.910156	1.318835
0.910254	1.343161
0.910352	1.359096
0.910449	1.364708
0.910547	1.363771
0.910645	1.343173
0.910742	1.320301
0.910840	1.293894
0.910937	1.266518
0.911035	1.240113
0.911133	1.255881
0.911230	1.325838
0.911328	1.381943
0.911426	1.401220
0.911523	1.377295
0.911621	1.376759
0.911719	1.379995
0.911816	1.390174
0.911914	1.421439
0.912012	1.426323
0.912109	1.416823
0.912207	1.403568
0.912305	1.415048
0.912402	1.424596
0.912500	1.423881
0.912598	1.423812
0.912695	1.413475
0.912793	1.412034
0.912891	1.421692
0.912988	1.422871
0.913086	1.413676
0.913184	1.400042
0.913281	1.385523
0.913379	1.398963
0.913477	1.402825
0.913574	1.395565
0.913672	1.385369
0.913770	1.371081
0.913867	1.382680
0.913965	1.441155
0.914062	1.495810
0.914160	1.535395
0.914258	1.546312
0.914355	1.549238
0.914453	1.565802
0.914551	1.569541
0.914648	1.568399
0.914746	1.560149
0.914844	1.553471
0.914941	1.549555
0.915039	1.541150
0.915137	1.543377
0.915234	1.536897
0.915332	1.529196
0.915430	1.528687
0.915527	1.532255
0.915625	1.547328
0.915723	1.578216
0.915820	1.593727
0.915918	1.587652
0.916016	1.604509
0.916113	1.594210
0.916211	1.600708
0.916309	1.604962
0.916406	1.610213
0.916504	1.616633
0.916602	1.611739
0.916699	1.609499
0.916797	1.602081
0.916895	1.590780
0.916992	1.581561
0.917090	1.550466
0.917187	1.504839
0.917285	1.453428
0.917383	1.421398
0.917480	1.418972
0.917578	1.429856
0.917676	1.457290
0.917773	1.465988
0.917871	1.459245
0.917969	1.465662
0.918066	1.477144
0.918164	1.469335
0.918262	1.448371
0.918359	1.495871
0.918457	1.556402
0.918555	1.566861
0.918652	1.534569
0.918750	1.501614
0.918848	1.478587
0.918945	1.469153
0.919043	1.472383
0.919141	1.470151
0.919238	1.452530
0.919336	1.445651
0.919434	1.459249
0.919531	1.484479
0.919629	1.485256
0.919727	1.493678
0.919824	1.487711
0.919922	1.487729
0.920020	1.484777
0.920117	1.485445
0.920215	1.478280
0.920312	1.474554
0.920410	1.481031
0.920508	1.484647
0.920605	1.466577
0.920703	1.442593
0.920801	1.416761
0.920898	1.415726
0.920996	1.427838
0.921094	1.440905
0.921191	1.460875
0.921289	1.502366
0.921387	1.528233
0.921484	1.506235
0.921582	1.497185
0.921680	1.491777
0.921777	1.460004
0.921875	1.477792
0.921973	1.523178
0.922070	1.516931
0.922168	1.502809
0.922266	1.504863
0.922363	1.507179
0.922461	1.513879
0.922559	1.479397
0.922656	1.451108
0.922754	1.441452
0.922852	1.440599
0.922949	1.451573
0.923047	1.473357
0.923145	1.477350
0.923242	1.457381
0.923340	1.456645
0.923437	1.476179
0.923535	1.479832
0.923633	1.500399
0.923730	1.495653
0.923828	1.471696
0.923926	1.441577
0.924023	1.413165
0.924121	1.409952
0.924219	1.407369
0.924316	1.404913
0.924414	1.399177
0.924512	1.414099
0.924609	1.462807
0.924707	1.496609
0.924805	1.510979
0.924902	1.514980
0.925000	1.511965
0.925098	1.529714
0.925195	1.527745
0.925293	1.542674
0.925391	1.540673
0.925488	1.528397
0.925586	1.532513
0.925684	1.504016
0.925781	1.471390
0.925879	1.444394
0.925977	1.418509
0.926074	1.395180
0.926172	1.379624
0.926270	1.382817
0.926367	1.394547
0.926465	1.395220
0.926562	1.376685
0.926660	1.364341
0.926758	1.367393
0.926855	1.353374
0.926953	1.335902
0.927051	1.320176
0.927148	1.301490
0.927246	1.284567
0.927344	1.272872
0.927441	1.263156
0.927539	1.255416
0.927637	1.248867
0.927734	1.245707
0.927832	1.245810
0.927930	1.251172
0.928027	1.260729
0.928125	1.275010
0.928223	1.291281
0.928320	1.310543
0.928418	1.326964
0.928516	1.345395
0.928613	1.364655
0.928711	1.380026
0.928809	1.383547
0.928906	1.376200
0.929004	1.361587
0.929102	1.349317
0.929199	1.352946
0.929297	1.367788
0.929395	1.383304
0.929492	1.399899
0.929590	1.424643
0.929687	1.412661
0.929785	1.394305
0.929883	1.393785
0.929980	1.385884
0.930078	1.387830
0.930176	1.381724
0.930273	1.343063
0.930371	1.291496
0.930469	1.265086
0.930566	1.269132
0.930664	1.310654
0.930762	1.340430
0.930859	1.349182
0.930957	1.374657
0.931055	1.404993
0.931152	1.396837
0.931250	1.385222
0.931348	1.380688
0.931445	1.361954
0.931543	1.322589
0.931641	1.293764
0.931738	1.300683
0.931836	1.348835
0.931934	1.380979
0.932031	1.380306
0.932129	1.367889
0.932227	1.368002
0.932324	1.346626
0.932422	1.310712
0.932520	1.301739
0.932617	1.294423
0.932715	1.294611
0.932812	1.297154
0.932910	1.300925
0.933008	1.304598
0.933105	1.307940
0.933203	1.308435
0.933301	1.308909
0.933398	1.312367
0.933496	1.321444
0.933594	1.310952
0.933691	1.282816
0.933789	1.289134
0.933887	1.361138
0.933984	1.401852
0.934082	1.415764
0.934180	1.416739
0.934277	1.395548
0.934375	1.359064
0.934473	1.330800
0.934570	1.330406
0.934668	1.333473
0.934766	1.329167
0.934863	1.332047
0.934961	1.346946
0.935059	1.360463
0.935156	1.370954
0.935254	1.375245
0.935352	1.369218
0.935449	1.361663
0.935547	1.353371
0.935645	1.340548
0.935742	1.323117
0.935840	1.304164
0.935937	1.286959
0.936035	1.275204
0.936133	1.269827
0.936230	1.269086
0.936328	1.271830
0.936426	1.273677
0.936523	1.271317
0.936621	1.270398
0.936719	1.284345
0.936816	1.305017
0.936914	1.339170
0.937012	1.360454
0.937109	1.364096
0.937207	1.389654
0.937305	1.433936
0.937402	1.462298
0.937500	1.474162
0.937598	1.478448
0.937695	1.488824
0.937793	1.491706
0.937891	1.492897
0.937988	1.495683
0.938086	1.493180
0.938184	1.496783
0.938281	1.491551
0.938379	1.483426
0.938477	1.474189
0.938574	1.470476
0.938672	1.472387
0.938770	1.489227
0.938867	1.486153
0.938965	1.497196
0.939062	1.530087
0.939160	1.570110
0.939258	1.560783
0.939355	1.541954
0.939453	1.549918
0.939551	1.541526
0.939648	1.540800
0.939746	1.543993
0.939844	1.546400
0.939941	1.541407
0.940039	1.561216
0.940137	1.543682
0.940234	1.535122
0.940332	1.540974
0.940430	1.554639
0.940527	1.537938
0.940625	1.588741
0.940723	1.602097
0.940820	1.623827
0.940918	1.626958
0.941016	1.594056
0.941113	1.561795
0.941211	1.539871
0.941309	1.532523
0.941406	1.523847
0.941504	1.495571
0.941602	1.515986
0.941699	1.565550
0.941797	1.583589
0.941895	1.574404
0.941992	1.602884
0.942090	1.585451
0.942187	1.589820
0.942285	1.561013
0.942383	1.512952
0.942480	1.514603
0.942578	1.544961
0.942676	1.555530
0.942773	1.534599
0.942871	1.547397
0.942969	1.497578
0.943066	1.472220
0.943164	1.510204
0.943262	1.520005
0.943359	1.505477
0.943457	1.483205
0.943555	1.431319
0.943652	1.489571
0.943750	1.539979
0.943848	1.549616
0.943945	1.536928
0.944043	1.511865
0.944141	1.465291
0.944238	1.402662
0.944336	1.428222
0.944434	1.477372
0.944531	1.491908
0.944629	1.503256
0.944727	1.539442
0.944824	1.549089
0.944922	1.515480
0.945020	1.470575
0.945117	1.459046
0.945215	1.467048
0.945312	1.410913
0.945410	1.372515
0.945508	1.462439
0.945605	1.512746
0.945703	1.540758
0.945801	1.545636
0.945898	1.540535
0.945996	1.533851
0.946094	1.538619
0.946191	1.543050
0.946289	1.525511
0.946387	1.510511
0.946484	1.469844
0.946582	1.472975
0.946680	1.494263
0.946777	1.436553
0.946875	1.399504
0.946973	1.390066
0.947070	1.432831
0.947168	1.452542
0.947266	1.455366
0.947363	1.472541
0.947461	1.476779
0.947559	1.483149
0.947656	1.488204
0.947754	1.485751
0.947852	1.470194
0.947949	1.449491
0.948047	1.429888
0.948145	1.410291
0.948242	1.389388
0.948340	1.372719
0.948437	1.362047
0.948535	1.356337
0.948633	1.353377
0.948730	1.346133
0.948828	1.329319
0.948926	1.311195
0.949023	1.300484
0.949121	1.311361
0.949219	1.322126
0.949316	1.314725
0.949414	1.309322
0.949512	1.330655
0.949609	1.362717
0.949707	1.373846
0.949805	1.371784
0.949902	1.365851
0.950000	1.361989
0.950098	1.361276
0.950195	1.372060
0.950293	1.389136
0.950391	1.399587
0.950488	1.396431
0.950586	1.392169
0.950684	1.395490
0.950781	1.403077
0.950879	1.409159
0.950977	1.411035
0.951074	1.403367
0.951172	1.411897
0.951270	1.431002
0.951367	1.439835
0.951465	1.444473
0.951562	1.448906
0.951660	1.449920
0.951758	1.454195
0.951855	1.453639
0.951953	1.445154
0.952051	1.440538
0.952148	1.444450
0.952246	1.457302
0.952344	1.462453
0.952441	1.456506
0.952539	1.447532
0.952637	1.446391
0.952734	1.450436
0.952832	1.457221
0.952930	1.466749
0.953027	1.474338
0.953125	1.472167
0.953223	1.463407
0.953320	1.444813
0.953418	1.427873
0.953516	1.410249
0.953613	1.400109
0.953711	1.409747
0.953809	1.426329
0.953906	1.464617
0.954004	1.494116
0.954102	1.490170
0.954199	1.489189
0.954297	1.492208
0.954395	1.485463
0.954492	1.491915
0.954590	1.487414
0.954687	1.496933
0.954785	1.523286
0.954883	1.542254
0.954980	1.537359
0.955078	1.518247
0.955176	1.505983
0.955273	1.508137
0.955371	1.527768
0.955469	1.527557
0.955566	1.531055
0.955664	1.521206
0.955762	1.514490
0.955859	1.517848
0.955957	1.528194
0.956055	1.529986
0.956152	1.543449
0.956250	1.535856
0.956348	1.549878
0.956445	1.527518
0.956543	1.506678
0.956641	1.483579
0.956738	1.451359
0.956836	1.436389
0.956934	1.449696
0.957031	1.517012
0.957129	1.531103
0.957227	1.510024
0.957324	1.477496
0.957422	1.451545
0.957520	1.450463
0.957617	1.463408
0.957715	1.459643
0.957812	1.449725
0.957910	1.444224
0.958008	1.454559
0.958105	1.450806
0.958203	1.448250
0.958301	1.458213
0.958398	1.469712
0.958496	1.484610
0.958594	1.456180
0.958691	1.446509
0.958789	1.461503
0.958887	1.490157
0.958984	1.498493
0.959082	1.512137
0.959180	1.505686
0.959277	1.482985
0.959375	1.501376
0.959473	1.473584
0.959570	1.449087
0.959668	1.463110
0.959766	1.458255
0.959863	1.447714
0.959961	1.482604
0.960059	1.505300
0.960156	1.536972
0.960254	1.538132
0.960352	1.531330
0.960449	1.556846
0.960547	1.580358
0.960645	1.595827
0.960742	1.575264
0.960840	1.552813
0.960937	1.551334
0.961035	1.547544
0.961133	1.556427
0.961230	1.577758
0.961328	1.592940
0.961426	1.589181
0.961523	1.592078
0.961621	1.577717
0.961719	1.580964
0.961816	1.602350
0.961914	1.590129
0.962012	1.579320
0.962109	1.553801
0.962207	1.536917
0.962305	1.556673
0.962402	1.587994
0.962500	1.618909
0.962598	1.606934
0.962695	1.596530
0.962793	1.594344
0.962891	1.593701
0.962988	1.573489
0.963086	1.564902
0.963184	1.566148
0.963281	1.562685
0.963379	1.558150
0.963477	1.538785
0.963574	1.513641
0.963672	1.485270
0.963770	1.464113
0.963867	1.490912
0.963965	1.535536
0.964062	1.540739
0.964160	1.558905
0.964258	1.582231
0.964355	1.577076
0.964453	1.569786
0.964551	1.550027
0.964648	1.534686
0.964746	1.517866
0.964844	1.498370
0.964941	1.497602
0.965039	1.499115
0.965137	1.495841
0.965234	1.482623
0.965332	1.456368
0.965430	1.447161
0.965527	1.462419
0.965625	1.476228
0.965723	1.481154
0.965820	1.470373
0.965918	1.461089
0.966016	1.454666
0.966113	1.465473
0.966211	1.464542
0.966309	1.422345
0.966406	1.404284
0.966504	1.408603
0.966602	1.397140
0.966699	1.391140
0.966797	1.381376
0.966895	1.360319
0.966992	1.347190
0.967090	1.346633
0.967187	1.349183
0.967285	1.347159
0.967383	1.339447
0.967480	1.328617
0.967578	1.319366
0.967676	1.313642
0.967773	1.310044
0.967871	1.306129
0.967969	1.302127
0.968066	1.299193
0.968164	1.298679
0.968262	1.301263
0.968359	1.308967
0.968457	1.322929
0.968555	1.341010
0.968652	1.359192
0.968750	1.375602
0.968848	1.390246
0.968945	1.402347
0.969043	1.410627
0.969141	1.425947
0.969238	1.452408
0.969336	1.486275
0.969434	1.517549
0.969531	1.530449
0.969629	1.537079
0.969727	1.564374
0.969824	1.602375
0.969922	1.572572
0.970020	1.562012
0.970117	1.587541
0.970215	1.579345
0.970312	1.553950
0.970410	1.548662
0.970508	1.584894
0.970605	1.591945
0.970703	1.596097
0.970801	1.592147
0.970898	1.579297
0.970996	1.572833
0.971094	1.568071
0.971191	1.574945
0.971289	1.580419
0.971387	1.573962
0.971484	1.582899
0.971582	1.585986
0.971680	1.587507
0.971777	1.590852
0.971875	1.590296
0.971973	1.589593
0.972070	1.589014
0.972168	1.589823
0.972266	1.590259
0.972363	1.590970
0.972461	1.587849
0.972559	1.585099
0.972656	1.581156
0.972754	1.575399
0.972852	1.570020
0.972949	1.568832
0.973047	1.571055
0.973145	1.574640
0.973242	1.573722
0.973340	1.558798
0.973437	1.534530
0.973535	1.520555
0.973633	1.510352
0.973730	1.490400
0.973828	1.455782
0.973926	1.408415
0.974023	1.351557
0.974121	1.367085
0.974219	1.428971
0.974316	1.446427
0.974414	1.424242
0.974512	1.398919
0.974609	1.377506
0.974707	1.361759
0.974805	1.372144
0.974902	1.396209
0.975000	1.414345
0.975098	1.415677
0.975195	1.403875
0.975293	1.392179
0.975391	1.384631
0.975488	1.388892
0.975586	1.407041
0.975684	1.400188
0.975781	1.369168
0.975879	1.330606
0.975977	1.356796
0.976074	1.398398
0.976172	1.426821
0.976270	1.456066
0.976367	1.484373
0.976465	1.473959

