LabVIEW Measurement	
Writer_Version	2
Reader_Version	2
Separator	Tab
Decimal_Separator	.
Multi_Headings	Yes
X_Columns	One
Time_Pref	Absolute
Operator	W-Tunnel
Date	1904/01/01
Time	01:00:00
***End_of_Header***	
	
Channels	1	
Samples	10000	
Date	2024/05/17	
Time	18:32:58.7368439562496308697	
Y_Unit_Label	Volts	
X_Dimension	Time	
X0	0.0000000000000000E+0	
Delta_X	9.765625E-5	
***End_of_Header***		
X_Value	Voltage	Comment
0.000000	1.336404
9.765625E-5	1.295881
0.000195	1.268483
0.000293	1.342032
0.000391	1.447745
0.000488	1.439699
0.000586	1.386705
0.000684	1.319455
0.000781	1.288520
0.000879	1.334433
0.000977	1.424129
0.001074	1.437934
0.001172	1.474687
0.001270	1.491201
0.001367	1.475551
0.001465	1.501516
0.001562	1.526491
0.001660	1.517490
0.001758	1.493915
0.001855	1.445715
0.001953	1.395895
0.002051	1.370210
0.002148	1.388123
0.002246	1.486159
0.002344	1.480257
0.002441	1.451203
0.002539	1.473933
0.002637	1.466897
0.002734	1.443859
0.002832	1.431094
0.002930	1.425920
0.003027	1.431991
0.003125	1.496053
0.003223	1.537053
0.003320	1.571690
0.003418	1.535400
0.003516	1.548004
0.003613	1.540595
0.003711	1.489622
0.003809	1.488180
0.003906	1.487837
0.004004	1.467021
0.004102	1.462530
0.004199	1.466401
0.004297	1.448662
0.004395	1.436312
0.004492	1.483704
0.004590	1.527405
0.004687	1.542379
0.004785	1.530652
0.004883	1.500094
0.004980	1.480899
0.005078	1.458817
0.005176	1.422472
0.005273	1.395126
0.005371	1.360265
0.005469	1.359232
0.005566	1.379473
0.005664	1.368022
0.005762	1.317997
0.005859	1.345107
0.005957	1.405845
0.006055	1.386499
0.006152	1.388751
0.006250	1.391428
0.006348	1.396547
0.006445	1.384504
0.006543	1.406216
0.006641	1.423909
0.006738	1.437693
0.006836	1.431253
0.006934	1.433394
0.007031	1.404657
0.007129	1.366929
0.007227	1.335572
0.007324	1.343691
0.007422	1.375737
0.007520	1.399356
0.007617	1.407903
0.007715	1.417748
0.007812	1.402319
0.007910	1.395374
0.008008	1.419574
0.008105	1.422963
0.008203	1.445254
0.008301	1.483233
0.008398	1.463260
0.008496	1.445928
0.008594	1.455909
0.008691	1.483323
0.008789	1.455862
0.008887	1.427726
0.008984	1.459874
0.009082	1.474567
0.009180	1.456662
0.009277	1.443546
0.009375	1.446948
0.009473	1.443040
0.009570	1.434279
0.009668	1.439029
0.009766	1.470737
0.009863	1.494203
0.009961	1.516257
0.010059	1.515957
0.010156	1.505423
0.010254	1.492413
0.010352	1.468550
0.010449	1.450106
0.010547	1.432200
0.010645	1.419896
0.010742	1.411976
0.010840	1.409123
0.010937	1.389077
0.011035	1.398910
0.011133	1.482493
0.011230	1.531852
0.011328	1.529710
0.011426	1.541644
0.011523	1.535898
0.011621	1.517151
0.011719	1.513157
0.011816	1.522749
0.011914	1.517220
0.012012	1.510983
0.012109	1.490181
0.012207	1.505205
0.012305	1.548272
0.012402	1.531859
0.012500	1.536030
0.012598	1.530331
0.012695	1.589826
0.012793	1.628566
0.012891	1.557616
0.012988	1.551336
0.013086	1.523690
0.013184	1.516140
0.013281	1.517621
0.013379	1.515723
0.013477	1.463209
0.013574	1.432617
0.013672	1.458181
0.013770	1.470382
0.013867	1.507120
0.013965	1.543904
0.014062	1.541326
0.014160	1.519030
0.014258	1.509669
0.014355	1.508005
0.014453	1.518856
0.014551	1.512288
0.014648	1.468617
0.014746	1.483775
0.014844	1.461980
0.014941	1.403121
0.015039	1.342358
0.015137	1.314439
0.015234	1.349177
0.015332	1.413548
0.015430	1.468803
0.015527	1.480008
0.015625	1.516557
0.015723	1.513114
0.015820	1.506662
0.015918	1.513155
0.016016	1.505726
0.016113	1.491631
0.016211	1.505871
0.016309	1.530068
0.016406	1.521544
0.016504	1.492220
0.016602	1.435908
0.016699	1.452308
0.016797	1.491158
0.016895	1.501030
0.016992	1.526413
0.017090	1.507815
0.017187	1.454279
0.017285	1.478763
0.017383	1.475973
0.017480	1.422708
0.017578	1.385958
0.017676	1.374093
0.017773	1.378116
0.017871	1.471874
0.017969	1.563378
0.018066	1.556564
0.018164	1.521356
0.018262	1.522707
0.018359	1.528285
0.018457	1.467229
0.018555	1.445542
0.018652	1.472176
0.018750	1.476699
0.018848	1.508428
0.018945	1.505648
0.019043	1.468904
0.019141	1.432857
0.019238	1.404119
0.019336	1.376903
0.019434	1.377858
0.019531	1.411928
0.019629	1.412831
0.019727	1.432472
0.019824	1.422102
0.019922	1.416155
0.020020	1.400952
0.020117	1.382116
0.020215	1.351044
0.020312	1.357758
0.020410	1.367807
0.020508	1.352940
0.020605	1.359356
0.020703	1.372488
0.020801	1.392245
0.020898	1.421074
0.020996	1.438612
0.021094	1.452186
0.021191	1.478027
0.021289	1.508744
0.021387	1.509906
0.021484	1.480028
0.021582	1.461084
0.021680	1.448525
0.021777	1.460815
0.021875	1.468829
0.021973	1.483578
0.022070	1.482128
0.022168	1.469916
0.022266	1.476430
0.022363	1.522787
0.022461	1.540106
0.022559	1.546254
0.022656	1.562357
0.022754	1.548822
0.022852	1.564477
0.022949	1.564052
0.023047	1.584687
0.023145	1.586161
0.023242	1.600115
0.023340	1.617909
0.023437	1.681685
0.023535	1.677242
0.023633	1.629720
0.023730	1.564581
0.023828	1.494607
0.023926	1.430800
0.024023	1.414992
0.024121	1.511660
0.024219	1.591163
0.024316	1.623904
0.024414	1.611269
0.024512	1.594544
0.024609	1.591589
0.024707	1.583488
0.024805	1.573539
0.024902	1.591093
0.025000	1.559562
0.025098	1.511342
0.025195	1.589999
0.025293	1.582711
0.025391	1.530308
0.025488	1.508342
0.025586	1.582531
0.025684	1.562923
0.025781	1.557342
0.025879	1.563492
0.025977	1.551461
0.026074	1.565674
0.026172	1.522677
0.026270	1.517978
0.026367	1.529793
0.026465	1.555201
0.026562	1.547915
0.026660	1.601641
0.026758	1.596713
0.026855	1.526023
0.026953	1.541370
0.027051	1.569599
0.027148	1.553393
0.027246	1.549425
0.027344	1.564717
0.027441	1.606142
0.027539	1.579523
0.027637	1.558235
0.027734	1.556044
0.027832	1.587871
0.027930	1.547427
0.028027	1.586055
0.028125	1.590914
0.028223	1.590471
0.028320	1.565675
0.028418	1.548558
0.028516	1.548477
0.028613	1.479030
0.028711	1.492743
0.028809	1.506079
0.028906	1.489777
0.029004	1.453283
0.029102	1.483284
0.029199	1.504623
0.029297	1.521702
0.029395	1.491936
0.029492	1.468990
0.029590	1.479734
0.029687	1.475875
0.029785	1.463250
0.029883	1.444493
0.029980	1.405429
0.030078	1.368825
0.030176	1.396405
0.030273	1.425735
0.030371	1.445774
0.030469	1.427789
0.030566	1.419938
0.030664	1.464894
0.030762	1.534532
0.030859	1.535060
0.030957	1.506810
0.031055	1.457948
0.031152	1.393409
0.031250	1.385574
0.031348	1.396387
0.031445	1.387100
0.031543	1.358338
0.031641	1.387965
0.031738	1.420336
0.031836	1.473615
0.031934	1.517571
0.032031	1.501436
0.032129	1.452777
0.032227	1.408346
0.032324	1.427585
0.032422	1.471935
0.032520	1.533891
0.032617	1.560988
0.032715	1.529017
0.032812	1.482467
0.032910	1.423946
0.033008	1.377897
0.033105	1.378685
0.033203	1.401380
0.033301	1.408868
0.033398	1.369085
0.033496	1.382606
0.033594	1.410493
0.033691	1.412339
0.033789	1.431449
0.033887	1.419115
0.033984	1.447038
0.034082	1.489829
0.034180	1.526911
0.034277	1.544843
0.034375	1.506296
0.034473	1.536333
0.034570	1.534956
0.034668	1.501717
0.034766	1.494744
0.034863	1.514067
0.034961	1.514955
0.035059	1.508701
0.035156	1.464767
0.035254	1.420055
0.035352	1.377535
0.035449	1.341013
0.035547	1.334233
0.035645	1.338179
0.035742	1.349102
0.035840	1.354955
0.035937	1.326427
0.036035	1.305740
0.036133	1.290827
0.036230	1.303203
0.036328	1.338094
0.036426	1.357206
0.036523	1.353402
0.036621	1.350060
0.036719	1.391207
0.036816	1.435158
0.036914	1.464589
0.037012	1.482806
0.037109	1.487543
0.037207	1.510666
0.037305	1.531867
0.037402	1.551724
0.037500	1.569350
0.037598	1.585858
0.037695	1.600887
0.037793	1.605434
0.037891	1.594618
0.037988	1.587718
0.038086	1.590229
0.038184	1.606660
0.038281	1.605680
0.038379	1.593439
0.038477	1.586897
0.038574	1.597361
0.038672	1.550176
0.038770	1.477123
0.038867	1.458322
0.038965	1.440278
0.039062	1.447472
0.039160	1.485181
0.039258	1.513357
0.039355	1.520811
0.039453	1.534023
0.039551	1.536589
0.039648	1.517224
0.039746	1.533938
0.039844	1.533545
0.039941	1.597200
0.040039	1.546235
0.040137	1.536916
0.040234	1.584961
0.040332	1.628816
0.040430	1.601563
0.040527	1.595434
0.040625	1.571415
0.040723	1.568312
0.040820	1.579356
0.040918	1.549286
0.041016	1.569284
0.041113	1.537482
0.041211	1.557594
0.041309	1.514020
0.041406	1.485059
0.041504	1.506238
0.041602	1.495030
0.041699	1.511503
0.041797	1.499817
0.041895	1.511766
0.041992	1.518286
0.042090	1.534220
0.042187	1.553915
0.042285	1.540582
0.042383	1.498002
0.042480	1.461103
0.042578	1.419519
0.042676	1.435801
0.042773	1.423535
0.042871	1.383696
0.042969	1.362011
0.043066	1.330442
0.043164	1.341751
0.043262	1.385390
0.043359	1.372136
0.043457	1.354770
0.043555	1.351712
0.043652	1.347774
0.043750	1.327683
0.043848	1.310712
0.043945	1.302262
0.044043	1.348826
0.044141	1.417417
0.044238	1.403665
0.044336	1.389981
0.044434	1.395008
0.044531	1.418377
0.044629	1.470822
0.044727	1.492756
0.044824	1.464696
0.044922	1.443320
0.045020	1.456535
0.045117	1.436883
0.045215	1.422879
0.045312	1.394562
0.045410	1.362672
0.045508	1.344210
0.045605	1.325715
0.045703	1.334555
0.045801	1.374974
0.045898	1.418619
0.045996	1.459631
0.046094	1.471129
0.046191	1.495026
0.046289	1.504840
0.046387	1.479138
0.046484	1.450365
0.046582	1.455527
0.046680	1.483853
0.046777	1.505485
0.046875	1.460959
0.046973	1.443460
0.047070	1.485632
0.047168	1.497329
0.047266	1.467854
0.047363	1.458218
0.047461	1.474695
0.047559	1.470358
0.047656	1.471855
0.047754	1.472715
0.047852	1.442873
0.047949	1.408695
0.048047	1.394266
0.048145	1.409614
0.048242	1.429048
0.048340	1.428021
0.048437	1.418589
0.048535	1.399894
0.048633	1.371239
0.048730	1.343309
0.048828	1.310853
0.048926	1.287666
0.049023	1.275509
0.049121	1.275452
0.049219	1.277345
0.049316	1.274041
0.049414	1.265700
0.049512	1.255858
0.049609	1.246517
0.049707	1.239929
0.049805	1.238384
0.049902	1.243315
0.050000	1.254133
0.050098	1.267662
0.050195	1.281258
0.050293	1.295470
0.050391	1.313070
0.050488	1.333699
0.050586	1.355337
0.050684	1.382307
0.050781	1.395108
0.050879	1.377058
0.050977	1.366515
0.051074	1.371167
0.051172	1.398982
0.051270	1.432712
0.051367	1.480188
0.051465	1.530704
0.051562	1.546411
0.051660	1.529398
0.051758	1.495404
0.051855	1.486338
0.051953	1.470654
0.052051	1.495743
0.052148	1.555202
0.052246	1.551791
0.052344	1.556874
0.052441	1.571651
0.052539	1.567228
0.052637	1.522703
0.052734	1.506708
0.052832	1.490497
0.052930	1.467171
0.053027	1.538931
0.053125	1.527972
0.053223	1.443934
0.053320	1.377358
0.053418	1.344203
0.053516	1.316334
0.053613	1.327561
0.053711	1.350849
0.053809	1.367634
0.053906	1.351005
0.054004	1.413147
0.054102	1.451610
0.054199	1.437887
0.054297	1.466771
0.054395	1.488249
0.054492	1.519665
0.054590	1.456902
0.054687	1.458697
0.054785	1.446656
0.054883	1.449077
0.054980	1.417855
0.055078	1.377376
0.055176	1.349612
0.055273	1.378213
0.055371	1.357435
0.055469	1.305117
0.055566	1.369573
0.055664	1.382525
0.055762	1.391888
0.055859	1.392742
0.055957	1.395484
0.056055	1.379541
0.056152	1.352072
0.056250	1.375729
0.056348	1.408707
0.056445	1.420804
0.056543	1.469343
0.056641	1.514146
0.056738	1.506706
0.056836	1.511827
0.056934	1.515960
0.057031	1.481549
0.057129	1.461233
0.057227	1.441314
0.057324	1.488176
0.057422	1.549613
0.057520	1.552126
0.057617	1.535222
0.057715	1.523319
0.057812	1.519439
0.057910	1.504238
0.058008	1.485318
0.058105	1.510910
0.058203	1.529253
0.058301	1.520118
0.058398	1.509864
0.058496	1.498595
0.058594	1.494395
0.058691	1.486037
0.058789	1.477093
0.058887	1.464920
0.058984	1.444625
0.059082	1.428729
0.059180	1.436228
0.059277	1.444519
0.059375	1.428003
0.059473	1.403586
0.059570	1.386893
0.059668	1.372123
0.059766	1.353753
0.059863	1.332653
0.059961	1.312650
0.060059	1.300025
0.060156	1.312886
0.060254	1.350547
0.060352	1.377852
0.060449	1.376961
0.060547	1.358188
0.060645	1.346268
0.060742	1.345930
0.060840	1.358222
0.060937	1.378253
0.061035	1.403027
0.061133	1.402706
0.061230	1.394480
0.061328	1.441165
0.061426	1.461319
0.061523	1.468846
0.061621	1.474454
0.061719	1.474672
0.061816	1.469241
0.061914	1.440440
0.062012	1.407075
0.062109	1.392090
0.062207	1.397315
0.062305	1.380724
0.062402	1.353230
0.062500	1.325600
0.062598	1.320151
0.062695	1.364119
0.062793	1.396594
0.062891	1.405740
0.062988	1.416585
0.063086	1.412802
0.063184	1.399458
0.063281	1.378793
0.063379	1.350363
0.063477	1.317661
0.063574	1.295624
0.063672	1.275322
0.063770	1.254572
0.063867	1.246664
0.063965	1.254268
0.064062	1.266855
0.064160	1.273615
0.064258	1.269911
0.064355	1.255021
0.064453	1.240957
0.064551	1.239299
0.064648	1.257496
0.064746	1.278456
0.064844	1.284819
0.064941	1.283437
0.065039	1.290764
0.065137	1.321981
0.065234	1.399880
0.065332	1.478145
0.065430	1.514177
0.065527	1.565211
0.065625	1.564338
0.065723	1.551209
0.065820	1.545186
0.065918	1.536092
0.066016	1.538671
0.066113	1.528368
0.066211	1.513015
0.066309	1.508992
0.066406	1.495615
0.066504	1.494505
0.066602	1.544018
0.066699	1.573524
0.066797	1.571967
0.066895	1.585734
0.066992	1.590527
0.067090	1.579461
0.067187	1.574256
0.067285	1.607433
0.067383	1.649343
0.067480	1.657013
0.067578	1.663072
0.067676	1.670808
0.067773	1.690164
0.067871	1.699888
0.067969	1.724303
0.068066	1.722199
0.068164	1.723040
0.068262	1.723835
0.068359	1.713354
0.068457	1.710399
0.068555	1.724268
0.068652	1.726786
0.068750	1.726351
0.068848	1.718902
0.068945	1.692980
0.069043	1.687590
0.069141	1.643626
0.069238	1.600851
0.069336	1.602842
0.069434	1.593646
0.069531	1.602358
0.069629	1.604014
0.069727	1.587324
0.069824	1.556060
0.069922	1.594542
0.070020	1.621897
0.070117	1.674198
0.070215	1.661109
0.070312	1.695841
0.070410	1.652477
0.070508	1.667073
0.070605	1.686367
0.070703	1.669930
0.070801	1.638322
0.070898	1.668057
0.070996	1.681498
0.071094	1.666286
0.071191	1.642480
0.071289	1.622365
0.071387	1.613419
0.071484	1.557776
0.071582	1.536883
0.071680	1.526320
0.071777	1.530555
0.071875	1.556275
0.071973	1.535324
0.072070	1.496369
0.072168	1.484502
0.072266	1.492648
0.072363	1.496611
0.072461	1.473606
0.072559	1.478448
0.072656	1.523767
0.072754	1.502704
0.072852	1.575766
0.072949	1.643210
0.073047	1.615845
0.073145	1.576946
0.073242	1.664852
0.073340	1.668064
0.073437	1.600663
0.073535	1.634030
0.073633	1.664638
0.073730	1.653829
0.073828	1.664449
0.073926	1.662440
0.074023	1.647445
0.074121	1.626165
0.074219	1.603238
0.074316	1.599265
0.074414	1.586980
0.074512	1.554160
0.074609	1.535726
0.074707	1.463491
0.074805	1.505831
0.074902	1.526692
0.075000	1.493764
0.075098	1.489021
0.075195	1.486460
0.075293	1.489026
0.075391	1.499090
0.075488	1.505567
0.075586	1.533497
0.075684	1.579649
0.075781	1.553671
0.075879	1.518905
0.075977	1.504753
0.076074	1.504884
0.076172	1.503521
0.076270	1.505066
0.076367	1.473564
0.076465	1.445400
0.076562	1.459621
0.076660	1.438675
0.076758	1.456403
0.076855	1.464764
0.076953	1.503319
0.077051	1.510813
0.077148	1.512596
0.077246	1.516280
0.077344	1.477870
0.077441	1.413785
0.077539	1.379512
0.077637	1.394673
0.077734	1.396059
0.077832	1.378088
0.077930	1.376722
0.078027	1.373125
0.078125	1.363708
0.078223	1.366732
0.078320	1.390685
0.078418	1.427513
0.078516	1.460580
0.078613	1.479094
0.078711	1.493603
0.078809	1.509223
0.078906	1.491209
0.079004	1.470288
0.079102	1.365248
0.079199	1.344349
0.079297	1.396691
0.079395	1.403766
0.079492	1.404947
0.079590	1.357081
0.079687	1.346264
0.079785	1.340769
0.079883	1.305770
0.079980	1.275520
0.080078	1.275628
0.080176	1.296604
0.080273	1.318972
0.080371	1.332917
0.080469	1.344805
0.080566	1.362596
0.080664	1.362188
0.080762	1.345647
0.080859	1.328565
0.080957	1.321587
0.081055	1.331504
0.081152	1.339581
0.081250	1.329912
0.081348	1.321370
0.081445	1.318628
0.081543	1.301446
0.081641	1.293678
0.081738	1.307763
0.081836	1.357704
0.081934	1.508082
0.082031	1.550916
0.082129	1.529010
0.082227	1.542749
0.082324	1.554135
0.082422	1.569171
0.082520	1.586481
0.082617	1.605624
0.082715	1.625784
0.082812	1.617937
0.082910	1.622098
0.083008	1.584343
0.083105	1.587122
0.083203	1.595400
0.083301	1.568896
0.083398	1.608877
0.083496	1.624700
0.083594	1.637084
0.083691	1.642022
0.083789	1.673216
0.083887	1.680076
0.083984	1.668449
0.084082	1.676048
0.084180	1.688722
0.084277	1.672008
0.084375	1.627075
0.084473	1.585348
0.084570	1.547118
0.084668	1.584289
0.084766	1.611325
0.084863	1.592159
0.084961	1.565124
0.085059	1.542021
0.085156	1.533639
0.085254	1.525598
0.085352	1.577597
0.085449	1.591035
0.085547	1.560322
0.085645	1.560643
0.085742	1.565928
0.085840	1.543143
0.085937	1.525184
0.086035	1.515052
0.086133	1.512588
0.086230	1.511880
0.086328	1.489883
0.086426	1.537463
0.086523	1.540813
0.086621	1.556066
0.086719	1.576592
0.086816	1.589960
0.086914	1.619579
0.087012	1.605106
0.087109	1.607530
0.087207	1.613913
0.087305	1.596431
0.087402	1.631900
0.087500	1.700479
0.087598	1.636160
0.087695	1.639477
0.087793	1.599904
0.087891	1.560026
0.087988	1.565624
0.088086	1.498951
0.088184	1.433289
0.088281	1.459343
0.088379	1.482977
0.088477	1.458700
0.088574	1.443797
0.088672	1.480207
0.088770	1.484463
0.088867	1.531772
0.088965	1.556275
0.089062	1.566106
0.089160	1.541269
0.089258	1.556011
0.089355	1.516860
0.089453	1.458895
0.089551	1.499507
0.089648	1.509011
0.089746	1.561442
0.089844	1.537185
0.089941	1.523138
0.090039	1.462771
0.090137	1.494619
0.090234	1.502341
0.090332	1.473868
0.090430	1.488564
0.090527	1.483889
0.090625	1.470954
0.090723	1.455239
0.090820	1.454837
0.090918	1.456499
0.091016	1.485920
0.091113	1.507896
0.091211	1.491781
0.091309	1.480359
0.091406	1.501309
0.091504	1.521389
0.091602	1.545205
0.091699	1.549656
0.091797	1.558470
0.091895	1.538735
0.091992	1.550344
0.092090	1.534431
0.092187	1.558272
0.092285	1.612002
0.092383	1.602946
0.092480	1.581402
0.092578	1.583590
0.092676	1.577189
0.092773	1.550116
0.092871	1.520178
0.092969	1.487725
0.093066	1.470025
0.093164	1.468145
0.093262	1.457212
0.093359	1.430180
0.093457	1.417164
0.093555	1.415962
0.093652	1.411720
0.093750	1.404969
0.093848	1.404628
0.093945	1.409098
0.094043	1.419820
0.094141	1.419426
0.094238	1.406352
0.094336	1.386416
0.094434	1.362501
0.094531	1.340399
0.094629	1.328748
0.094727	1.335478
0.094824	1.345985
0.094922	1.350121
0.095020	1.356642
0.095117	1.383809
0.095215	1.396084
0.095312	1.389634
0.095410	1.455368
0.095508	1.521737
0.095605	1.549049
0.095703	1.564181
0.095801	1.524640
0.095898	1.505873
0.095996	1.504281
0.096094	1.581601
0.096191	1.563457
0.096289	1.570516
0.096387	1.598960
0.096484	1.587647
0.096582	1.579140
0.096680	1.583680
0.096777	1.574607
0.096875	1.599745
0.096973	1.635830
0.097070	1.620185
0.097168	1.625091
0.097266	1.624144
0.097363	1.622877
0.097461	1.605484
0.097559	1.605405
0.097656	1.610369
0.097754	1.607842
0.097852	1.606234
0.097949	1.607867
0.098047	1.607592
0.098145	1.610691
0.098242	1.613191
0.098340	1.622134
0.098437	1.630091
0.098535	1.652950
0.098633	1.663793
0.098730	1.639779
0.098828	1.651100
0.098926	1.637084
0.099023	1.646192
0.099121	1.602327
0.099219	1.590450
0.099316	1.623461
0.099414	1.639642
0.099512	1.646197
0.099609	1.643235
0.099707	1.647831
0.099805	1.602424
0.099902	1.605365
0.100000	1.605162
0.100098	1.585555
0.100195	1.589372
0.100293	1.578813
0.100391	1.550836
0.100488	1.552493
0.100586	1.613976
0.100684	1.580241
0.100781	1.554730
0.100879	1.574127
0.100977	1.570051
0.101074	1.573055
0.101172	1.532494
0.101270	1.493888
0.101367	1.499463
0.101465	1.499608
0.101562	1.527329
0.101660	1.556837
0.101758	1.527181
0.101855	1.557685
0.101953	1.583868
0.102051	1.595478
0.102148	1.601022
0.102246	1.613975
0.102344	1.642710
0.102441	1.647343
0.102539	1.611263
0.102637	1.618633
0.102734	1.641607
0.102832	1.632790
0.102930	1.627890
0.103027	1.640065
0.103125	1.637282
0.103223	1.620632
0.103320	1.616023
0.103418	1.612169
0.103516	1.601486
0.103613	1.600032
0.103711	1.599176
0.103809	1.574966
0.103906	1.560889
0.104004	1.556254
0.104102	1.529213
0.104199	1.523334
0.104297	1.547420
0.104395	1.586623
0.104492	1.586580
0.104590	1.633258
0.104687	1.638676
0.104785	1.634479
0.104883	1.605749
0.104980	1.550409
0.105078	1.544967
0.105176	1.540488
0.105273	1.549809
0.105371	1.550382
0.105469	1.541381
0.105566	1.534755
0.105664	1.512084
0.105762	1.497038
0.105859	1.520925
0.105957	1.491850
0.106055	1.536253
0.106152	1.541426
0.106250	1.502789
0.106348	1.479010
0.106445	1.488781
0.106543	1.533940
0.106641	1.524068
0.106738	1.500660
0.106836	1.469814
0.106934	1.411595
0.107031	1.446653
0.107129	1.481224
0.107227	1.506841
0.107324	1.502570
0.107422	1.495051
0.107520	1.509947
0.107617	1.494765
0.107715	1.477832
0.107812	1.470984
0.107910	1.450910
0.108008	1.427354
0.108105	1.433252
0.108203	1.441776
0.108301	1.439199
0.108398	1.447483
0.108496	1.479324
0.108594	1.497242
0.108691	1.488043
0.108789	1.470873
0.108887	1.449471
0.108984	1.430856
0.109082	1.427151
0.109180	1.421657
0.109277	1.420501
0.109375	1.407760
0.109473	1.394020
0.109570	1.381424
0.109668	1.370247
0.109766	1.357318
0.109863	1.341826
0.109961	1.326402
0.110059	1.312835
0.110156	1.301327
0.110254	1.293542
0.110352	1.291391
0.110449	1.295970
0.110547	1.302521
0.110645	1.305000
0.110742	1.303018
0.110840	1.299344
0.110937	1.297999
0.111035	1.301216
0.111133	1.306071
0.111230	1.310998
0.111328	1.320420
0.111426	1.339234
0.111523	1.361771
0.111621	1.376196
0.111719	1.392071
0.111816	1.413417
0.111914	1.432165
0.112012	1.464624
0.112109	1.483426
0.112207	1.513272
0.112305	1.524721
0.112402	1.509429
0.112500	1.506128
0.112598	1.507774
0.112695	1.510061
0.112793	1.500234
0.112891	1.476536
0.112988	1.469048
0.113086	1.471659
0.113184	1.440636
0.113281	1.444778
0.113379	1.513737
0.113477	1.541206
0.113574	1.530041
0.113672	1.488292
0.113770	1.509341
0.113867	1.553225
0.113965	1.567374
0.114062	1.579182
0.114160	1.594211
0.114258	1.607848
0.114355	1.620240
0.114453	1.633155
0.114551	1.633612
0.114648	1.659827
0.114746	1.656557
0.114844	1.649822
0.114941	1.647693
0.115039	1.625891
0.115137	1.576180
0.115234	1.543062
0.115332	1.547514
0.115430	1.553717
0.115527	1.556853
0.115625	1.547272
0.115723	1.542749
0.115820	1.560182
0.115918	1.556011
0.116016	1.528451
0.116113	1.514346
0.116211	1.499770
0.116309	1.495895
0.116406	1.513914
0.116504	1.526966
0.116602	1.527869
0.116699	1.544554
0.116797	1.554157
0.116895	1.535051
0.116992	1.485128
0.117090	1.549377
0.117187	1.561277
0.117285	1.569348
0.117383	1.579132
0.117480	1.616737
0.117578	1.624714
0.117676	1.606931
0.117773	1.587030
0.117871	1.567950
0.117969	1.557648
0.118066	1.568548
0.118164	1.582126
0.118262	1.609087
0.118359	1.621792
0.118457	1.610762
0.118555	1.605709
0.118652	1.590659
0.118750	1.562703
0.118848	1.564336
0.118945	1.558087
0.119043	1.573334
0.119141	1.560638
0.119238	1.547874
0.119336	1.572876
0.119434	1.576571
0.119531	1.594848
0.119629	1.605114
0.119727	1.600398
0.119824	1.567308
0.119922	1.583021
0.120020	1.588248
0.120117	1.566029
0.120215	1.565730
0.120312	1.604613
0.120410	1.611806
0.120508	1.613991
0.120605	1.607563
0.120703	1.627857
0.120801	1.607324
0.120898	1.612748
0.120996	1.638726
0.121094	1.655627
0.121191	1.686210
0.121289	1.642283
0.121387	1.628259
0.121484	1.616562
0.121582	1.575274
0.121680	1.576936
0.121777	1.546101
0.121875	1.531583
0.121973	1.528506
0.122070	1.506216
0.122168	1.481616
0.122266	1.441459
0.122363	1.405959
0.122461	1.395844
0.122559	1.418051
0.122656	1.477557
0.122754	1.508993
0.122852	1.505523
0.122949	1.496207
0.123047	1.487003
0.123145	1.470644
0.123242	1.444126
0.123340	1.406108
0.123437	1.359147
0.123535	1.330921
0.123633	1.373921
0.123730	1.438512
0.123828	1.446524
0.123926	1.427669
0.124023	1.394889
0.124121	1.384104
0.124219	1.380586
0.124316	1.390485
0.124414	1.410417
0.124512	1.448511
0.124609	1.437811
0.124707	1.422433
0.124805	1.314703
0.124902	1.354450
0.125000	1.477098
0.125098	1.480282
0.125195	1.499723
0.125293	1.497672
0.125391	1.513618
0.125488	1.519097
0.125586	1.530411
0.125684	1.532988
0.125781	1.538392
0.125879	1.537282
0.125977	1.539773
0.126074	1.544390
0.126172	1.562084
0.126270	1.572385
0.126367	1.568457
0.126465	1.573605
0.126562	1.540718
0.126660	1.498882
0.126758	1.522390
0.126855	1.572627
0.126953	1.631903
0.127051	1.633821
0.127148	1.600169
0.127246	1.616002
0.127344	1.646760
0.127441	1.609113
0.127539	1.620264
0.127637	1.630415
0.127734	1.642939
0.127832	1.660045
0.127930	1.636849
0.128027	1.633873
0.128125	1.626441
0.128223	1.608130
0.128320	1.607355
0.128418	1.606539
0.128516	1.607005
0.128613	1.605461
0.128711	1.602682
0.128809	1.601517
0.128906	1.601528
0.129004	1.607277
0.129102	1.603971
0.129199	1.613226
0.129297	1.594586
0.129395	1.558715
0.129492	1.543995
0.129590	1.532932
0.129687	1.490474
0.129785	1.473446
0.129883	1.521001
0.129980	1.548863
0.130078	1.541112
0.130176	1.538468
0.130273	1.564424
0.130371	1.589659
0.130469	1.547761
0.130566	1.546310
0.130664	1.555374
0.130762	1.540051
0.130859	1.525801
0.130957	1.504530
0.131055	1.519709
0.131152	1.450337
0.131250	1.436644
0.131348	1.397687
0.131445	1.404561
0.131543	1.471584
0.131641	1.470593
0.131738	1.430795
0.131836	1.416168
0.131934	1.422093
0.132031	1.378101
0.132129	1.403246
0.132227	1.419299
0.132324	1.403792
0.132422	1.378803
0.132520	1.423081
0.132617	1.421121
0.132715	1.470124
0.132812	1.498179
0.132910	1.570459
0.133008	1.588378
0.133105	1.544712
0.133203	1.547094
0.133301	1.567215
0.133398	1.572606
0.133496	1.609825
0.133594	1.603718
0.133691	1.574843
0.133789	1.535672
0.133887	1.505437
0.133984	1.485110
0.134082	1.484710
0.134180	1.501313
0.134277	1.471667
0.134375	1.457185
0.134473	1.467450
0.134570	1.444655
0.134668	1.447633
0.134766	1.440595
0.134863	1.407114
0.134961	1.383003
0.135059	1.357688
0.135156	1.363488
0.135254	1.382897
0.135352	1.382948
0.135449	1.368562
0.135547	1.352167
0.135645	1.351494
0.135742	1.371854
0.135840	1.390575
0.135937	1.400114
0.136035	1.396569
0.136133	1.382393
0.136230	1.353925
0.136328	1.335837
0.136426	1.339375
0.136523	1.347431
0.136621	1.361679
0.136719	1.376222
0.136816	1.394002
0.136914	1.391787
0.137012	1.387007
0.137109	1.399604
0.137207	1.380336
0.137305	1.340453
0.137402	1.303979
0.137500	1.312160
0.137598	1.333678
0.137695	1.316890
0.137793	1.308610
0.137891	1.362149
0.137988	1.443991
0.138086	1.434787
0.138184	1.423897
0.138281	1.428345
0.138379	1.459500
0.138477	1.468719
0.138574	1.445149
0.138672	1.449340
0.138770	1.444675
0.138867	1.432098
0.138965	1.426152
0.139062	1.406395
0.139160	1.392684
0.139258	1.374427
0.139355	1.395042
0.139453	1.444787
0.139551	1.460280
0.139648	1.449697
0.139746	1.438403
0.139844	1.439963
0.139941	1.430219
0.140039	1.407767
0.140137	1.404265
0.140234	1.394290
0.140332	1.387957
0.140430	1.377952
0.140527	1.368601
0.140625	1.385997
0.140723	1.412157
0.140820	1.421166
0.140918	1.444515
0.141016	1.466597
0.141113	1.479614
0.141211	1.508385
0.141309	1.520040
0.141406	1.464634
0.141504	1.397212
0.141602	1.334189
0.141699	1.347940
0.141797	1.386880
0.141895	1.443658
0.141992	1.507812
0.142090	1.490371
0.142187	1.504560
0.142285	1.465736
0.142383	1.390788
0.142480	1.357883
0.142578	1.375706
0.142676	1.379244
0.142773	1.380529
0.142871	1.363144
0.142969	1.370720
0.143066	1.385436
0.143164	1.393676
0.143262	1.419770
0.143359	1.467514
0.143457	1.483864
0.143555	1.488797
0.143652	1.451506
0.143750	1.433310
0.143848	1.526316
0.143945	1.532649
0.144043	1.501667
0.144141	1.478352
0.144238	1.473839
0.144336	1.465809
0.144434	1.449360
0.144531	1.424970
0.144629	1.384260
0.144727	1.346476
0.144824	1.306543
0.144922	1.325838
0.145020	1.331368
0.145117	1.332743
0.145215	1.306197
0.145312	1.281402
0.145410	1.356671
0.145508	1.409558
0.145605	1.415807
0.145703	1.415510
0.145801	1.389808
0.145898	1.368368
0.145996	1.372651
0.146094	1.384834
0.146191	1.359064
0.146289	1.326669
0.146387	1.298580
0.146484	1.300617
0.146582	1.304212
0.146680	1.305978
0.146777	1.306229
0.146875	1.349051
0.146973	1.434904
0.147070	1.481658
0.147168	1.515301
0.147266	1.587041
0.147363	1.616301
0.147461	1.627520
0.147559	1.623312
0.147656	1.609586
0.147754	1.604920
0.147852	1.610593
0.147949	1.624295
0.148047	1.601931
0.148145	1.580384
0.148242	1.570269
0.148340	1.554983
0.148437	1.532889
0.148535	1.528055
0.148633	1.529400
0.148730	1.530532
0.148828	1.507530
0.148926	1.493553
0.149023	1.481817
0.149121	1.477611
0.149219	1.493287
0.149316	1.483235
0.149414	1.457379
0.149512	1.423758
0.149609	1.384613
0.149707	1.345895
0.149805	1.321127
0.149902	1.316041
0.150000	1.326749
0.150098	1.340648
0.150195	1.342248
0.150293	1.330726
0.150391	1.314650
0.150488	1.291900
0.150586	1.269598
0.150684	1.269375
0.150781	1.369393
0.150879	1.464848
0.150977	1.486550
0.151074	1.470413
0.151172	1.396447
0.151270	1.374026
0.151367	1.397698
0.151465	1.445470
0.151562	1.470855
0.151660	1.483069
0.151758	1.505504
0.151855	1.532101
0.151953	1.530309
0.152051	1.517330
0.152148	1.474455
0.152246	1.418281
0.152344	1.374480
0.152441	1.350061
0.152539	1.310976
0.152637	1.339431
0.152734	1.412022
0.152832	1.369686
0.152930	1.351656
0.153027	1.331762
0.153125	1.322237
0.153223	1.370012
0.153320	1.445133
0.153418	1.434238
0.153516	1.401865
0.153613	1.384322
0.153711	1.390536
0.153809	1.399420
0.153906	1.379532
0.154004	1.407287
0.154102	1.422314
0.154199	1.411297
0.154297	1.408607
0.154395	1.386246
0.154492	1.340103
0.154590	1.302202
0.154687	1.318878
0.154785	1.380123
0.154883	1.386127
0.154980	1.381096
0.155078	1.353375
0.155176	1.326764
0.155273	1.336732
0.155371	1.391160
0.155469	1.406527
0.155566	1.352192
0.155664	1.312397
0.155762	1.299391
0.155859	1.349094
0.155957	1.379372
0.156055	1.485127
0.156152	1.484229
0.156250	1.552614
0.156348	1.636204
0.156445	1.556686
0.156543	1.552878
0.156641	1.451604
0.156738	1.358794
0.156836	1.397233
0.156934	1.393795
0.157031	1.498288
0.157129	1.523241
0.157227	1.515915
0.157324	1.482125
0.157422	1.514207
0.157520	1.635627
0.157617	1.596163
0.157715	1.596434
0.157812	1.568437
0.157910	1.557645
0.158008	1.540424
0.158105	1.518744
0.158203	1.511820
0.158301	1.510217
0.158398	1.504833
0.158496	1.472927
0.158594	1.427247
0.158691	1.393862
0.158789	1.382170
0.158887	1.359927
0.158984	1.343225
0.159082	1.335299
0.159180	1.333290
0.159277	1.366087
0.159375	1.404215
0.159473	1.436813
0.159570	1.429004
0.159668	1.408035
0.159766	1.436868
0.159863	1.470295
0.159961	1.481195
0.160059	1.491489
0.160156	1.487401
0.160254	1.480636
0.160352	1.477579
0.160449	1.469923
0.160547	1.486350
0.160645	1.497884
0.160742	1.521961
0.160840	1.557657
0.160937	1.527994
0.161035	1.505707
0.161133	1.465750
0.161230	1.457094
0.161328	1.509822
0.161426	1.488606
0.161523	1.450198
0.161621	1.446211
0.161719	1.475674
0.161816	1.493138
0.161914	1.490501
0.162012	1.464825
0.162109	1.403952
0.162207	1.385796
0.162305	1.419599
0.162402	1.438154
0.162500	1.448232
0.162598	1.455209
0.162695	1.452420
0.162793	1.439520
0.162891	1.416826
0.162988	1.395749
0.163086	1.392123
0.163184	1.398649
0.163281	1.403645
0.163379	1.440408
0.163477	1.458475
0.163574	1.435569
0.163672	1.443911
0.163770	1.486482
0.163867	1.526741
0.163965	1.551919
0.164062	1.598565
0.164160	1.609724
0.164258	1.579493
0.164355	1.596805
0.164453	1.595318
0.164551	1.561015
0.164648	1.603288
0.164746	1.592100
0.164844	1.525170
0.164941	1.522141
0.165039	1.515558
0.165137	1.483258
0.165234	1.509820
0.165332	1.506183
0.165430	1.481159
0.165527	1.454780
0.165625	1.460876
0.165723	1.539460
0.165820	1.530344
0.165918	1.505225
0.166016	1.467849
0.166113	1.455914
0.166211	1.455447
0.166309	1.473202
0.166406	1.507506
0.166504	1.550700
0.166602	1.564209
0.166699	1.578579
0.166797	1.598310
0.166895	1.594261
0.166992	1.568205
0.167090	1.563435
0.167187	1.545181
0.167285	1.520058
0.167383	1.518613
0.167480	1.520858
0.167578	1.488993
0.167676	1.404899
0.167773	1.427210
0.167871	1.451097
0.167969	1.424051
0.168066	1.380104
0.168164	1.361771
0.168262	1.397558
0.168359	1.419848
0.168457	1.383076
0.168555	1.362381
0.168652	1.424173
0.168750	1.447476
0.168848	1.488277
0.168945	1.481080
0.169043	1.464951
0.169141	1.472854
0.169238	1.470381
0.169336	1.498667
0.169434	1.475194
0.169531	1.443094
0.169629	1.475332
0.169727	1.479932
0.169824	1.469842
0.169922	1.476823
0.170020	1.469484
0.170117	1.448192
0.170215	1.429165
0.170312	1.408954
0.170410	1.382854
0.170508	1.372171
0.170605	1.381383
0.170703	1.387256
0.170801	1.407841
0.170898	1.393407
0.170996	1.376951
0.171094	1.362656
0.171191	1.352367
0.171289	1.372378
0.171387	1.385147
0.171484	1.391606
0.171582	1.425027
0.171680	1.438523
0.171777	1.456869
0.171875	1.478277
0.171973	1.491690
0.172070	1.536286
0.172168	1.570330
0.172266	1.560838
0.172363	1.549221
0.172461	1.544028
0.172559	1.558550
0.172656	1.539630
0.172754	1.535438
0.172852	1.568589
0.172949	1.580499
0.173047	1.601712
0.173145	1.604384
0.173242	1.620944
0.173340	1.607708
0.173437	1.615743
0.173535	1.626886
0.173633	1.652644
0.173730	1.644858
0.173828	1.615640
0.173926	1.608941
0.174023	1.611158
0.174121	1.572258
0.174219	1.571305
0.174316	1.567635
0.174414	1.522105
0.174512	1.496545
0.174609	1.495878
0.174707	1.499890
0.174805	1.463020
0.174902	1.438889
0.175000	1.431618
0.175098	1.437790
0.175195	1.447226
0.175293	1.478543
0.175391	1.476499
0.175488	1.459123
0.175586	1.418735
0.175684	1.375920
0.175781	1.379394
0.175879	1.387908
0.175977	1.389183
0.176074	1.391847
0.176172	1.390749
0.176270	1.364830
0.176367	1.328388
0.176465	1.295115
0.176562	1.269563
0.176660	1.253917
0.176758	1.247145
0.176855	1.250215
0.176953	1.259990
0.177051	1.286488
0.177148	1.322392
0.177246	1.372001
0.177344	1.395720
0.177441	1.399473
0.177539	1.415989
0.177637	1.427827
0.177734	1.454778
0.177832	1.502543
0.177930	1.498587
0.178027	1.530190
0.178125	1.518791
0.178223	1.495398
0.178320	1.486562
0.178418	1.452817
0.178516	1.429540
0.178613	1.400635
0.178711	1.384344
0.178809	1.363047
0.178906	1.357262
0.179004	1.393783
0.179102	1.407501
0.179199	1.416335
0.179297	1.424157
0.179395	1.447894
0.179492	1.460706
0.179590	1.483618
0.179687	1.493349
0.179785	1.493375
0.179883	1.485520
0.179980	1.474315
0.180078	1.486710
0.180176	1.497162
0.180273	1.491028
0.180371	1.472620
0.180469	1.517965
0.180566	1.524681
0.180664	1.539895
0.180762	1.533519
0.180859	1.527155
0.180957	1.538171
0.181055	1.561026
0.181152	1.602015
0.181250	1.623019
0.181348	1.632345
0.181445	1.618029
0.181543	1.613205
0.181641	1.615712
0.181738	1.590929
0.181836	1.570738
0.181934	1.552253
0.182031	1.544541
0.182129	1.547646
0.182227	1.531377
0.182324	1.505540
0.182422	1.496776
0.182520	1.501406
0.182617	1.517560
0.182715	1.530968
0.182812	1.540912
0.182910	1.545384
0.183008	1.548536
0.183105	1.538008
0.183203	1.508402
0.183301	1.477104
0.183398	1.468465
0.183496	1.475902
0.183594	1.487765
0.183691	1.513434
0.183789	1.514917
0.183887	1.508840
0.183984	1.497185
0.184082	1.495403
0.184180	1.527397
0.184277	1.570887
0.184375	1.560812
0.184473	1.547138
0.184570	1.544145
0.184668	1.529672
0.184766	1.514871
0.184863	1.515579
0.184961	1.511051
0.185059	1.511899
0.185156	1.513735
0.185254	1.518822
0.185352	1.513567
0.185449	1.544906
0.185547	1.552917
0.185645	1.534550
0.185742	1.505648
0.185840	1.494115
0.185937	1.502635
0.186035	1.479431
0.186133	1.471352
0.186230	1.467694
0.186328	1.459713
0.186426	1.443458
0.186523	1.400909
0.186621	1.363898
0.186719	1.353338
0.186816	1.351190
0.186914	1.375840
0.187012	1.417018
0.187109	1.437602
0.187207	1.456020
0.187305	1.471224
0.187402	1.479772
0.187500	1.474777
0.187598	1.463203
0.187695	1.495081
0.187793	1.520331
0.187891	1.526640
0.187988	1.513837
0.188086	1.489690
0.188184	1.493326
0.188281	1.506240
0.188379	1.524152
0.188477	1.540961
0.188574	1.549185
0.188672	1.551442
0.188770	1.550401
0.188867	1.556160
0.188965	1.544047
0.189062	1.554196
0.189160	1.572606
0.189258	1.568671
0.189355	1.582954
0.189453	1.586089
0.189551	1.601155
0.189648	1.598076
0.189746	1.569904
0.189844	1.562884
0.189941	1.579990
0.190039	1.570431
0.190137	1.557666
0.190234	1.542284
0.190332	1.517333
0.190430	1.512507
0.190527	1.445218
0.190625	1.438358
0.190723	1.461659
0.190820	1.453844
0.190918	1.463912
0.191016	1.448783
0.191113	1.473384
0.191211	1.445597
0.191309	1.406754
0.191406	1.384106
0.191504	1.333545
0.191602	1.286504
0.191699	1.293173
0.191797	1.370649
0.191895	1.401708
0.191992	1.392626
0.192090	1.370146
0.192187	1.342237
0.192285	1.346797
0.192383	1.356383
0.192480	1.380366
0.192578	1.383065
0.192676	1.327331
0.192773	1.371926
0.192871	1.444974
0.192969	1.531328
0.193066	1.504840
0.193164	1.456522
0.193262	1.520826
0.193359	1.485346
0.193457	1.516027
0.193555	1.528271
0.193652	1.532777
0.193750	1.531414
0.193848	1.542976
0.193945	1.534872
0.194043	1.525743
0.194141	1.529520
0.194238	1.568512
0.194336	1.592204
0.194434	1.587104
0.194531	1.588894
0.194629	1.573685
0.194727	1.549302
0.194824	1.540278
0.194922	1.511379
0.195020	1.499787
0.195117	1.518228
0.195215	1.528160
0.195312	1.520150
0.195410	1.505196
0.195508	1.480757
0.195605	1.472441
0.195703	1.447794
0.195801	1.417274
0.195898	1.406986
0.195996	1.391633
0.196094	1.394488
0.196191	1.424058
0.196289	1.432766
0.196387	1.439696
0.196484	1.437761
0.196582	1.436046
0.196680	1.440877
0.196777	1.439378
0.196875	1.423114
0.196973	1.410196
0.197070	1.405791
0.197168	1.401709
0.197266	1.394441
0.197363	1.384563
0.197461	1.370096
0.197559	1.359105
0.197656	1.353568
0.197754	1.356265
0.197852	1.356863
0.197949	1.374314
0.198047	1.411903
0.198145	1.456036
0.198242	1.422986
0.198340	1.379411
0.198437	1.360085
0.198535	1.365743
0.198633	1.352507
0.198730	1.335286
0.198828	1.468914
0.198926	1.515918
0.199023	1.528980
0.199121	1.537254
0.199219	1.587287
0.199316	1.620472
0.199414	1.574249
0.199512	1.483127
0.199609	1.421528
0.199707	1.455964
0.199805	1.499591
0.199902	1.508520
0.200000	1.504959
0.200098	1.504218
0.200195	1.509524
0.200293	1.512361
0.200391	1.547280
0.200488	1.567126
0.200586	1.576808
0.200684	1.589266
0.200781	1.581659
0.200879	1.546298
0.200977	1.502799
0.201074	1.479368
0.201172	1.448384
0.201270	1.414067
0.201367	1.402311
0.201465	1.393109
0.201562	1.411703
0.201660	1.362850
0.201758	1.413515
0.201855	1.427528
0.201953	1.388015
0.202051	1.389047
0.202148	1.380147
0.202246	1.386974
0.202344	1.381423
0.202441	1.378121
0.202539	1.393444
0.202637	1.402366
0.202734	1.380984
0.202832	1.347585
0.202930	1.308422
0.203027	1.322131
0.203125	1.375296
0.203223	1.422151
0.203320	1.440495
0.203418	1.449800
0.203516	1.558026
0.203613	1.581766
0.203711	1.528232
0.203809	1.488648
0.203906	1.462355
0.204004	1.491917
0.204102	1.491434
0.204199	1.460105
0.204297	1.430161
0.204395	1.447656
0.204492	1.523683
0.204590	1.560801
0.204687	1.526914
0.204785	1.569595
0.204883	1.562173
0.204980	1.588118
0.205078	1.551185
0.205176	1.516744
0.205273	1.493912
0.205371	1.457571
0.205469	1.432039
0.205566	1.401672
0.205664	1.378857
0.205762	1.367275
0.205859	1.364220
0.205957	1.308588
0.206055	1.343295
0.206152	1.337543
0.206250	1.304087
0.206348	1.285710
0.206445	1.285453
0.206543	1.332708
0.206641	1.396219
0.206738	1.400186
0.206836	1.379084
0.206934	1.372293
0.207031	1.380832
0.207129	1.368977
0.207227	1.370181
0.207324	1.377040
0.207422	1.364841
0.207520	1.350958
0.207617	1.331965
0.207715	1.301341
0.207812	1.284093
0.207910	1.304869
0.208008	1.330698
0.208105	1.321262
0.208203	1.281582
0.208301	1.349812
0.208398	1.439419
0.208496	1.426632
0.208594	1.349955
0.208691	1.415607
0.208789	1.453893
0.208887	1.522391
0.208984	1.575635
0.209082	1.542074
0.209180	1.531089
0.209277	1.526855
0.209375	1.528378
0.209473	1.500662
0.209570	1.514053
0.209668	1.534766
0.209766	1.543725
0.209863	1.542181
0.209961	1.550240
0.210059	1.549651
0.210156	1.554803
0.210254	1.571174
0.210352	1.589409
0.210449	1.590551
0.210547	1.576444
0.210645	1.551428
0.210742	1.533907
0.210840	1.515877
0.210937	1.491267
0.211035	1.472117
0.211133	1.453965
0.211230	1.438353
0.211328	1.426356
0.211426	1.412251
0.211523	1.388839
0.211621	1.370930
0.211719	1.371474
0.211816	1.380642
0.211914	1.396868
0.212012	1.403289
0.212109	1.388151
0.212207	1.373044
0.212305	1.370594
0.212402	1.381605
0.212500	1.392195
0.212598	1.392728
0.212695	1.383897
0.212793	1.374164
0.212891	1.370048
0.212988	1.371316
0.213086	1.384157
0.213184	1.402347
0.213281	1.414101
0.213379	1.429076
0.213477	1.437720
0.213574	1.437946
0.213672	1.442523
0.213770	1.444306
0.213867	1.442612
0.213965	1.448233
0.214062	1.448424
0.214160	1.432098
0.214258	1.424428
0.214355	1.432447
0.214453	1.429679
0.214551	1.420116
0.214648	1.404388
0.214746	1.404453
0.214844	1.403315
0.214941	1.430552
0.215039	1.457381
0.215137	1.460651
0.215234	1.467705
0.215332	1.459330
0.215430	1.461611
0.215527	1.470169
0.215625	1.479182
0.215723	1.497396
0.215820	1.499658
0.215918	1.495291
0.216016	1.485150
0.216113	1.452529
0.216211	1.474284
0.216309	1.498372
0.216406	1.508864
0.216504	1.495190
0.216602	1.481358
0.216699	1.486067
0.216797	1.378346
0.216895	1.358610
0.216992	1.435212
0.217090	1.454719
0.217187	1.464364
0.217285	1.505822
0.217383	1.521489
0.217480	1.518941
0.217578	1.513108
0.217676	1.507333
0.217773	1.537742
0.217871	1.579098
0.217969	1.577354
0.218066	1.579528
0.218164	1.578577
0.218262	1.582387
0.218359	1.596413
0.218457	1.610053
0.218555	1.571386
0.218652	1.587289
0.218750	1.637258
0.218848	1.634381
0.218945	1.610274
0.219043	1.565142
0.219141	1.572370
0.219238	1.578562
0.219336	1.580457
0.219434	1.566940
0.219531	1.567479
0.219629	1.574058
0.219727	1.594858
0.219824	1.593745
0.219922	1.560138
0.220020	1.534889
0.220117	1.543820
0.220215	1.541494
0.220312	1.513886
0.220410	1.490829
0.220508	1.467569
0.220605	1.436099
0.220703	1.399261
0.220801	1.379771
0.220898	1.372518
0.220996	1.370359
0.221094	1.372421
0.221191	1.368885
0.221289	1.368169
0.221387	1.355069
0.221484	1.340673
0.221582	1.352206
0.221680	1.347941
0.221777	1.295266
0.221875	1.302186
0.221973	1.380665
0.222070	1.395036
0.222168	1.356226
0.222266	1.335654
0.222363	1.346334
0.222461	1.345499
0.222559	1.353217
0.222656	1.365943
0.222754	1.371903
0.222852	1.374424
0.222949	1.379148
0.223047	1.363340
0.223145	1.351996
0.223242	1.360251
0.223340	1.408014
0.223437	1.482934
0.223535	1.455792
0.223633	1.446311
0.223730	1.450389
0.223828	1.475114
0.223926	1.480088
0.224023	1.463396
0.224121	1.447204
0.224219	1.426084
0.224316	1.398610
0.224414	1.352888
0.224512	1.326782
0.224609	1.341892
0.224707	1.365971
0.224805	1.403089
0.224902	1.420597
0.225000	1.416307
0.225098	1.431106
0.225195	1.395795
0.225293	1.392338
0.225391	1.362718
0.225488	1.368678
0.225586	1.453587
0.225684	1.525518
0.225781	1.520086
0.225879	1.533007
0.225977	1.521424
0.226074	1.516664
0.226172	1.561478
0.226270	1.559238
0.226367	1.557709
0.226465	1.540815
0.226562	1.536554
0.226660	1.517440
0.226758	1.493952
0.226855	1.488512
0.226953	1.485865
0.227051	1.485863
0.227148	1.492670
0.227246	1.497505
0.227344	1.501799
0.227441	1.515105
0.227539	1.533668
0.227637	1.528771
0.227734	1.492150
0.227832	1.486685
0.227930	1.481496
0.228027	1.439686
0.228125	1.417834
0.228223	1.441237
0.228320	1.467430
0.228418	1.464654
0.228516	1.442777
0.228613	1.431138
0.228711	1.403089
0.228809	1.395661
0.228906	1.368335
0.229004	1.330358
0.229102	1.324107
0.229199	1.326054
0.229297	1.343528
0.229395	1.341009
0.229492	1.323269
0.229590	1.293907
0.229687	1.272508
0.229785	1.266331
0.229883	1.324871
0.229980	1.341246
0.230078	1.324184
0.230176	1.308694
0.230273	1.332543
0.230371	1.316737
0.230469	1.312711
0.230566	1.351305
0.230664	1.369206
0.230762	1.361452
0.230859	1.342937
0.230957	1.324672
0.231055	1.329880
0.231152	1.356002
0.231250	1.364023
0.231348	1.328794
0.231445	1.311104
0.231543	1.323513
0.231641	1.405292
0.231738	1.507023
0.231836	1.543403
0.231934	1.575310
0.232031	1.577227
0.232129	1.555163
0.232227	1.545963
0.232324	1.492568
0.232422	1.429767
0.232520	1.374874
0.232617	1.388618
0.232715	1.478473
0.232812	1.473592
0.232910	1.450452
0.233008	1.427859
0.233105	1.409336
0.233203	1.376579
0.233301	1.383851
0.233398	1.467214
0.233496	1.571417
0.233594	1.553633
0.233691	1.494622
0.233789	1.432520
0.233887	1.364417
0.233984	1.362787
0.234082	1.369644
0.234180	1.418133
0.234277	1.453216
0.234375	1.453699
0.234473	1.434274
0.234570	1.408481
0.234668	1.380161
0.234766	1.380493
0.234863	1.377072
0.234961	1.340826
0.235059	1.322008
0.235156	1.313169
0.235254	1.299688
0.235352	1.367888
0.235449	1.385638
0.235547	1.365388
0.235645	1.346346
0.235742	1.343646
0.235840	1.372717
0.235937	1.387201
0.236035	1.375743
0.236133	1.345474
0.236230	1.358470
0.236328	1.387901
0.236426	1.392829
0.236523	1.373665
0.236621	1.358967
0.236719	1.371500
0.236816	1.350711
0.236914	1.307799
0.237012	1.273567
0.237109	1.302232
0.237207	1.342112
0.237305	1.318521
0.237402	1.309704
0.237500	1.352452
0.237598	1.391868
0.237695	1.414023
0.237793	1.454884
0.237891	1.478834
0.237988	1.489890
0.238086	1.498768
0.238184	1.498204
0.238281	1.508256
0.238379	1.516126
0.238477	1.505686
0.238574	1.429288
0.238672	1.390255
0.238770	1.428311
0.238867	1.420516
0.238965	1.379496
0.239062	1.391287
0.239160	1.432231
0.239258	1.479163
0.239355	1.508291
0.239453	1.506697
0.239551	1.514906
0.239648	1.489516
0.239746	1.484650
0.239844	1.466597
0.239941	1.467663
0.240039	1.460879
0.240137	1.529678
0.240234	1.552879
0.240332	1.571408
0.240430	1.590097
0.240527	1.583427
0.240625	1.578246
0.240723	1.569012
0.240820	1.596762
0.240918	1.596490
0.241016	1.574370
0.241113	1.573031
0.241211	1.608720
0.241309	1.623227
0.241406	1.631327
0.241504	1.631608
0.241602	1.656579
0.241699	1.653347
0.241797	1.674473
0.241895	1.685495
0.241992	1.645765
0.242090	1.634499
0.242187	1.617047
0.242285	1.616477
0.242383	1.627403
0.242480	1.588183
0.242578	1.592236
0.242676	1.594431
0.242773	1.616177
0.242871	1.637710
0.242969	1.637378
0.243066	1.609439
0.243164	1.549819
0.243262	1.537542
0.243359	1.544774
0.243457	1.537976
0.243555	1.539169
0.243652	1.537791
0.243750	1.538000
0.243848	1.525935
0.243945	1.519788
0.244043	1.522291
0.244141	1.533675
0.244238	1.554507
0.244336	1.541553
0.244434	1.528619
0.244531	1.520756
0.244629	1.510199
0.244727	1.499705
0.244824	1.493340
0.244922	1.469597
0.245020	1.444445
0.245117	1.437288
0.245215	1.432383
0.245312	1.419994
0.245410	1.403110
0.245508	1.386507
0.245605	1.378730
0.245703	1.381017
0.245801	1.387763
0.245898	1.397526
0.245996	1.420407
0.246094	1.427467
0.246191	1.419024
0.246289	1.398209
0.246387	1.381519
0.246484	1.387192
0.246582	1.390343
0.246680	1.401372
0.246777	1.406374
0.246875	1.390975
0.246973	1.387203
0.247070	1.388045
0.247168	1.370463
0.247266	1.346667
0.247363	1.329591
0.247461	1.328600
0.247559	1.330611
0.247656	1.319070
0.247754	1.320727
0.247852	1.330927
0.247949	1.333913
0.248047	1.336225
0.248145	1.323959
0.248242	1.300314
0.248340	1.281443
0.248437	1.308898
0.248535	1.349180
0.248633	1.376277
0.248730	1.389693
0.248828	1.395241
0.248926	1.400108
0.249023	1.411714
0.249121	1.428782
0.249219	1.430293
0.249316	1.413926
0.249414	1.410724
0.249512	1.417782
0.249609	1.450268
0.249707	1.476730
0.249805	1.489423
0.249902	1.492301
0.250000	1.492111
0.250098	1.481748
0.250195	1.468568
0.250293	1.458394
0.250391	1.457885
0.250488	1.457582
0.250586	1.450546
0.250684	1.443969
0.250781	1.430473
0.250879	1.428378
0.250977	1.440407
0.251074	1.428470
0.251172	1.387038
0.251270	1.375397
0.251367	1.407254
0.251465	1.415391
0.251562	1.413273
0.251660	1.403747
0.251758	1.382808
0.251855	1.362582
0.251953	1.366973
0.252051	1.386921
0.252148	1.422994
0.252246	1.458500
0.252344	1.513692
0.252441	1.526986
0.252539	1.487478
0.252637	1.451312
0.252734	1.422631
0.252832	1.444102
0.252930	1.477509
0.253027	1.463267
0.253125	1.475018
0.253223	1.498200
0.253320	1.500376
0.253418	1.491302
0.253516	1.499529
0.253613	1.519267
0.253711	1.486134
0.253809	1.468805
0.253906	1.510862
0.254004	1.519506
0.254102	1.524612
0.254199	1.507626
0.254297	1.456563
0.254395	1.415793
0.254492	1.422544
0.254590	1.419450
0.254687	1.408998
0.254785	1.385291
0.254883	1.425115
0.254980	1.458647
0.255078	1.461730
0.255176	1.463294
0.255273	1.503115
0.255371	1.474289
0.255469	1.512892
0.255566	1.569204
0.255664	1.570741
0.255762	1.553493
0.255859	1.553559
0.255957	1.612421
0.256055	1.581767
0.256152	1.579107
0.256250	1.591708
0.256348	1.602263
0.256445	1.628405
0.256543	1.626595
0.256641	1.592480
0.256738	1.592006
0.256836	1.606156
0.256934	1.573341
0.257031	1.594276
0.257129	1.608904
0.257227	1.617388
0.257324	1.619167
0.257422	1.605897
0.257520	1.586506
0.257617	1.547344
0.257715	1.524403
0.257812	1.523638
0.257910	1.535684
0.258008	1.548531
0.258105	1.551031
0.258203	1.544723
0.258301	1.529821
0.258398	1.520116
0.258496	1.498752
0.258594	1.494798
0.258691	1.517200
0.258789	1.565281
0.258887	1.594334
0.258984	1.586054
0.259082	1.585492
0.259180	1.588863
0.259277	1.614805
0.259375	1.611127
0.259473	1.555196
0.259570	1.504955
0.259668	1.504760
0.259766	1.491557
0.259863	1.468023
0.259961	1.465472
0.260059	1.447363
0.260156	1.382860
0.260254	1.322691
0.260352	1.386410
0.260449	1.410156
0.260547	1.428732
0.260645	1.472211
0.260742	1.458937
0.260840	1.460819
0.260937	1.457135
0.261035	1.461395
0.261133	1.456787
0.261230	1.457849
0.261328	1.444368
0.261426	1.447707
0.261523	1.478883
0.261621	1.488041
0.261719	1.512993
0.261816	1.492649
0.261914	1.493371
0.262012	1.524110
0.262109	1.499721
0.262207	1.493856
0.262305	1.467366
0.262402	1.497689
0.262500	1.521383
0.262598	1.527742
0.262695	1.459768
0.262793	1.489918
0.262891	1.598189
0.262988	1.632183
0.263086	1.593156
0.263184	1.564305
0.263281	1.558744
0.263379	1.559098
0.263477	1.568792
0.263574	1.574322
0.263672	1.568184
0.263770	1.569608
0.263867	1.571388
0.263965	1.593629
0.264062	1.604280
0.264160	1.581000
0.264258	1.566344
0.264355	1.544515
0.264453	1.593753
0.264551	1.628540
0.264648	1.617731
0.264746	1.630284
0.264844	1.628854
0.264941	1.621565
0.265039	1.611917
0.265137	1.604760
0.265234	1.580938
0.265332	1.565709
0.265430	1.565394
0.265527	1.524484
0.265625	1.522853
0.265723	1.484557
0.265820	1.447171
0.265918	1.452189
0.266016	1.486903
0.266113	1.474911
0.266211	1.449951
0.266309	1.413949
0.266406	1.411324
0.266504	1.551502
0.266602	1.611636
0.266699	1.610872
0.266797	1.545517
0.266895	1.461135
0.266992	1.405528
0.267090	1.393715
0.267187	1.383907
0.267285	1.387652
0.267383	1.398643
0.267480	1.395900
0.267578	1.367395
0.267676	1.336665
0.267773	1.320830
0.267871	1.295256
0.267969	1.302607
0.268066	1.333799
0.268164	1.386520
0.268262	1.393859
0.268359	1.364435
0.268457	1.379801
0.268555	1.463493
0.268652	1.523548
0.268750	1.543137
0.268848	1.489036
0.268945	1.521442
0.269043	1.530563
0.269141	1.552228
0.269238	1.538557
0.269336	1.532077
0.269434	1.539162
0.269531	1.547040
0.269629	1.498295
0.269727	1.474421
0.269824	1.518567
0.269922	1.512511
0.270020	1.566100
0.270117	1.600846
0.270215	1.561544
0.270312	1.561245
0.270410	1.584777
0.270508	1.596934
0.270605	1.611003
0.270703	1.591878
0.270801	1.588270
0.270898	1.605881
0.270996	1.608132
0.271094	1.611666
0.271191	1.587170
0.271289	1.555215
0.271387	1.556222
0.271484	1.545752
0.271582	1.575447
0.271680	1.555284
0.271777	1.527437
0.271875	1.539446
0.271973	1.543131
0.272070	1.524251
0.272168	1.528617
0.272266	1.576398
0.272363	1.590265
0.272461	1.532604
0.272559	1.526945
0.272656	1.546236
0.272754	1.536612
0.272852	1.535962
0.272949	1.534773
0.273047	1.506578
0.273145	1.470156
0.273242	1.457527
0.273340	1.448372
0.273437	1.441641
0.273535	1.456304
0.273633	1.452809
0.273730	1.444180
0.273828	1.481125
0.273926	1.481492
0.274023	1.465684
0.274121	1.476017
0.274219	1.504919
0.274316	1.504132
0.274414	1.505042
0.274512	1.526136
0.274609	1.527974
0.274707	1.512096
0.274805	1.517600
0.274902	1.494018
0.275000	1.464026
0.275098	1.461864
0.275195	1.462808
0.275293	1.462504
0.275391	1.474360
0.275488	1.472882
0.275586	1.468544
0.275684	1.461300
0.275781	1.471278
0.275879	1.522320
0.275977	1.529712
0.276074	1.505127
0.276172	1.472442
0.276270	1.435414
0.276367	1.416824
0.276465	1.421470
0.276562	1.456706
0.276660	1.441961
0.276758	1.436505
0.276855	1.421091
0.276953	1.392101
0.277051	1.371408
0.277148	1.345628
0.277246	1.304242
0.277344	1.299904
0.277441	1.294299
0.277539	1.306388
0.277637	1.387970
0.277734	1.477240
0.277832	1.467934
0.277930	1.443807
0.278027	1.447211
0.278125	1.470159
0.278223	1.481973
0.278320	1.470824
0.278418	1.478928
0.278516	1.457683
0.278613	1.449986
0.278711	1.460087
0.278809	1.481786
0.278906	1.520016
0.279004	1.536734
0.279102	1.541123
0.279199	1.583967
0.279297	1.587700
0.279395	1.580508
0.279492	1.574038
0.279590	1.570468
0.279687	1.579156
0.279785	1.582779
0.279883	1.589041
0.279980	1.593703
0.280078	1.611009
0.280176	1.621857
0.280273	1.630838
0.280371	1.634582
0.280469	1.638383
0.280566	1.650108
0.280664	1.671952
0.280762	1.663176
0.280859	1.650544
0.280957	1.662644
0.281055	1.675816
0.281152	1.652409
0.281250	1.649264
0.281348	1.630464
0.281445	1.608082
0.281543	1.555690
0.281641	1.509964
0.281738	1.552400
0.281836	1.582285
0.281934	1.610088
0.282031	1.604594
0.282129	1.608609
0.282227	1.594434
0.282324	1.594289
0.282422	1.627245
0.282520	1.623641
0.282617	1.679636
0.282715	1.632028
0.282812	1.606026
0.282910	1.583941
0.283008	1.635748
0.283105	1.706232
0.283203	1.712619
0.283301	1.685378
0.283398	1.604043
0.283496	1.567349
0.283594	1.572136
0.283691	1.552497
0.283789	1.594669
0.283887	1.605329
0.283984	1.585704
0.284082	1.596915
0.284180	1.620286
0.284277	1.551866
0.284375	1.519151
0.284473	1.528140
0.284570	1.499213
0.284668	1.495690
0.284766	1.509080
0.284863	1.521637
0.284961	1.519802
0.285059	1.499461
0.285156	1.486259
0.285254	1.486936
0.285352	1.499501
0.285449	1.533743
0.285547	1.504345
0.285645	1.509485
0.285742	1.493330
0.285840	1.488693
0.285937	1.502506
0.286035	1.536369
0.286133	1.551290
0.286230	1.536237
0.286328	1.563980
0.286426	1.562479
0.286523	1.570038
0.286621	1.580985
0.286719	1.604503
0.286816	1.603469
0.286914	1.594179
0.287012	1.610447
0.287109	1.615770
0.287207	1.620730
0.287305	1.608470
0.287402	1.620887
0.287500	1.638083
0.287598	1.644627
0.287695	1.626336
0.287793	1.594581
0.287891	1.597964
0.287988	1.599345
0.288086	1.593648
0.288184	1.599838
0.288281	1.584435
0.288379	1.555302
0.288477	1.535791
0.288574	1.562230
0.288672	1.573210
0.288770	1.556352
0.288867	1.519573
0.288965	1.489854
0.289062	1.483177
0.289160	1.472999
0.289258	1.456104
0.289355	1.442689
0.289453	1.443371
0.289551	1.476329
0.289648	1.482667
0.289746	1.495811
0.289844	1.457086
0.289941	1.455632
0.290039	1.491800
0.290137	1.492393
0.290234	1.459411
0.290332	1.458163
0.290430	1.472143
0.290527	1.469712
0.290625	1.456244
0.290723	1.413838
0.290820	1.391537
0.290918	1.396030
0.291016	1.406714
0.291113	1.405145
0.291211	1.399513
0.291309	1.389424
0.291406	1.380055
0.291504	1.367533
0.291602	1.353414
0.291699	1.336760
0.291797	1.321235
0.291895	1.305872
0.291992	1.291396
0.292090	1.277513
0.292187	1.265058
0.292285	1.253561
0.292383	1.244714
0.292480	1.247264
0.292578	1.270185
0.292676	1.314307
0.292773	1.360181
0.292871	1.394242
0.292969	1.421537
0.293066	1.445801
0.293164	1.459296
0.293262	1.454713
0.293359	1.450688
0.293457	1.485021
0.293555	1.495733
0.293652	1.497348
0.293750	1.509143
0.293848	1.517361
0.293945	1.528802
0.294043	1.518649
0.294141	1.512608
0.294238	1.500116
0.294336	1.518117
0.294434	1.519161
0.294531	1.470198
0.294629	1.470565
0.294727	1.515650
0.294824	1.569941
0.294922	1.562080
0.295020	1.565108
0.295117	1.570017
0.295215	1.587270
0.295312	1.594823
0.295410	1.603745
0.295508	1.610701
0.295605	1.611741
0.295703	1.599074
0.295801	1.569632
0.295898	1.534127
0.295996	1.513029
0.296094	1.503615
0.296191	1.523762
0.296289	1.514178
0.296387	1.518111
0.296484	1.571358
0.296582	1.544958
0.296680	1.579784
0.296777	1.572249
0.296875	1.524631
0.296973	1.531879
0.297070	1.618502
0.297168	1.613457
0.297266	1.620947
0.297363	1.585039
0.297461	1.594905
0.297559	1.623637
0.297656	1.614870
0.297754	1.563333
0.297852	1.515204
0.297949	1.499755
0.298047	1.475592
0.298145	1.476811
0.298242	1.487673
0.298340	1.501995
0.298437	1.482673
0.298535	1.475882
0.298633	1.556812
0.298730	1.592978
0.298828	1.565979
0.298926	1.539381
0.299023	1.483808
0.299121	1.412011
0.299219	1.327624
0.299316	1.323384
0.299414	1.377847
0.299512	1.402850
0.299609	1.411692
0.299707	1.333946
0.299805	1.338154
0.299902	1.456527
0.300000	1.414173
0.300098	1.460321
0.300195	1.487491
0.300293	1.462266
0.300391	1.428502
0.300488	1.413542
0.300586	1.464107
0.300684	1.462204
0.300781	1.464931
0.300879	1.544073
0.300977	1.568720
0.301074	1.551899
0.301172	1.575994
0.301270	1.559603
0.301367	1.551171
0.301465	1.551652
0.301562	1.569964
0.301660	1.598114
0.301758	1.607891
0.301855	1.587356
0.301953	1.602106
0.302051	1.582854
0.302148	1.562437
0.302246	1.583831
0.302344	1.554165
0.302441	1.517900
0.302539	1.579696
0.302637	1.604074
0.302734	1.572220
0.302832	1.547935
0.302930	1.513803
0.303027	1.458558
0.303125	1.402150
0.303223	1.455626
0.303320	1.491780
0.303418	1.476922
0.303516	1.454716
0.303613	1.468648
0.303711	1.491150
0.303809	1.488796
0.303906	1.478678
0.304004	1.476186
0.304102	1.470600
0.304199	1.456355
0.304297	1.436444
0.304395	1.419632
0.304492	1.425294
0.304590	1.472771
0.304687	1.477064
0.304785	1.470653
0.304883	1.463890
0.304980	1.450717
0.305078	1.440054
0.305176	1.421236
0.305273	1.401004
0.305371	1.371735
0.305469	1.347560
0.305566	1.331504
0.305664	1.327131
0.305762	1.311408
0.305859	1.284666
0.305957	1.266417
0.306055	1.257227
0.306152	1.250093
0.306250	1.243859
0.306348	1.237762
0.306445	1.236934
0.306543	1.244381
0.306641	1.253786
0.306738	1.261399
0.306836	1.264212
0.306934	1.252604
0.307031	1.234358
0.307129	1.238260
0.307227	1.263973
0.307324	1.283308
0.307422	1.283450
0.307520	1.298570
0.307617	1.343319
0.307715	1.416128
0.307812	1.479794
0.307910	1.516817
0.308008	1.547591
0.308105	1.561866
0.308203	1.547732
0.308301	1.530571
0.308398	1.525931
0.308496	1.527309
0.308594	1.529713
0.308691	1.534497
0.308789	1.539176
0.308887	1.545038
0.308984	1.549991
0.309082	1.558853
0.309180	1.567304
0.309277	1.581973
0.309375	1.586465
0.309473	1.588084
0.309570	1.597170
0.309668	1.602560
0.309766	1.609063
0.309863	1.613391
0.309961	1.620992
0.310059	1.628464
0.310156	1.637850
0.310254	1.651920
0.310352	1.646447
0.310449	1.627415
0.310547	1.622325
0.310645	1.608904
0.310742	1.616134
0.310840	1.607967
0.310937	1.605680
0.311035	1.600156
0.311133	1.558126
0.311230	1.566493
0.311328	1.534589
0.311426	1.506070
0.311523	1.552046
0.311621	1.560124
0.311719	1.576477
0.311816	1.566585
0.311914	1.560264
0.312012	1.493937
0.312109	1.412929
0.312207	1.327967
0.312305	1.349253
0.312402	1.398002
0.312500	1.417246
0.312598	1.423481
0.312695	1.422185
0.312793	1.423100
0.312891	1.412472
0.312988	1.396182
0.313086	1.387963
0.313184	1.402126
0.313281	1.409680
0.313379	1.425844
0.313477	1.428245
0.313574	1.437163
0.313672	1.443627
0.313770	1.467135
0.313867	1.547793
0.313965	1.581328
0.314062	1.570211
0.314160	1.560680
0.314258	1.533121
0.314355	1.534374
0.314453	1.530592
0.314551	1.489663
0.314648	1.403982
0.314746	1.339191
0.314844	1.346798
0.314941	1.359852
0.315039	1.335882
0.315137	1.291894
0.315234	1.264021
0.315332	1.262833
0.315430	1.282432
0.315527	1.308989
0.315625	1.357567
0.315723	1.387920
0.315820	1.387877
0.315918	1.385564
0.316016	1.382600
0.316113	1.380156
0.316211	1.381709
0.316309	1.380622
0.316406	1.390170
0.316504	1.414491
0.316602	1.429754
0.316699	1.442693
0.316797	1.482239
0.316895	1.506522
0.316992	1.569377
0.317090	1.570886
0.317187	1.524292
0.317285	1.508109
0.317383	1.509335
0.317480	1.516449
0.317578	1.515436
0.317676	1.514077
0.317773	1.505692
0.317871	1.508388
0.317969	1.514205
0.318066	1.532366
0.318164	1.550718
0.318262	1.547380
0.318359	1.539417
0.318457	1.523856
0.318555	1.518274
0.318652	1.518566
0.318750	1.514050
0.318848	1.501949
0.318945	1.487974
0.319043	1.497533
0.319141	1.513097
0.319238	1.512499
0.319336	1.498129
0.319434	1.478627
0.319531	1.473183
0.319629	1.452087
0.319727	1.399519
0.319824	1.347635
0.319922	1.313872
0.320020	1.299925
0.320117	1.295244
0.320215	1.294874
0.320312	1.295319
0.320410	1.294718
0.320508	1.308139
0.320605	1.328576
0.320703	1.359982
0.320801	1.385650
0.320898	1.402889
0.320996	1.407234
0.321094	1.409228
0.321191	1.414367
0.321289	1.388048
0.321387	1.352198
0.321484	1.362025
0.321582	1.384352
0.321680	1.377955
0.321777	1.361863
0.321875	1.377883
0.321973	1.453314
0.322070	1.482450
0.322168	1.475403
0.322266	1.497873
0.322363	1.492091
0.322461	1.495140
0.322559	1.502489
0.322656	1.516027
0.322754	1.526264
0.322852	1.542121
0.322949	1.552192
0.323047	1.569269
0.323145	1.582488
0.323242	1.623395
0.323340	1.620465
0.323437	1.644677
0.323535	1.669726
0.323633	1.649390
0.323730	1.645214
0.323828	1.632563
0.323926	1.638374
0.324023	1.644107
0.324121	1.654861
0.324219	1.668100
0.324316	1.646856
0.324414	1.627419
0.324512	1.649943
0.324609	1.647487
0.324707	1.660070
0.324805	1.675932
0.324902	1.653329
0.325000	1.619652
0.325098	1.570423
0.325195	1.538638
0.325293	1.571400
0.325391	1.537329
0.325488	1.523249
0.325586	1.532266
0.325684	1.616772
0.325781	1.627124
0.325879	1.579371
0.325977	1.554078
0.326074	1.553199
0.326172	1.553804
0.326270	1.552284
0.326367	1.549127
0.326465	1.543628
0.326562	1.527736
0.326660	1.535155
0.326758	1.522625
0.326855	1.526074
0.326953	1.503456
0.327051	1.461295
0.327148	1.466369
0.327246	1.433853
0.327344	1.451569
0.327441	1.526133
0.327539	1.504731
0.327637	1.493332
0.327734	1.430052
0.327832	1.376116
0.327930	1.377669
0.328027	1.372488
0.328125	1.401359
0.328223	1.425358
0.328320	1.456175
0.328418	1.443401
0.328516	1.422080
0.328613	1.472904
0.328711	1.493583
0.328809	1.472362
0.328906	1.428429
0.329004	1.441875
0.329102	1.489819
0.329199	1.449257
0.329297	1.472130
0.329395	1.519505
0.329492	1.503253
0.329590	1.487038
0.329687	1.489579
0.329785	1.523020
0.329883	1.517996
0.329980	1.522806
0.330078	1.514409
0.330176	1.529954
0.330273	1.554395
0.330371	1.558285
0.330469	1.557848
0.330566	1.552645
0.330664	1.540981
0.330762	1.523587
0.330859	1.512276
0.330957	1.513445
0.331055	1.510385
0.331152	1.496942
0.331250	1.483565
0.331348	1.484971
0.331445	1.483560
0.331543	1.527242
0.331641	1.548687
0.331738	1.528688
0.331836	1.541034
0.331934	1.549025
0.332031	1.543651
0.332129	1.529841
0.332227	1.536659
0.332324	1.575338
0.332422	1.598103
0.332520	1.603774
0.332617	1.605182
0.332715	1.617332
0.332812	1.594254
0.332910	1.579104
0.333008	1.550011
0.333105	1.520980
0.333203	1.499376
0.333301	1.485092
0.333398	1.464208
0.333496	1.476906
0.333594	1.492734
0.333691	1.489406
0.333789	1.493872
0.333887	1.487638
0.333984	1.457285
0.334082	1.454081
0.334180	1.444907
0.334277	1.407409
0.334375	1.379657
0.334473	1.357837
0.334570	1.329598
0.334668	1.396186
0.334766	1.488523
0.334863	1.458921
0.334961	1.469837
0.335059	1.451796
0.335156	1.398351
0.335254	1.380650
0.335352	1.387792
0.335449	1.514310
0.335547	1.534607
0.335645	1.496351
0.335742	1.431065
0.335840	1.421027
0.335937	1.425989
0.336035	1.448140
0.336133	1.511854
0.336230	1.532076
0.336328	1.543578
0.336426	1.540316
0.336523	1.549277
0.336621	1.525804
0.336719	1.560830
0.336816	1.574259
0.336914	1.565979
0.337012	1.523169
0.337109	1.515285
0.337207	1.527172
0.337305	1.500224
0.337402	1.436256
0.337500	1.402473
0.337598	1.408507
0.337695	1.398618
0.337793	1.334847
0.337891	1.447028
0.337988	1.531126
0.338086	1.531061
0.338184	1.476275
0.338281	1.519737
0.338379	1.635225
0.338477	1.639316
0.338574	1.653327
0.338672	1.637643
0.338770	1.643187
0.338867	1.641658
0.338965	1.652936
0.339062	1.653990
0.339160	1.655436
0.339258	1.640689
0.339355	1.633508
0.339453	1.614621
0.339551	1.618543
0.339648	1.632930
0.339746	1.636464
0.339844	1.647659
0.339941	1.642620
0.340039	1.643936
0.340137	1.641585
0.340234	1.643953
0.340332	1.641425
0.340430	1.602182
0.340527	1.607030
0.340625	1.608295
0.340723	1.563643
0.340820	1.523089
0.340918	1.570118
0.341016	1.562267
0.341113	1.622220
0.341211	1.609074
0.341309	1.551845
0.341406	1.579067
0.341504	1.624415
0.341602	1.606403
0.341699	1.615264
0.341797	1.610351
0.341895	1.591577
0.341992	1.598254
0.342090	1.581911
0.342187	1.575806
0.342285	1.591446
0.342383	1.598092
0.342480	1.611588
0.342578	1.623320
0.342676	1.595062
0.342773	1.566394
0.342871	1.537597
0.342969	1.537220
0.343066	1.529722
0.343164	1.511886
0.343262	1.516850
0.343359	1.493089
0.343457	1.483876
0.343555	1.506055
0.343652	1.537731
0.343750	1.559401
0.343848	1.540324
0.343945	1.545993
0.344043	1.528839
0.344141	1.526468
0.344238	1.502167
0.344336	1.521460
0.344434	1.533749
0.344531	1.569002
0.344629	1.582080
0.344727	1.590274
0.344824	1.592903
0.344922	1.596152
0.345020	1.583166
0.345117	1.565111
0.345215	1.577167
0.345312	1.549492
0.345410	1.539876
0.345508	1.519197
0.345605	1.536863
0.345703	1.573426
0.345801	1.565696
0.345898	1.566416
0.345996	1.556527
0.346094	1.566497
0.346191	1.571396
0.346289	1.550659
0.346387	1.557443
0.346484	1.564907
0.346582	1.542543
0.346680	1.553523
0.346777	1.551757
0.346875	1.581256
0.346973	1.557961
0.347070	1.563921
0.347168	1.594969
0.347266	1.607427
0.347363	1.636750
0.347461	1.606173
0.347559	1.616720
0.347656	1.583010
0.347754	1.563097
0.347852	1.555714
0.347949	1.544203
0.348047	1.549949
0.348145	1.559101
0.348242	1.544586
0.348340	1.515766
0.348437	1.498113
0.348535	1.479689
0.348633	1.458753
0.348730	1.433043
0.348828	1.418993
0.348926	1.396329
0.349023	1.388318
0.349121	1.385837
0.349219	1.412280
0.349316	1.444603
0.349414	1.422100
0.349512	1.369960
0.349609	1.319064
0.349707	1.279124
0.349805	1.328519
0.349902	1.381319
0.350000	1.416742
0.350098	1.455857
0.350195	1.454117
0.350293	1.426781
0.350391	1.384353
0.350488	1.351734
0.350586	1.324292
0.350684	1.297585
0.350781	1.277519
0.350879	1.278516
0.350977	1.286246
0.351074	1.301228
0.351172	1.352096
0.351270	1.383315
0.351367	1.360051
0.351465	1.389677
0.351562	1.466893
0.351660	1.566416
0.351758	1.597449
0.351855	1.603628
0.351953	1.610571
0.352051	1.598353
0.352148	1.584148
0.352246	1.583652
0.352344	1.583086
0.352441	1.565381
0.352539	1.571901
0.352637	1.573886
0.352734	1.575944
0.352832	1.576558
0.352930	1.579444
0.353027	1.581864
0.353125	1.586240
0.353223	1.591057
0.353320	1.597904
0.353418	1.606939
0.353516	1.615059
0.353613	1.614300
0.353711	1.613573
0.353809	1.614818
0.353906	1.613953
0.354004	1.614290
0.354102	1.615760
0.354199	1.618846
0.354297	1.624539
0.354395	1.631657
0.354492	1.637688
0.354590	1.640068
0.354687	1.641299
0.354785	1.642327
0.354883	1.643500
0.354980	1.645456
0.355078	1.648431
0.355176	1.652082
0.355273	1.659125
0.355371	1.669355
0.355469	1.677590
0.355566	1.689832
0.355664	1.704120
0.355762	1.686397
0.355859	1.687460
0.355957	1.675321
0.356055	1.669284
0.356152	1.675376
0.356250	1.694314
0.356348	1.689692
0.356445	1.701460
0.356543	1.684047
0.356641	1.659262
0.356738	1.591429
0.356836	1.554703
0.356934	1.563866
0.357031	1.494989
0.357129	1.491047
0.357227	1.487857
0.357324	1.455227
0.357422	1.418971
0.357520	1.387154
0.357617	1.412700
0.357715	1.510365
0.357812	1.544526
0.357910	1.541337
0.358008	1.559540
0.358105	1.534038
0.358203	1.529681
0.358301	1.577199
0.358398	1.585021
0.358496	1.562995
0.358594	1.564299
0.358691	1.569192
0.358789	1.555428
0.358887	1.506724
0.358984	1.494154
0.359082	1.511268
0.359180	1.507425
0.359277	1.493580
0.359375	1.497648
0.359473	1.520320
0.359570	1.522671
0.359668	1.520450
0.359766	1.508996
0.359863	1.506743
0.359961	1.503310
0.360059	1.493890
0.360156	1.477905
0.360254	1.476401
0.360352	1.478746
0.360449	1.570971
0.360547	1.618034
0.360645	1.592679
0.360742	1.588600
0.360840	1.563524
0.360937	1.572620
0.361035	1.571386
0.361133	1.544202
0.361230	1.534807
0.361328	1.551038
0.361426	1.556928
0.361523	1.543623
0.361621	1.559438
0.361719	1.585290
0.361816	1.582454
0.361914	1.606570
0.362012	1.601073
0.362109	1.593937
0.362207	1.569253
0.362305	1.588580
0.362402	1.548134
0.362500	1.542115
0.362598	1.617868
0.362695	1.584169
0.362793	1.596721
0.362891	1.577298
0.362988	1.577465
0.363086	1.591848
0.363184	1.597509
0.363281	1.582925
0.363379	1.599617
0.363477	1.561298
0.363574	1.528238
0.363672	1.539412
0.363770	1.562681
0.363867	1.555430
0.363965	1.541519
0.364062	1.546300
0.364160	1.546444
0.364258	1.568811
0.364355	1.613211
0.364453	1.584139
0.364551	1.566836
0.364648	1.570087
0.364746	1.573237
0.364844	1.561102
0.364941	1.541074
0.365039	1.518831
0.365137	1.508492
0.365234	1.519883
0.365332	1.501623
0.365430	1.476700
0.365527	1.461652
0.365625	1.447993
0.365723	1.442962
0.365820	1.433505
0.365918	1.423321
0.366016	1.418669
0.366113	1.418666
0.366211	1.424397
0.366309	1.426244
0.366406	1.425372
0.366504	1.431688
0.366602	1.436201
0.366699	1.431323
0.366797	1.418758
0.366895	1.404989
0.366992	1.384346
0.367090	1.373785
0.367187	1.383448
0.367285	1.381924
0.367383	1.358546
0.367480	1.333866
0.367578	1.319797
0.367676	1.351923
0.367773	1.403159
0.367871	1.453224
0.367969	1.467465
0.368066	1.444086
0.368164	1.422717
0.368262	1.428994
0.368359	1.455711
0.368457	1.461015
0.368555	1.431782
0.368652	1.426664
0.368750	1.381876
0.368848	1.345481
0.368945	1.372340
0.369043	1.390353
0.369141	1.327790
0.369238	1.381237
0.369336	1.418448
0.369434	1.418927
0.369531	1.421340
0.369629	1.408432
0.369727	1.371235
0.369824	1.332400
0.369922	1.315049
0.370020	1.310355
0.370117	1.313338
0.370215	1.340436
0.370312	1.385704
0.370410	1.429183
0.370508	1.479747
0.370605	1.506201
0.370703	1.527441
0.370801	1.544610
0.370898	1.559893
0.370996	1.572196
0.371094	1.583385
0.371191	1.592553
0.371289	1.602119
0.371387	1.611263
0.371484	1.622296
0.371582	1.633202
0.371680	1.643964
0.371777	1.651008
0.371875	1.662597
0.371973	1.667796
0.372070	1.665218
0.372168	1.666918
0.372266	1.661887
0.372363	1.669762
0.372461	1.697924
0.372559	1.685873
0.372656	1.673664
0.372754	1.645251
0.372852	1.675077
0.372949	1.681773
0.373047	1.655114
0.373145	1.645631
0.373242	1.656744
0.373340	1.680785
0.373437	1.677504
0.373535	1.633846
0.373633	1.601730
0.373730	1.577060
0.373828	1.592416
0.373926	1.576989
0.374023	1.556175
0.374121	1.579234
0.374219	1.574025
0.374316	1.565111
0.374414	1.555041
0.374512	1.549189
0.374609	1.530028
0.374707	1.508995
0.374805	1.506700
0.374902	1.514824
0.375000	1.551620
0.375098	1.552862
0.375195	1.564290
0.375293	1.609422
0.375391	1.588884
0.375488	1.590219
0.375586	1.563259
0.375684	1.550161
0.375781	1.568910
0.375879	1.618724
0.375977	1.610372
0.376074	1.642501
0.376172	1.651415
0.376270	1.657993
0.376367	1.656493
0.376465	1.659699
0.376562	1.661183
0.376660	1.697985
0.376758	1.659402
0.376855	1.641615
0.376953	1.626238
0.377051	1.610229
0.377148	1.598272
0.377246	1.587118
0.377344	1.568779
0.377441	1.507484
0.377539	1.523049
0.377637	1.567201
0.377734	1.558568
0.377832	1.560279
0.377930	1.561649
0.378027	1.602497
0.378125	1.580118
0.378223	1.576313
0.378320	1.588918
0.378418	1.627960
0.378516	1.626466
0.378613	1.641143
0.378711	1.632429
0.378809	1.633913
0.378906	1.625856
0.379004	1.608315
0.379102	1.600053
0.379199	1.580450
0.379297	1.558977
0.379395	1.545246
0.379492	1.536393
0.379590	1.586047
0.379687	1.588511
0.379785	1.582641
0.379883	1.576209
0.379980	1.562529
0.380078	1.514146
0.380176	1.539009
0.380273	1.580828
0.380371	1.573085
0.380469	1.550708
0.380566	1.501296
0.380664	1.453343
0.380762	1.394927
0.380859	1.364695
0.380957	1.378902
0.381055	1.452944
0.381152	1.508496
0.381250	1.503241
0.381348	1.508206
0.381445	1.537590
0.381543	1.570072
0.381641	1.590606
0.381738	1.586611
0.381836	1.579591
0.381934	1.576513
0.382031	1.582988
0.382129	1.590548
0.382227	1.597793
0.382324	1.607822
0.382422	1.620685
0.382520	1.644348
0.382617	1.643401
0.382715	1.657325
0.382812	1.673700
0.382910	1.685669
0.383008	1.700108
0.383105	1.690535
0.383203	1.672992
0.383301	1.657090
0.383398	1.637889
0.383496	1.618506
0.383594	1.599554
0.383691	1.585543
0.383789	1.582473
0.383887	1.579057
0.383984	1.575197
0.384082	1.572329
0.384180	1.573796
0.384277	1.575344
0.384375	1.575973
0.384473	1.578434
0.384570	1.583735
0.384668	1.589703
0.384766	1.597159
0.384863	1.605269
0.384961	1.615745
0.385059	1.627018
0.385156	1.640279
0.385254	1.643022
0.385352	1.642333
0.385449	1.646098
0.385547	1.647230
0.385645	1.652932
0.385742	1.661141
0.385840	1.665424
0.385937	1.674628
0.386035	1.674988
0.386133	1.680838
0.386230	1.693155
0.386328	1.697220
0.386426	1.693034
0.386523	1.681558
0.386621	1.679263
0.386719	1.647272
0.386816	1.663580
0.386914	1.677747
0.387012	1.653854
0.387109	1.619548
0.387207	1.598124
0.387305	1.612790
0.387402	1.603669
0.387500	1.607663
0.387598	1.610681
0.387695	1.560451
0.387793	1.567068
0.387891	1.618051
0.387988	1.632010
0.388086	1.618315
0.388184	1.636784
0.388281	1.645012
0.388379	1.611876
0.388477	1.554551
0.388574	1.574112
0.388672	1.603406
0.388770	1.605465
0.388867	1.616858
0.388965	1.611376
0.389062	1.610075
0.389160	1.602459
0.389258	1.599190
0.389355	1.578320
0.389453	1.590175
0.389551	1.580291
0.389648	1.602248
0.389746	1.607092
0.389844	1.597470
0.389941	1.603805
0.390039	1.573634
0.390137	1.572165
0.390234	1.582917
0.390332	1.604606
0.390430	1.579122
0.390527	1.588112
0.390625	1.620848
0.390723	1.600268
0.390820	1.581360
0.390918	1.573834
0.391016	1.572912
0.391113	1.559319
0.391211	1.562084
0.391309	1.567704
0.391406	1.575947
0.391504	1.566644
0.391602	1.556783
0.391699	1.557587
0.391797	1.556328
0.391895	1.540763
0.391992	1.547846
0.392090	1.576816
0.392187	1.606670
0.392285	1.625163
0.392383	1.606266
0.392480	1.583521
0.392578	1.570427
0.392676	1.548610
0.392773	1.528145
0.392871	1.577896
0.392969	1.554064
0.393066	1.531316
0.393164	1.521475
0.393262	1.483089
0.393359	1.460649
0.393457	1.476634
0.393555	1.489909
0.393652	1.469000
0.393750	1.455558
0.393848	1.438869
0.393945	1.389147
0.394043	1.393015
0.394141	1.438142
0.394238	1.427431
0.394336	1.421183
0.394434	1.457698
0.394531	1.447029
0.394629	1.415117
0.394727	1.395855
0.394824	1.356974
0.394922	1.372908
0.395020	1.428098
0.395117	1.431545
0.395215	1.405275
0.395312	1.377414
0.395410	1.343363
0.395508	1.301916
0.395605	1.278341
0.395703	1.307548
0.395801	1.371754
0.395898	1.422629
0.395996	1.432649
0.396094	1.427102
0.396191	1.419906
0.396289	1.405924
0.396387	1.408501
0.396484	1.417603
0.396582	1.430548
0.396680	1.417466
0.396777	1.393102
0.396875	1.360323
0.396973	1.352417
0.397070	1.331547
0.397168	1.350808
0.397266	1.402835
0.397363	1.370781
0.397461	1.340371
0.397559	1.399890
0.397656	1.452918
0.397754	1.521896
0.397852	1.570035
0.397949	1.580593
0.398047	1.587487
0.398145	1.579932
0.398242	1.578700
0.398340	1.581817
0.398437	1.585776
0.398535	1.592760
0.398633	1.601080
0.398730	1.602061
0.398828	1.605603
0.398926	1.615801
0.399023	1.623073
0.399121	1.638682
0.399219	1.643342
0.399316	1.660369
0.399414	1.638803
0.399512	1.639661
0.399609	1.640824
0.399707	1.604979
0.399805	1.662866
0.399902	1.681557
0.400000	1.667441
0.400098	1.649376
0.400195	1.634720
0.400293	1.580261
0.400391	1.606047
0.400488	1.628850
0.400586	1.584930
0.400684	1.595309
0.400781	1.567960
0.400879	1.600466
0.400977	1.591653
0.401074	1.553980
0.401172	1.577572
0.401270	1.553028
0.401367	1.559872
0.401465	1.547842
0.401562	1.571475
0.401660	1.574895
0.401758	1.587315
0.401855	1.616985
0.401953	1.573213
0.402051	1.535591
0.402148	1.565807
0.402246	1.571285
0.402344	1.543493
0.402441	1.548018
0.402539	1.571566
0.402637	1.552289
0.402734	1.556165
0.402832	1.529585
0.402930	1.483456
0.403027	1.400506
0.403125	1.349371
0.403223	1.351107
0.403320	1.326476
0.403418	1.295557
0.403516	1.318467
0.403613	1.399684
0.403711	1.443777
0.403809	1.467291
0.403906	1.466132
0.404004	1.462065
0.404102	1.461099
0.404199	1.482100
0.404297	1.494265
0.404395	1.532332
0.404492	1.577086
0.404590	1.569393
0.404687	1.569848
0.404785	1.569765
0.404883	1.576124
0.404980	1.500013
0.405078	1.486827
0.405176	1.492751
0.405273	1.504721
0.405371	1.523095
0.405469	1.530720
0.405566	1.534386
0.405664	1.539082
0.405762	1.566710
0.405859	1.572150
0.405957	1.577612
0.406055	1.568309
0.406152	1.579633
0.406250	1.578995
0.406348	1.548056
0.406445	1.561580
0.406543	1.567579
0.406641	1.572708
0.406738	1.569367
0.406836	1.573973
0.406934	1.580916
0.407031	1.595316
0.407129	1.613726
0.407227	1.617805
0.407324	1.626187
0.407422	1.624272
0.407520	1.619078
0.407617	1.624430
0.407715	1.632390
0.407812	1.612014
0.407910	1.591048
0.408008	1.602931
0.408105	1.590128
0.408203	1.581545
0.408301	1.588550
0.408398	1.581852
0.408496	1.565335
0.408594	1.549952
0.408691	1.557923
0.408789	1.554104
0.408887	1.558473
0.408984	1.591529
0.409082	1.575062
0.409180	1.543821
0.409277	1.524067
0.409375	1.497791
0.409473	1.488500
0.409570	1.490988
0.409668	1.458187
0.409766	1.458524
0.409863	1.465441
0.409961	1.445794
0.410059	1.418847
0.410156	1.398165
0.410254	1.396110
0.410352	1.408476
0.410449	1.415874
0.410547	1.424342
0.410645	1.439639
0.410742	1.437714
0.410840	1.422655
0.410937	1.418281
0.411035	1.433718
0.411133	1.413362
0.411230	1.395610
0.411328	1.377672
0.411426	1.367231
0.411523	1.345362
0.411621	1.326017
0.411719	1.297439
0.411816	1.274683
0.411914	1.259392
0.412012	1.315966
0.412109	1.286695
0.412207	1.276949
0.412305	1.319615
0.412402	1.315951
0.412500	1.356218
0.412598	1.350544
0.412695	1.355492
0.412793	1.378840
0.412891	1.366997
0.412988	1.345397
0.413086	1.366349
0.413184	1.370702
0.413281	1.377650
0.413379	1.378658
0.413477	1.420817
0.413574	1.445377
0.413672	1.462829
0.413770	1.494568
0.413867	1.547079
0.413965	1.573179
0.414062	1.577783
0.414160	1.590419
0.414258	1.590747
0.414355	1.585119
0.414453	1.588004
0.414551	1.602302
0.414648	1.605089
0.414746	1.608953
0.414844	1.615038
0.414941	1.628372
0.415039	1.635451
0.415137	1.652670
0.415234	1.649144
0.415332	1.663783
0.415430	1.658448
0.415527	1.659063
0.415625	1.660992
0.415723	1.643391
0.415820	1.647963
0.415918	1.655753
0.416016	1.653154
0.416113	1.652631
0.416211	1.617688
0.416309	1.606784
0.416406	1.585180
0.416504	1.574195
0.416602	1.564137
0.416699	1.601631
0.416797	1.646360
0.416895	1.634570
0.416992	1.608360
0.417090	1.581435
0.417187	1.629025
0.417285	1.645314
0.417383	1.628616
0.417480	1.620509
0.417578	1.631062
0.417676	1.610087
0.417773	1.607154
0.417871	1.623743
0.417969	1.656150
0.418066	1.671968
0.418164	1.671394
0.418262	1.639912
0.418359	1.603670
0.418457	1.625744
0.418555	1.621590
0.418652	1.598225
0.418750	1.581237
0.418848	1.575064
0.418945	1.569011
0.419043	1.567363
0.419141	1.569940
0.419238	1.577180
0.419336	1.585305
0.419434	1.569578
0.419531	1.563923
0.419629	1.578086
0.419727	1.573732
0.419824	1.553328
0.419922	1.558579
0.420020	1.561056
0.420117	1.599654
0.420215	1.608140
0.420312	1.598108
0.420410	1.590823
0.420508	1.596212
0.420605	1.598748
0.420703	1.581738
0.420801	1.570612
0.420898	1.586734
0.420996	1.607569
0.421094	1.623344
0.421191	1.612662
0.421289	1.627183
0.421387	1.647080
0.421484	1.657664
0.421582	1.663476
0.421680	1.665119
0.421777	1.657796
0.421875	1.638230
0.421973	1.664261
0.422070	1.671241
0.422168	1.643993
0.422266	1.610477
0.422363	1.537630
0.422461	1.551534
0.422559	1.568232
0.422656	1.559983
0.422754	1.547251
0.422852	1.514165
0.422949	1.488554
0.423047	1.473889
0.423145	1.464422
0.423242	1.459524
0.423340	1.470464
0.423437	1.484281
0.423535	1.478315
0.423633	1.470421
0.423730	1.460547
0.423828	1.447871
0.423926	1.439607
0.424023	1.443659
0.424121	1.441449
0.424219	1.418405
0.424316	1.383188
0.424414	1.351530
0.424512	1.333812
0.424609	1.338312
0.424707	1.335280
0.424805	1.431247
0.424902	1.474505
0.425000	1.477593
0.425098	1.551345
0.425195	1.550825
0.425293	1.483863
0.425391	1.429386
0.425488	1.426462
0.425586	1.413040
0.425684	1.431824
0.425781	1.438919
0.425879	1.459781
0.425977	1.486397
0.426074	1.567392
0.426172	1.577854
0.426270	1.572680
0.426367	1.531849
0.426465	1.502473
0.426562	1.565294
0.426660	1.605980
0.426758	1.595602
0.426855	1.541147
0.426953	1.523811
0.427051	1.572445
0.427148	1.615580
0.427246	1.585566
0.427344	1.549418
0.427441	1.548787
0.427539	1.552527
0.427637	1.585498
0.427734	1.573230
0.427832	1.558335
0.427930	1.554932
0.428027	1.564514
0.428125	1.566051
0.428223	1.567702
0.428320	1.581093
0.428418	1.591971
0.428516	1.591822
0.428613	1.564390
0.428711	1.538888
0.428809	1.534042
0.428906	1.543353
0.429004	1.557255
0.429102	1.560581
0.429199	1.563338
0.429297	1.566090
0.429395	1.571195
0.429492	1.576934
0.429590	1.584087
0.429687	1.591001
0.429785	1.598136
0.429883	1.605040
0.429980	1.610538
0.430078	1.617772
0.430176	1.625280
0.430273	1.632957
0.430371	1.639393
0.430469	1.645691
0.430566	1.650161
0.430664	1.656906
0.430762	1.662124
0.430859	1.664606
0.430957	1.671096
0.431055	1.685943
0.431152	1.690959
0.431250	1.693304
0.431348	1.702594
0.431445	1.686399
0.431543	1.690175
0.431641	1.666164
0.431738	1.657872
0.431836	1.678668
0.431934	1.655951
0.432031	1.626533
0.432129	1.654698
0.432227	1.651091
0.432324	1.627340
0.432422	1.609323
0.432520	1.629846
0.432617	1.676081
0.432715	1.674484
0.432812	1.639131
0.432910	1.631456
0.433008	1.649901
0.433105	1.644891
0.433203	1.632497
0.433301	1.658879
0.433398	1.667671
0.433496	1.649333
0.433594	1.622707
0.433691	1.620244
0.433789	1.628470
0.433887	1.637376
0.433984	1.638801
0.434082	1.626677
0.434180	1.597407
0.434277	1.567211
0.434375	1.585049
0.434473	1.598043
0.434570	1.602262
0.434668	1.585935
0.434766	1.569440
0.434863	1.531584
0.434961	1.532493
0.435059	1.544304
0.435156	1.552788
0.435254	1.545041
0.435352	1.535028
0.435449	1.534112
0.435547	1.548939
0.435645	1.530282
0.435742	1.507182
0.435840	1.495427
0.435937	1.506810
0.436035	1.507378
0.436133	1.492495
0.436230	1.507957
0.436328	1.538765
0.436426	1.560703
0.436523	1.565986
0.436621	1.586360
0.436719	1.609658
0.436816	1.597435
0.436914	1.544838
0.437012	1.510847
0.437109	1.536409
0.437207	1.573649
0.437305	1.607571
0.437402	1.602767
0.437500	1.593255
0.437598	1.591411
0.437695	1.597494
0.437793	1.575112
0.437891	1.552436
0.437988	1.562621
0.438086	1.592595
0.438184	1.633432
0.438281	1.631566
0.438379	1.591406
0.438477	1.578896
0.438574	1.601385
0.438672	1.620330
0.438770	1.621822
0.438867	1.578665
0.438965	1.588049
0.439062	1.630507
0.439160	1.611330
0.439258	1.579510
0.439355	1.568311
0.439453	1.611313
0.439551	1.595927
0.439648	1.608805
0.439746	1.582202
0.439844	1.597405
0.439941	1.607949
0.440039	1.629805
0.440137	1.614602
0.440234	1.578023
0.440332	1.594899
0.440430	1.604479
0.440527	1.620543
0.440625	1.605215
0.440723	1.596566
0.440820	1.579738
0.440918	1.580884
0.441016	1.576035
0.441113	1.554142
0.441211	1.520356
0.441309	1.511801
0.441406	1.509807
0.441504	1.520815
0.441602	1.519823
0.441699	1.512222
0.441797	1.508600
0.441895	1.499059
0.441992	1.492373
0.442090	1.494392
0.442187	1.479287
0.442285	1.494382
0.442383	1.505269
0.442480	1.508505
0.442578	1.483230
0.442676	1.458410
0.442773	1.467400
0.442871	1.470781
0.442969	1.448042
0.443066	1.410084
0.443164	1.386836
0.443262	1.368489
0.443359	1.369660
0.443457	1.363048
0.443555	1.341445
0.443652	1.314401
0.443750	1.289375
0.443848	1.267901
0.443945	1.254005
0.444043	1.259345
0.444141	1.293746
0.444238	1.322889
0.444336	1.364110
0.444434	1.404129
0.444531	1.404047
0.444629	1.426650
0.444727	1.459987
0.444824	1.479013
0.444922	1.493652
0.445020	1.504397
0.445117	1.513836
0.445215	1.521477
0.445312	1.528149
0.445410	1.533518
0.445508	1.537893
0.445605	1.541719
0.445703	1.545585
0.445801	1.549642
0.445898	1.553950
0.445996	1.558972
0.446094	1.564844
0.446191	1.571252
0.446289	1.578113
0.446387	1.584970
0.446484	1.592053
0.446582	1.599114
0.446680	1.605868
0.446777	1.612459
0.446875	1.618896
0.446973	1.625433
0.447070	1.632552
0.447168	1.640342
0.447266	1.649033
0.447363	1.656578
0.447461	1.662772
0.447559	1.669377
0.447656	1.679724
0.447754	1.679439
0.447852	1.680262
0.447949	1.693232
0.448047	1.691620
0.448145	1.669767
0.448242	1.659967
0.448340	1.680738
0.448437	1.701551
0.448535	1.682595
0.448633	1.658876
0.448730	1.637288
0.448828	1.679727
0.448926	1.689139
0.449023	1.630302
0.449121	1.652604
0.449219	1.685737
0.449316	1.630387
0.449414	1.638785
0.449512	1.657397
0.449609	1.671860
0.449707	1.701914
0.449805	1.661169
0.449902	1.655401
0.450000	1.647005
0.450098	1.633866
0.450195	1.614047
0.450293	1.583936
0.450391	1.542489
0.450488	1.560457
0.450586	1.546009
0.450684	1.528077
0.450781	1.539983
0.450879	1.533076
0.450977	1.481614
0.451074	1.499050
0.451172	1.552412
0.451270	1.597911
0.451367	1.579981
0.451465	1.540853
0.451562	1.524644
0.451660	1.507048
0.451758	1.545114
0.451855	1.551046
0.451953	1.536855
0.452051	1.527174
0.452148	1.514464
0.452246	1.493315
0.452344	1.503411
0.452441	1.520356
0.452539	1.540732
0.452637	1.574925
0.452734	1.563755
0.452832	1.543718
0.452930	1.597646
0.453027	1.598320
0.453125	1.575615
0.453223	1.562253
0.453320	1.551160
0.453418	1.568301
0.453516	1.593458
0.453613	1.602262
0.453711	1.573265
0.453809	1.542525
0.453906	1.563459
0.454004	1.564526
0.454102	1.574873
0.454199	1.564661
0.454297	1.557561
0.454395	1.548686
0.454492	1.552766
0.454590	1.531792
0.454687	1.518034
0.454785	1.482617
0.454883	1.445522
0.454980	1.388048
0.455078	1.384140
0.455176	1.440426
0.455273	1.477320
0.455371	1.482322
0.455469	1.446515
0.455566	1.403164
0.455664	1.395372
0.455762	1.411339
0.455859	1.405066
0.455957	1.391132
0.456055	1.404257
0.456152	1.428791
0.456250	1.417764
0.456348	1.454964
0.456445	1.453583
0.456543	1.443322
0.456641	1.436813
0.456738	1.431449
0.456836	1.421360
0.456934	1.401012
0.457031	1.377089
0.457129	1.344167
0.457227	1.329986
0.457324	1.318643
0.457422	1.294037
0.457520	1.270625
0.457617	1.280304
0.457715	1.347864
0.457812	1.387631
0.457910	1.375560
0.458008	1.363030
0.458105	1.402425
0.458203	1.439500
0.458301	1.440287
0.458398	1.461363
0.458496	1.517232
0.458594	1.530707
0.458691	1.532226
0.458789	1.539147
0.458887	1.550966
0.458984	1.551961
0.459082	1.558183
0.459180	1.562268
0.459277	1.567256
0.459375	1.575432
0.459473	1.588173
0.459570	1.599994
0.459668	1.603717
0.459766	1.611714
0.459863	1.632999
0.459961	1.647940
0.460059	1.613284
0.460156	1.621115
0.460254	1.628844
0.460352	1.636838
0.460449	1.684003
0.460547	1.674786
0.460645	1.666270
0.460742	1.668333
0.460840	1.678330
0.460937	1.690860
0.461035	1.705804
0.461133	1.718078
0.461230	1.704112
0.461328	1.654082
0.461426	1.664239
0.461523	1.644135
0.461621	1.646039
0.461719	1.686790
0.461816	1.705935
0.461914	1.704739
0.462012	1.681387
0.462109	1.670498
0.462207	1.660733
0.462305	1.676509
0.462402	1.649854
0.462500	1.623500
0.462598	1.608088
0.462695	1.612500
0.462793	1.528644
0.462891	1.554908
0.462988	1.571274
0.463086	1.460247
0.463184	1.420571
0.463281	1.441483
0.463379	1.461837
0.463477	1.440679
0.463574	1.434154
0.463672	1.495556
0.463770	1.492271
0.463867	1.494942
0.463965	1.530395
0.464062	1.555908
0.464160	1.563012
0.464258	1.560221
0.464355	1.520019
0.464453	1.447600
0.464551	1.358726
0.464648	1.381617
0.464746	1.401065
0.464844	1.398403
0.464941	1.405951
0.465039	1.384516
0.465137	1.370443
0.465234	1.341856
0.465332	1.342686
0.465430	1.379726
0.465527	1.411446
0.465625	1.422652
0.465723	1.387921
0.465820	1.399753
0.465918	1.453099
0.466016	1.429836
0.466113	1.477245
0.466211	1.513715
0.466309	1.494475
0.466406	1.511779
0.466504	1.546796
0.466602	1.576816
0.466699	1.563795
0.466797	1.536322
0.466895	1.523037
0.466992	1.514120
0.467090	1.545172
0.467187	1.543978
0.467285	1.490025
0.467383	1.466246
0.467480	1.462731
0.467578	1.495422
0.467676	1.494148
0.467773	1.507475
0.467871	1.502568
0.467969	1.520998
0.468066	1.528731
0.468164	1.508469
0.468262	1.506747
0.468359	1.530832
0.468457	1.560856
0.468555	1.609351
0.468652	1.621583
0.468750	1.612449
0.468848	1.597258
0.468945	1.574468
0.469043	1.529073
0.469141	1.517959
0.469238	1.526898
0.469336	1.574179
0.469434	1.571084
0.469531	1.540895
0.469629	1.536570
0.469727	1.562888
0.469824	1.598399
0.469922	1.573831
0.470020	1.536884
0.470117	1.512843
0.470215	1.507019
0.470312	1.481117
0.470410	1.520947
0.470508	1.540180
0.470605	1.530311
0.470703	1.499789
0.470801	1.557875
0.470898	1.538732
0.470996	1.542667
0.471094	1.552957
0.471191	1.540097
0.471289	1.523658
0.471387	1.515951
0.471484	1.526338
0.471582	1.516082
0.471680	1.502420
0.471777	1.496258
0.471875	1.491667
0.471973	1.480923
0.472070	1.478194
0.472168	1.474517
0.472266	1.454040
0.472363	1.440162
0.472461	1.428914
0.472559	1.411895
0.472656	1.390077
0.472754	1.370640
0.472852	1.373793
0.472949	1.385477
0.473047	1.387203
0.473145	1.382524
0.473242	1.373573
0.473340	1.363131
0.473437	1.351779
0.473535	1.340012
0.473633	1.327311
0.473730	1.314555
0.473828	1.301476
0.473926	1.288539
0.474023	1.277844
0.474121	1.273930
0.474219	1.280941
0.474316	1.301163
0.474414	1.346140
0.474512	1.383815
0.474609	1.390949
0.474707	1.394747
0.474805	1.391204
0.474902	1.394046
0.475000	1.417154
0.475098	1.442736
0.475195	1.468097
0.475293	1.490715
0.475391	1.511028
0.475488	1.528111
0.475586	1.543259
0.475684	1.555366
0.475781	1.566310
0.475879	1.576630
0.475977	1.588461
0.476074	1.600375
0.476172	1.609192
0.476270	1.613707
0.476367	1.624516
0.476465	1.645059
0.476562	1.661266
0.476660	1.652064
0.476758	1.631311
0.476855	1.599836
0.476953	1.556641
0.477051	1.539480
0.477148	1.511635
0.477246	1.451856
0.477344	1.427024
0.477441	1.444140
0.477539	1.469217
0.477637	1.480956
0.477734	1.466905
0.477832	1.479681
0.477930	1.466991
0.478027	1.437882
0.478125	1.394978
0.478223	1.335942
0.478320	1.293340
0.478418	1.303550
0.478516	1.306260
0.478613	1.307873
0.478711	1.309206
0.478809	1.279187
0.478906	1.254076
0.479004	1.279499
0.479102	1.333619
0.479199	1.338203
0.479297	1.309562
0.479395	1.286840
0.479492	1.279451
0.479590	1.291022
0.479687	1.326460
0.479785	1.391481
0.479883	1.416676
0.479980	1.419905
0.480078	1.432118
0.480176	1.435684
0.480273	1.419403
0.480371	1.421138
0.480469	1.447845
0.480566	1.429610
0.480664	1.397457
0.480762	1.369719
0.480859	1.346522
0.480957	1.329295
0.481055	1.325924
0.481152	1.388117
0.481250	1.448412
0.481348	1.471570
0.481445	1.487408
0.481543	1.520588
0.481641	1.520039
0.481738	1.484930
0.481836	1.505113
0.481934	1.494718
0.482031	1.545783
0.482129	1.562545
0.482227	1.534894
0.482324	1.527924
0.482422	1.541493
0.482520	1.552326
0.482617	1.548367
0.482715	1.557714
0.482812	1.553643
0.482910	1.504834
0.483008	1.449632
0.483105	1.449281
0.483203	1.506174
0.483301	1.561201
0.483398	1.619101
0.483496	1.584601
0.483594	1.528093
0.483691	1.453880
0.483789	1.426049
0.483887	1.438924
0.483984	1.472334
0.484082	1.486047
0.484180	1.481269
0.484277	1.470839
0.484375	1.462343
0.484473	1.441109
0.484570	1.413271
0.484668	1.434852
0.484766	1.477568
0.484863	1.475581
0.484961	1.452359
0.485059	1.422903
0.485156	1.379676
0.485254	1.323872
0.485352	1.276635
0.485449	1.270368
0.485547	1.305739
0.485645	1.324362
0.485742	1.327180
0.485840	1.383872
0.485937	1.415777
0.486035	1.418532
0.486133	1.443651
0.486230	1.473507
0.486328	1.473355
0.486426	1.420543
0.486523	1.366600
0.486621	1.328839
0.486719	1.357783
0.486816	1.405603
0.486914	1.419017
0.487012	1.440125
0.487109	1.443140
0.487207	1.420746
0.487305	1.457994
0.487402	1.457979
0.487500	1.437626
0.487598	1.454032
0.487695	1.466038
0.487793	1.433552
0.487891	1.432109
0.487988	1.444703
0.488086	1.445548
0.488184	1.476840
0.488281	1.535666
0.488379	1.594249
0.488477	1.588337
0.488574	1.584615
0.488672	1.608980
0.488770	1.596780
0.488867	1.608444
0.488965	1.601094
0.489062	1.550196
0.489160	1.552099
0.489258	1.569624
0.489355	1.556098
0.489453	1.565555
0.489551	1.562894
0.489648	1.567878
0.489746	1.573548
0.489844	1.580823
0.489941	1.587275
0.490039	1.594410
0.490137	1.600287
0.490234	1.605442
0.490332	1.606726
0.490430	1.607688
0.490527	1.609953
0.490625	1.613258
0.490723	1.617244
0.490820	1.622026
0.490918	1.628062
0.491016	1.634526
0.491113	1.642558
0.491211	1.649195
0.491309	1.653357
0.491406	1.654564
0.491504	1.657624
0.491602	1.661935
0.491699	1.669817
0.491797	1.680821
0.491895	1.695981
0.491992	1.709186
0.492090	1.709407
0.492187	1.689502
0.492285	1.699336
0.492383	1.680483
0.492480	1.643850
0.492578	1.632081
0.492676	1.595639
0.492773	1.559454
0.492871	1.505982
0.492969	1.493893
0.493066	1.480507
0.493164	1.492057
0.493262	1.435864
0.493359	1.435404
0.493457	1.461028
0.493555	1.505075
0.493652	1.515306
0.493750	1.509700
0.493848	1.533285
0.493945	1.547450
0.494043	1.538171
0.494141	1.556139
0.494238	1.557443
0.494336	1.580073
0.494434	1.570073
0.494531	1.564184
0.494629	1.587142
0.494727	1.550581
0.494824	1.529342
0.494922	1.519666
0.495020	1.517210
0.495117	1.532440
0.495215	1.546943
0.495312	1.565659
0.495410	1.560054
0.495508	1.578592
0.495605	1.594792
0.495703	1.584731
0.495801	1.610616
0.495898	1.607592
0.495996	1.609173
0.496094	1.638726
0.496191	1.609938
0.496289	1.592851
0.496387	1.601881
0.496484	1.605099
0.496582	1.627605
0.496680	1.647804
0.496777	1.642161
0.496875	1.678626
0.496973	1.690654
0.497070	1.674233
0.497168	1.678347
0.497266	1.668539
0.497363	1.695468
0.497461	1.687017
0.497559	1.688317
0.497656	1.685081
0.497754	1.675957
0.497852	1.661180
0.497949	1.647510
0.498047	1.645239
0.498145	1.657694
0.498242	1.635333
0.498340	1.631370
0.498437	1.609969
0.498535	1.597356
0.498633	1.584767
0.498730	1.568206
0.498828	1.563457
0.498926	1.551485
0.499023	1.547010
0.499121	1.563516
0.499219	1.529282
0.499316	1.511750
0.499414	1.502407
0.499512	1.494290
0.499609	1.483421
0.499707	1.496855
0.499805	1.494900
0.499902	1.487491
0.500000	1.472532
0.500098	1.457453
0.500195	1.452158
0.500293	1.443730
0.500391	1.442310
0.500488	1.449723
0.500586	1.446920
0.500684	1.444185
0.500781	1.451279
0.500879	1.460034
0.500977	1.461948
0.501074	1.437766
0.501172	1.423358
0.501270	1.420629
0.501367	1.401183
0.501465	1.377420
0.501562	1.360895
0.501660	1.368438
0.501758	1.385866
0.501855	1.385990
0.501953	1.373409
0.502051	1.358622
0.502148	1.348096
0.502246	1.346062
0.502344	1.352567
0.502441	1.360567
0.502539	1.359845
0.502637	1.351811
0.502734	1.346263
0.502832	1.350620
0.502930	1.365005
0.503027	1.384272
0.503125	1.400645
0.503223	1.402199
0.503320	1.408097
0.503418	1.423821
0.503516	1.422660
0.503613	1.412880
0.503711	1.403130
0.503809	1.406006
0.503906	1.416714
0.504004	1.415959
0.504102	1.408721
0.504199	1.408687
0.504297	1.418133
0.504395	1.429526
0.504492	1.434321
0.504590	1.465897
0.504687	1.447615
0.504785	1.380227
0.504883	1.306872
0.504980	1.337338
0.505078	1.423875
0.505176	1.479078
0.505273	1.530531
0.505371	1.543945
0.505469	1.564231
0.505566	1.579344
0.505664	1.598462
0.505762	1.596579
0.505859	1.596862
0.505957	1.608850
0.506055	1.611201
0.506152	1.618011
0.506250	1.626172
0.506348	1.632428
0.506445	1.642271
0.506543	1.657385
0.506641	1.671484
0.506738	1.675070
0.506836	1.675896
0.506934	1.658384
0.507031	1.664028
0.507129	1.668114
0.507227	1.676347
0.507324	1.667807
0.507422	1.675465
0.507520	1.665821
0.507617	1.650643
0.507715	1.623090
0.507812	1.600574
0.507910	1.587984
0.508008	1.572565
0.508105	1.574243
0.508203	1.595963
0.508301	1.597875
0.508398	1.586707
0.508496	1.583735
0.508594	1.561431
0.508691	1.573762
0.508789	1.567912
0.508887	1.572765
0.508984	1.551794
0.509082	1.536699
0.509180	1.568061
0.509277	1.571532
0.509375	1.566980
0.509473	1.502957
0.509570	1.485013
0.509668	1.519111
0.509766	1.534837
0.509863	1.548521
0.509961	1.548206
0.510059	1.495691
0.510156	1.503538
0.510254	1.514388
0.510352	1.465488
0.510449	1.464153
0.510547	1.490792
0.510645	1.501283
0.510742	1.508927
0.510840	1.547999
0.510937	1.560312
0.511035	1.551037
0.511133	1.531127
0.511230	1.569468
0.511328	1.581758
0.511426	1.594636
0.511523	1.590279
0.511621	1.567969
0.511719	1.570607
0.511816	1.582547
0.511914	1.625248
0.512012	1.614304
0.512109	1.626594
0.512207	1.612802
0.512305	1.589273
0.512402	1.593410
0.512500	1.557695
0.512598	1.547486
0.512695	1.568560
0.512793	1.565907
0.512891	1.539594
0.512988	1.575989
0.513086	1.602792
0.513184	1.592411
0.513281	1.573441
0.513379	1.558253
0.513477	1.582711
0.513574	1.568075
0.513672	1.536615
0.513770	1.557148
0.513867	1.557184
0.513965	1.573417
0.514062	1.571197
0.514160	1.557255
0.514258	1.527620
0.514355	1.493172
0.514453	1.578290
0.514551	1.593332
0.514648	1.571194
0.514746	1.550649
0.514844	1.487095
0.514941	1.442515
0.515039	1.440503
0.515137	1.453292
0.515234	1.448146
0.515332	1.418784
0.515430	1.404001
0.515527	1.470775
0.515625	1.493038
0.515723	1.472451
0.515820	1.463607
0.515918	1.485080
0.516016	1.495998
0.516113	1.462857
0.516211	1.487767
0.516309	1.495614
0.516406	1.524118
0.516504	1.545227
0.516602	1.521363
0.516699	1.502722
0.516797	1.499419
0.516895	1.491872
0.516992	1.491159
0.517090	1.499247
0.517187	1.476959
0.517285	1.457046
0.517383	1.446305
0.517480	1.420940
0.517578	1.391833
0.517676	1.359355
0.517773	1.331381
0.517871	1.311056
0.517969	1.292168
0.518066	1.274647
0.518164	1.262999
0.518262	1.256329
0.518359	1.256419
0.518457	1.267372
0.518555	1.305679
0.518652	1.341222
0.518750	1.361135
0.518848	1.354529
0.518945	1.334103
0.519043	1.309694
0.519141	1.303082
0.519238	1.321269
0.519336	1.342442
0.519434	1.385664
0.519531	1.422692
0.519629	1.429576
0.519727	1.428670
0.519824	1.422323
0.519922	1.423129
0.520020	1.421017
0.520117	1.457205
0.520215	1.521301
0.520312	1.526663
0.520410	1.499392
0.520508	1.486277
0.520605	1.458182
0.520703	1.395079
0.520801	1.348544
0.520898	1.379247
0.520996	1.433087
0.521094	1.426717
0.521191	1.444516
0.521289	1.429584
0.521387	1.384406
0.521484	1.365844
0.521582	1.410727
0.521680	1.464662
0.521777	1.513783
0.521875	1.540595
0.521973	1.549437
0.522070	1.560048
0.522168	1.568980
0.522266	1.573347
0.522363	1.569542
0.522461	1.570534
0.522559	1.574607
0.522656	1.579253
0.522754	1.584444
0.522852	1.589572
0.522949	1.596965
0.523047	1.602720
0.523145	1.607837
0.523242	1.620740
0.523340	1.620770
0.523437	1.614323
0.523535	1.623212
0.523633	1.622531
0.523730	1.650421
0.523828	1.672766
0.523926	1.615679
0.524023	1.572561
0.524121	1.561907
0.524219	1.601397
0.524316	1.620761
0.524414	1.670035
0.524512	1.639625
0.524609	1.620711
0.524707	1.641824
0.524805	1.661833
0.524902	1.639270
0.525000	1.613028
0.525098	1.582135
0.525195	1.549321
0.525293	1.556133
0.525391	1.562950
0.525488	1.592234
0.525586	1.646393
0.525684	1.685552
0.525781	1.684304
0.525879	1.713169
0.525977	1.713282
0.526074	1.670102
0.526172	1.625714
0.526270	1.633106
0.526367	1.635477
0.526465	1.603291
0.526562	1.568707
0.526660	1.539031
0.526758	1.544555
0.526855	1.512349
0.526953	1.510046
0.527051	1.535293
0.527148	1.523033
0.527246	1.524763
0.527344	1.496787
0.527441	1.500934
0.527539	1.557505
0.527637	1.599850
0.527734	1.620590
0.527832	1.632302
0.527930	1.563717
0.528027	1.613518
0.528125	1.668567
0.528223	1.613173
0.528320	1.619536
0.528418	1.631922
0.528516	1.617371
0.528613	1.619423
0.528711	1.633458
0.528809	1.674893
0.528906	1.666717
0.529004	1.678876
0.529102	1.676304
0.529199	1.639694
0.529297	1.591196
0.529395	1.648922
0.529492	1.579312
0.529590	1.544297
0.529687	1.594826
0.529785	1.583507
0.529883	1.546330
0.529980	1.535503
0.530078	1.534090
0.530176	1.549891
0.530273	1.593892
0.530371	1.625053
0.530469	1.611211
0.530566	1.560228
0.530664	1.534300
0.530762	1.526948
0.530859	1.519011
0.530957	1.496488
0.531055	1.397436
0.531152	1.420132
0.531250	1.507793
0.531348	1.504780
0.531445	1.501556
0.531543	1.488103
0.531641	1.456095
0.531738	1.447394
0.531836	1.438565
0.531934	1.421780
0.532031	1.420197
0.532129	1.395415
0.532227	1.376197
0.532324	1.377393
0.532422	1.372271
0.532520	1.364114
0.532617	1.343551
0.532715	1.312578
0.532812	1.303009
0.532910	1.317780
0.533008	1.356425
0.533105	1.397007
0.533203	1.410745
0.533301	1.421899
0.533398	1.436189
0.533496	1.436213
0.533594	1.432952
0.533691	1.427046
0.533789	1.424580
0.533887	1.426516
0.533984	1.426163
0.534082	1.434967
0.534180	1.450943
0.534277	1.473102
0.534375	1.487859
0.534473	1.497780
0.534570	1.511221
0.534668	1.505532
0.534766	1.488537
0.534863	1.467874
0.534961	1.451684
0.535059	1.460745
0.535156	1.459825
0.535254	1.452210
0.535352	1.449786
0.535449	1.463188
0.535547	1.475883
0.535645	1.479268
0.535742	1.461381
0.535840	1.452229
0.535937	1.461637
0.536035	1.472231
0.536133	1.470248
0.536230	1.465875
0.536328	1.453268
0.536426	1.436804
0.536523	1.439399
0.536621	1.449705
0.536719	1.470702
0.536816	1.474531
0.536914	1.469978
0.537012	1.458442
0.537109	1.450907
0.537207	1.412624
0.537305	1.391334
0.537402	1.375653
0.537500	1.363370
0.537598	1.346313
0.537695	1.308658
0.537793	1.284522
0.537891	1.299148
0.537988	1.346877
0.538086	1.426564
0.538184	1.493114
0.538281	1.530996
0.538379	1.549628
0.538477	1.555024
0.538574	1.565439
0.538672	1.581368
0.538770	1.602107
0.538867	1.616015
0.538965	1.617345
0.539062	1.623107
0.539160	1.628162
0.539258	1.637316
0.539355	1.642728
0.539453	1.662119
0.539551	1.663059
0.539648	1.662733
0.539746	1.660242
0.539844	1.643958
0.539941	1.635145
0.540039	1.625174
0.540137	1.663954
0.540234	1.666879
0.540332	1.643302
0.540430	1.622016
0.540527	1.622216
0.540625	1.602399
0.540723	1.602693
0.540820	1.568694
0.540918	1.576867
0.541016	1.573625
0.541113	1.575764
0.541211	1.607750
0.541309	1.583394
0.541406	1.608945
0.541504	1.618498
0.541602	1.555410
0.541699	1.581686
0.541797	1.660549
0.541895	1.636643
0.541992	1.610918
0.542090	1.601881
0.542187	1.595850
0.542285	1.594257
0.542383	1.563410
0.542480	1.610532
0.542578	1.635821
0.542676	1.675386
0.542773	1.692096
0.542871	1.683333
0.542969	1.661418
0.543066	1.639973
0.543164	1.663848
0.543262	1.637566
0.543359	1.634557
0.543457	1.662529
0.543555	1.668419
0.543652	1.631835
0.543750	1.650809
0.543848	1.683335
0.543945	1.657658
0.544043	1.657921
0.544141	1.668746
0.544238	1.642161
0.544336	1.604541
0.544434	1.587206
0.544531	1.573389
0.544629	1.567573
0.544727	1.547125
0.544824	1.531086
0.544922	1.574333
0.545020	1.601449
0.545117	1.620142
0.545215	1.591318
0.545312	1.612500
0.545410	1.643510
0.545508	1.637618
0.545605	1.627901
0.545703	1.606795
0.545801	1.592540
0.545898	1.570141
0.545996	1.543997
0.546094	1.540248
0.546191	1.576766
0.546289	1.626882
0.546387	1.635619
0.546484	1.608474
0.546582	1.598624
0.546680	1.590374
0.546777	1.579159
0.546875	1.568492
0.546973	1.573111
0.547070	1.561177
0.547168	1.577821
0.547266	1.594924
0.547363	1.563424
0.547461	1.546093
0.547559	1.553166
0.547656	1.532489
0.547754	1.533827
0.547852	1.525226
0.547949	1.493231
0.548047	1.485032
0.548145	1.480533
0.548242	1.472672
0.548340	1.460382
0.548437	1.456322
0.548535	1.454838
0.548633	1.452967
0.548730	1.443320
0.548828	1.424443
0.548926	1.401840
0.549023	1.375954
0.549121	1.356358
0.549219	1.352438
0.549316	1.357994
0.549414	1.354697
0.549512	1.342855
0.549609	1.329740
0.549707	1.319872
0.549805	1.314543
0.549902	1.323022
0.550000	1.355789
0.550098	1.398175
0.550195	1.401357
0.550293	1.398189
0.550391	1.397673
0.550488	1.398314
0.550586	1.390305
0.550684	1.404164
0.550781	1.455522
0.550879	1.457135
0.550977	1.472606
0.551074	1.504345
0.551172	1.515130
0.551270	1.499760
0.551367	1.519287
0.551465	1.540924
0.551562	1.560173
0.551660	1.582658
0.551758	1.591330
0.551855	1.591920
0.551953	1.597707
0.552051	1.596675
0.552148	1.596406
0.552246	1.589184
0.552344	1.595019
0.552441	1.600337
0.552539	1.598403
0.552637	1.610829
0.552734	1.628122
0.552832	1.623997
0.552930	1.616365
0.553027	1.580178
0.553125	1.604074
0.553223	1.654875
0.553320	1.661326
0.553418	1.666628
0.553516	1.677070
0.553613	1.688828
0.553711	1.692231
0.553809	1.642375
0.553906	1.600361
0.554004	1.624358
0.554102	1.664202
0.554199	1.692461
0.554297	1.672656
0.554395	1.632368
0.554492	1.634834
0.554590	1.594881
0.554687	1.588961
0.554785	1.586395
0.554883	1.582888
0.554980	1.608171
0.555078	1.638543
0.555176	1.693776
0.555273	1.671118
0.555371	1.649774
0.555469	1.637742
0.555566	1.598226
0.555664	1.565599
0.555762	1.583669
0.555859	1.634690
0.555957	1.578274
0.556055	1.568146
0.556152	1.617174
0.556250	1.641658
0.556348	1.622453
0.556445	1.656919
0.556543	1.602552
0.556641	1.582930
0.556738	1.588308
0.556836	1.570206
0.556934	1.534131
0.557031	1.517162
0.557129	1.477052
0.557227	1.461398
0.557324	1.576526
0.557422	1.557983
0.557520	1.510913
0.557617	1.479579
0.557715	1.492797
0.557812	1.504406
0.557910	1.549996
0.558008	1.588931
0.558105	1.631270
0.558203	1.675482
0.558301	1.682476
0.558398	1.702276
0.558496	1.698833
0.558594	1.697970
0.558691	1.686614
0.558789	1.676812
0.558887	1.658313
0.558984	1.632159
0.559082	1.601076
0.559180	1.567851
0.559277	1.578378
0.559375	1.586137
0.559473	1.567383
0.559570	1.537708
0.559668	1.519579
0.559766	1.553418
0.559863	1.567068
0.559961	1.552896
0.560059	1.515403
0.560156	1.496576
0.560254	1.500554
0.560352	1.488085
0.560449	1.496414
0.560547	1.526518
0.560645	1.540030
0.560742	1.523079
0.560840	1.530938
0.560937	1.506800
0.561035	1.455313
0.561133	1.368301
0.561230	1.431215
0.561328	1.492655
0.561426	1.481442
0.561523	1.473568
0.561621	1.447071
0.561719	1.481128
0.561816	1.491765
0.561914	1.476763
0.562012	1.470974
0.562109	1.462963
0.562207	1.468690
0.562305	1.478805
0.562402	1.482539
0.562500	1.461727
0.562598	1.454152
0.562695	1.459861
0.562793	1.494184
0.562891	1.529101
0.562988	1.542376
0.563086	1.540801
0.563184	1.555666
0.563281	1.579141
0.563379	1.589405
0.563477	1.587106
0.563574	1.577638
0.563672	1.554707
0.563770	1.598800
0.563867	1.602736
0.563965	1.558634
0.564062	1.538632
0.564160	1.511785
0.564258	1.550902
0.564355	1.537719
0.564453	1.519137
0.564551	1.533221
0.564648	1.550540
0.564746	1.568102
0.564844	1.586935
0.564941	1.557947
0.565039	1.560557
0.565137	1.518008
0.565234	1.499425
0.565332	1.520630
0.565430	1.568747
0.565527	1.588178
0.565625	1.534956
0.565723	1.533166
0.565820	1.518640
0.565918	1.486735
0.566016	1.512768
0.566113	1.596378
0.566211	1.619010
0.566309	1.536702
0.566406	1.494989
0.566504	1.474279
0.566602	1.445176
0.566699	1.473792
0.566797	1.503826
0.566895	1.503865
0.566992	1.522592
0.567090	1.533055
0.567187	1.525931
0.567285	1.533575
0.567383	1.485693
0.567480	1.427146
0.567578	1.433139
0.567676	1.566994
0.567773	1.604487
0.567871	1.600594
0.567969	1.598139
0.568066	1.600631
0.568164	1.611341
0.568262	1.614616
0.568359	1.617827
0.568457	1.627771
0.568555	1.644448
0.568652	1.643036
0.568750	1.620473
0.568848	1.601442
0.568945	1.601171
0.569043	1.576617
0.569141	1.609231
0.569238	1.611280
0.569336	1.609368
0.569434	1.614824
0.569531	1.623409
0.569629	1.630355
0.569727	1.634077
0.569824	1.618095
0.569922	1.620776
0.570020	1.591883
0.570117	1.596791
0.570215	1.630373
0.570312	1.595314
0.570410	1.573235
0.570508	1.605868
0.570605	1.667933
0.570703	1.671388
0.570801	1.672572
0.570898	1.662255
0.570996	1.592364
0.571094	1.606123
0.571191	1.597861
0.571289	1.560010
0.571387	1.575645
0.571484	1.547852
0.571582	1.549703
0.571680	1.527496
0.571777	1.501695
0.571875	1.473554
0.571973	1.481231
0.572070	1.469796
0.572168	1.410818
0.572266	1.381736
0.572363	1.367332
0.572461	1.336124
0.572559	1.378016
0.572656	1.473716
0.572754	1.484343
0.572852	1.532780
0.572949	1.545942
0.573047	1.565545
0.573145	1.555861
0.573242	1.542063
0.573340	1.551518
0.573437	1.542853
0.573535	1.519683
0.573633	1.545777
0.573730	1.605011
0.573828	1.607323
0.573926	1.617998
0.574023	1.602676
0.574121	1.664836
0.574219	1.670578
0.574316	1.633830
0.574414	1.615876
0.574512	1.631954
0.574609	1.625671
0.574707	1.630769
0.574805	1.644444
0.574902	1.641912
0.575000	1.613087
0.575098	1.614838
0.575195	1.634459
0.575293	1.623956
0.575391	1.654947
0.575488	1.650945
0.575586	1.602127
0.575684	1.554482
0.575781	1.531646
0.575879	1.530026
0.575977	1.565103
0.576074	1.591580
0.576172	1.604080
0.576270	1.578832
0.576367	1.563778
0.576465	1.502419
0.576562	1.503872
0.576660	1.505562
0.576758	1.507308
0.576855	1.523721
0.576953	1.541087
0.577051	1.535579
0.577148	1.520892
0.577246	1.524040
0.577344	1.537460
0.577441	1.541072
0.577539	1.530643
0.577637	1.571335
0.577734	1.613240
0.577832	1.580862
0.577930	1.542131
0.578027	1.531809
0.578125	1.527389
0.578223	1.552415
0.578320	1.572456
0.578418	1.554111
0.578516	1.539010
0.578613	1.512759
0.578711	1.482028
0.578809	1.457344
0.578906	1.451596
0.579004	1.454801
0.579102	1.441992
0.579199	1.422300
0.579297	1.412532
0.579395	1.412431
0.579492	1.419151
0.579590	1.436129
0.579687	1.442944
0.579785	1.450763
0.579883	1.459359
0.579980	1.477958
0.580078	1.486640
0.580176	1.479662
0.580273	1.464317
0.580371	1.443276
0.580469	1.417512
0.580566	1.408053
0.580664	1.422459
0.580762	1.411087
0.580859	1.410790
0.580957	1.406594
0.581055	1.404101
0.581152	1.432504
0.581250	1.457864
0.581348	1.456148
0.581445	1.420848
0.581543	1.369670
0.581641	1.326278
0.581738	1.331408
0.581836	1.343682
0.581934	1.314742
0.582031	1.351998
0.582129	1.400284
0.582227	1.390505
0.582324	1.413019
0.582422	1.415029
0.582520	1.445207
0.582617	1.499612
0.582715	1.552652
0.582812	1.532097
0.582910	1.521308
0.583008	1.479504
0.583105	1.480044
0.583203	1.438473
0.583301	1.415768
0.583398	1.453789
0.583496	1.460672
0.583594	1.494824
0.583691	1.506133
0.583789	1.553616
0.583887	1.582026
0.583984	1.572453
0.584082	1.567901
0.584180	1.580130
0.584277	1.586148
0.584375	1.596376
0.584473	1.602758
0.584570	1.612809
0.584668	1.619618
0.584766	1.630857
0.584863	1.639088
0.584961	1.652133
0.585059	1.653600
0.585156	1.656970
0.585254	1.663090
0.585352	1.651001
0.585449	1.662162
0.585547	1.654936
0.585645	1.636212
0.585742	1.616045
0.585840	1.596492
0.585937	1.591929
0.586035	1.582098
0.586133	1.583642
0.586230	1.587455
0.586328	1.567227
0.586426	1.554228
0.586523	1.561718
0.586621	1.564582
0.586719	1.569581
0.586816	1.554207
0.586914	1.536847
0.587012	1.573946
0.587109	1.567626
0.587207	1.584552
0.587305	1.585232
0.587402	1.581999
0.587500	1.570753
0.587598	1.589836
0.587695	1.612305
0.587793	1.604063
0.587891	1.571741
0.587988	1.554652
0.588086	1.552990
0.588184	1.535278
0.588281	1.529057
0.588379	1.559695
0.588477	1.583981
0.588574	1.584956
0.588672	1.586334
0.588770	1.580577
0.588867	1.564733
0.588965	1.519105
0.589062	1.491921
0.589160	1.486273
0.589258	1.467974
0.589355	1.413444
0.589453	1.349687
0.589551	1.308359
0.589648	1.281748
0.589746	1.270210
0.589844	1.283155
0.589941	1.298218
0.590039	1.318260
0.590137	1.327364
0.590234	1.314909
0.590332	1.302027
0.590430	1.323416
0.590527	1.352313
0.590625	1.335784
0.590723	1.296763
0.590820	1.278588
0.590918	1.276447
0.591016	1.294459
0.591113	1.374864
0.591211	1.442003
0.591309	1.470338
0.591406	1.534033
0.591504	1.513260
0.591602	1.448443
0.591699	1.430182
0.591797	1.418246
0.591895	1.400607
0.591992	1.388799
0.592090	1.383451
0.592187	1.416980
0.592285	1.406376
0.592383	1.417656
0.592480	1.423175
0.592578	1.405148
0.592676	1.437865
0.592773	1.525919
0.592871	1.543248
0.592969	1.541851
0.593066	1.554191
0.593164	1.563850
0.593262	1.553265
0.593359	1.548269
0.593457	1.544079
0.593555	1.519799
0.593652	1.502877
0.593750	1.488738
0.593848	1.485268
0.593945	1.490567
0.594043	1.480875
0.594141	1.461527
0.594238	1.443873
0.594336	1.427545
0.594434	1.429435
0.594531	1.434095
0.594629	1.426877
0.594727	1.411234
0.594824	1.386503
0.594922	1.361945
0.595020	1.331628
0.595117	1.307621
0.595215	1.285957
0.595312	1.269418
0.595410	1.257178
0.595508	1.249966
0.595605	1.247681
0.595703	1.250604
0.595801	1.257037
0.595898	1.266410
0.595996	1.278588
0.596094	1.295056
0.596191	1.315697
0.596289	1.336105
0.596387	1.355673
0.596484	1.374737
0.596582	1.393970
0.596680	1.407669
0.596777	1.411207
0.596875	1.416124
0.596973	1.426809
0.597070	1.440874
0.597168	1.506569
0.597266	1.544473
0.597363	1.554060
0.597461	1.580000
0.597559	1.579230
0.597656	1.569948
0.597754	1.567512
0.597852	1.578707
0.597949	1.582441
0.598047	1.573334
0.598145	1.568155
0.598242	1.543484
0.598340	1.550597
0.598437	1.541572
0.598535	1.547473
0.598633	1.551915
0.598730	1.567452
0.598828	1.590495
0.598926	1.655144
0.599023	1.638232
0.599121	1.602654
0.599219	1.549007
0.599316	1.529112
0.599414	1.563404
0.599512	1.599367
0.599609	1.596217
0.599707	1.585454
0.599805	1.573144
0.599902	1.558021
0.600000	1.563585
0.600098	1.562524
0.600195	1.569583
0.600293	1.568316
0.600391	1.595039
0.600488	1.625339
0.600586	1.608319
0.600684	1.592416
0.600781	1.603185
0.600879	1.577333
0.600977	1.573674
0.601074	1.551063
0.601172	1.564896
0.601270	1.549035
0.601367	1.512219
0.601465	1.451871
0.601562	1.459779
0.601660	1.464868
0.601758	1.423583
0.601855	1.369308
0.601953	1.354971
0.602051	1.398449
0.602148	1.396522
0.602246	1.402136
0.602344	1.381750
0.602441	1.370485
0.602539	1.402248
0.602637	1.423369
0.602734	1.434802
0.602832	1.437106
0.602930	1.433272
0.603027	1.439611
0.603125	1.433113
0.603223	1.412293
0.603320	1.377376
0.603418	1.349884
0.603516	1.352403
0.603613	1.377142
0.603711	1.389457
0.603809	1.399846
0.603906	1.393450
0.604004	1.372891
0.604102	1.365680
0.604199	1.388136
0.604297	1.427190
0.604395	1.461047
0.604492	1.468219
0.604590	1.470621
0.604687	1.470466
0.604785	1.453613
0.604883	1.449549
0.604980	1.479562
0.605078	1.548511
0.605176	1.548715
0.605273	1.524830
0.605371	1.534402
0.605469	1.523711
0.605566	1.514016
0.605664	1.520594
0.605762	1.540761
0.605859	1.556007
0.605957	1.536630
0.606055	1.501888
0.606152	1.504698
0.606250	1.494542
0.606348	1.504521
0.606445	1.560560
0.606543	1.591027
0.606641	1.557523
0.606738	1.534645
0.606836	1.537425
0.606934	1.526073
0.607031	1.519874
0.607129	1.476615
0.607227	1.483750
0.607324	1.481911
0.607422	1.486846
0.607520	1.492344
0.607617	1.465737
0.607715	1.465176
0.607812	1.464805
0.607910	1.486591
0.608008	1.498619
0.608105	1.509181
0.608203	1.497849
0.608301	1.466472
0.608398	1.435827
0.608496	1.416909
0.608594	1.410162
0.608691	1.405733
0.608789	1.411085
0.608887	1.418266
0.608984	1.418403
0.609082	1.404061
0.609180	1.380410
0.609277	1.370328
0.609375	1.391789
0.609473	1.407517
0.609570	1.414050
0.609668	1.434169
0.609766	1.433591
0.609863	1.427708
0.609961	1.428468
0.610059	1.412225
0.610156	1.393075
0.610254	1.367986
0.610352	1.380289
0.610449	1.403563
0.610547	1.421332
0.610645	1.412019
0.610742	1.378142
0.610840	1.350602
0.610937	1.336841
0.611035	1.340212
0.611133	1.323888
0.611230	1.304835
0.611328	1.303071
0.611426	1.315293
0.611523	1.321805
0.611621	1.315914
0.611719	1.330181
0.611816	1.376695
0.611914	1.406362
0.612012	1.421530
0.612109	1.428333
0.612207	1.433211
0.612305	1.431431
0.612402	1.425440
0.612500	1.428585
0.612598	1.449960
0.612695	1.473316
0.612793	1.484313
0.612891	1.491926
0.612988	1.485834
0.613086	1.451705
0.613184	1.420886
0.613281	1.415845
0.613379	1.450820
0.613477	1.477657
0.613574	1.484978
0.613672	1.485068
0.613770	1.501418
0.613867	1.517038
0.613965	1.539621
0.614062	1.550556
0.614160	1.539388
0.614258	1.503098
0.614355	1.506121
0.614453	1.525968
0.614551	1.516361
0.614648	1.535516
0.614746	1.556411
0.614844	1.537365
0.614941	1.539483
0.615039	1.551445
0.615137	1.561949
0.615234	1.568452
0.615332	1.545568
0.615430	1.554423
0.615527	1.563597
0.615625	1.588624
0.615723	1.617518
0.615820	1.595372
0.615918	1.528452
0.616016	1.499691
0.616113	1.469768
0.616211	1.538751
0.616309	1.537334
0.616406	1.538498
0.616504	1.490125
0.616602	1.491815
0.616699	1.552277
0.616797	1.485381
0.616895	1.432449
0.616992	1.377190
0.617090	1.337068
0.617187	1.296713
0.617285	1.338585
0.617383	1.376069
0.617480	1.475450
0.617578	1.474858
0.617676	1.402814
0.617773	1.431556
0.617871	1.424292
0.617969	1.418461
0.618066	1.428119
0.618164	1.462193
0.618262	1.438665
0.618359	1.392209
0.618457	1.398730
0.618555	1.408415
0.618652	1.350408
0.618750	1.347736
0.618848	1.355772
0.618945	1.326792
0.619043	1.311242
0.619141	1.298541
0.619238	1.331337
0.619336	1.356602
0.619434	1.376022
0.619531	1.387673
0.619629	1.391246
0.619727	1.415338
0.619824	1.446804
0.619922	1.459571
0.620020	1.468566
0.620117	1.447205
0.620215	1.427412
0.620312	1.480400
0.620410	1.506790
0.620508	1.513903
0.620605	1.482820
0.620703	1.453129
0.620801	1.483031
0.620898	1.460679
0.620996	1.473789
0.621094	1.508799
0.621191	1.508618
0.621289	1.506762
0.621387	1.499214
0.621484	1.499943
0.621582	1.509635
0.621680	1.518890
0.621777	1.504815
0.621875	1.485263
0.621973	1.469618
0.622070	1.459624
0.622168	1.462206
0.622266	1.491612
0.622363	1.533040
0.622461	1.517729
0.622559	1.497919
0.622656	1.502599
0.622754	1.507603
0.622852	1.539439
0.622949	1.544879
0.623047	1.569019
0.623145	1.577105
0.623242	1.546279
0.623340	1.534257
0.623437	1.502876
0.623535	1.507955
0.623633	1.548988
0.623730	1.540285
0.623828	1.526568
0.623926	1.520074
0.624023	1.512331
0.624121	1.492711
0.624219	1.492253
0.624316	1.501642
0.624414	1.508833
0.624512	1.510356
0.624609	1.491455
0.624707	1.471941
0.624805	1.458291
0.624902	1.465271
0.625000	1.453623
0.625098	1.428482
0.625195	1.427769
0.625293	1.455511
0.625391	1.480122
0.625488	1.507342
0.625586	1.533797
0.625684	1.537110
0.625781	1.532315
0.625879	1.536376
0.625977	1.554791
0.626074	1.552301
0.626172	1.513468
0.626270	1.461759
0.626367	1.417352
0.626465	1.382682
0.626562	1.351459
0.626660	1.322575
0.626758	1.291746
0.626855	1.263519
0.626953	1.237885
0.627051	1.235702
0.627148	1.278546
0.627246	1.382155
0.627344	1.430329
0.627441	1.464386
0.627539	1.545529
0.627637	1.572732
0.627734	1.607727
0.627832	1.660281
0.627930	1.652116
0.628027	1.620862
0.628125	1.579104
0.628223	1.533890
0.628320	1.503211
0.628418	1.496698
0.628516	1.503076
0.628613	1.526335
0.628711	1.538565
0.628809	1.547909
0.628906	1.554324
0.629004	1.562483
0.629102	1.571056
0.629199	1.584053
0.629297	1.596036
0.629395	1.612206
0.629492	1.624995
0.629590	1.621612
0.629687	1.620746
0.629785	1.624156
0.629883	1.621557
0.629980	1.623316
0.630078	1.623597
0.630176	1.610463
0.630273	1.609476
0.630371	1.622243
0.630469	1.605787
0.630566	1.602720
0.630664	1.598236
0.630762	1.561368
0.630859	1.539899
0.630957	1.526002
0.631055	1.503507
0.631152	1.497756
0.631250	1.508926
0.631348	1.493412
0.631445	1.472766
0.631543	1.450912
0.631641	1.440854
0.631738	1.461552
0.631836	1.485079
0.631934	1.443698
0.632031	1.438512
0.632129	1.476240
0.632227	1.529179
0.632324	1.543635
0.632422	1.546478
0.632520	1.538442
0.632617	1.536213
0.632715	1.560926
0.632812	1.546343
0.632910	1.509484
0.633008	1.512934
0.633105	1.517070
0.633203	1.473770
0.633301	1.502473
0.633398	1.538796
0.633496	1.500671
0.633594	1.494812
0.633691	1.478832
0.633789	1.519393
0.633887	1.569460
0.633984	1.560768
0.634082	1.563173
0.634180	1.567559
0.634277	1.574906
0.634375	1.581781
0.634473	1.568953
0.634570	1.578606
0.634668	1.587544
0.634766	1.573703
0.634863	1.558519
0.634961	1.546329
0.635059	1.531557
0.635156	1.540562
0.635254	1.549335
0.635352	1.558879
0.635449	1.563662
0.635547	1.575903
0.635645	1.559971
0.635742	1.570934
0.635840	1.562544
0.635937	1.561063
0.636035	1.584439
0.636133	1.588776
0.636230	1.582132
0.636328	1.557119
0.636426	1.552597
0.636523	1.551737
0.636621	1.561777
0.636719	1.570122
0.636816	1.583619
0.636914	1.577360
0.637012	1.562083
0.637109	1.543507
0.637207	1.533481
0.637305	1.530723
0.637402	1.523758
0.637500	1.543133
0.637598	1.564384
0.637695	1.552526
0.637793	1.556204
0.637891	1.584793
0.637988	1.567953
0.638086	1.557037
0.638184	1.529062
0.638281	1.536118
0.638379	1.532183
0.638477	1.511138
0.638574	1.508785
0.638672	1.516833
0.638770	1.538323
0.638867	1.549725
0.638965	1.551721
0.639062	1.532541
0.639160	1.552457
0.639258	1.555557
0.639355	1.568514
0.639453	1.589177
0.639551	1.583774
0.639648	1.565055
0.639746	1.541542
0.639844	1.511837
0.639941	1.484980
0.640039	1.488913
0.640137	1.495107
0.640234	1.502164
0.640332	1.521314
0.640430	1.532092
0.640527	1.541334
0.640625	1.539349
0.640723	1.546767
0.640820	1.566630
0.640918	1.554148
0.641016	1.532837
0.641113	1.523382
0.641211	1.517883
0.641309	1.528252
0.641406	1.559771
0.641504	1.550896
0.641602	1.545389
0.641699	1.514473
0.641797	1.510238
0.641895	1.522078
0.641992	1.513897
0.642090	1.497850
0.642187	1.483815
0.642285	1.482294
0.642383	1.481984
0.642480	1.484260
0.642578	1.488683
0.642676	1.487430
0.642773	1.469820
0.642871	1.446976
0.642969	1.413151
0.643066	1.379910
0.643164	1.374968
0.643262	1.398564
0.643359	1.431018
0.643457	1.443145
0.643555	1.442449
0.643652	1.427790
0.643750	1.401926
0.643848	1.390755
0.643945	1.383391
0.644043	1.347816
0.644141	1.327711
0.644238	1.304786
0.644336	1.288915
0.644434	1.303648
0.644531	1.330590
0.644629	1.333586
0.644727	1.373833
0.644824	1.448166
0.644922	1.491269
0.645020	1.511623
0.645117	1.512249
0.645215	1.525238
0.645312	1.538444
0.645410	1.553812
0.645508	1.565719
0.645605	1.579929
0.645703	1.591320
0.645801	1.604841
0.645898	1.614848
0.645996	1.624591
0.646094	1.626287
0.646191	1.630429
0.646289	1.627117
0.646387	1.634520
0.646484	1.596139
0.646582	1.554135
0.646680	1.553623
0.646777	1.539962
0.646875	1.562908
0.646973	1.540111
0.647070	1.534815
0.647168	1.608955
0.647266	1.626796
0.647363	1.575390
0.647461	1.606398
0.647559	1.591914
0.647656	1.566342
0.647754	1.592299
0.647852	1.584849
0.647949	1.593615
0.648047	1.600179
0.648145	1.637638
0.648242	1.640984
0.648340	1.626919
0.648437	1.599204
0.648535	1.620540
0.648633	1.572817
0.648730	1.584286
0.648828	1.634100
0.648926	1.581119
0.649023	1.492593
0.649121	1.428787
0.649219	1.491895
0.649316	1.524156
0.649414	1.561267
0.649512	1.559362
0.649609	1.478333
0.649707	1.371296
0.649805	1.338595
0.649902	1.361495
0.650000	1.371535
0.650098	1.381064
0.650195	1.397979
0.650293	1.426670
0.650391	1.448629
0.650488	1.452673
0.650586	1.471464
0.650684	1.465108
0.650781	1.426390
0.650879	1.382550
0.650977	1.333091
0.651074	1.332971
0.651172	1.332214
0.651270	1.322792
0.651367	1.321040
0.651465	1.318174
0.651562	1.319531
0.651660	1.350772
0.651758	1.371696
0.651855	1.380784
0.651953	1.394207
0.652051	1.386178
0.652148	1.357665
0.652246	1.365515
0.652344	1.443698
0.652441	1.437871
0.652539	1.417855
0.652637	1.435088
0.652734	1.412393
0.652832	1.375303
0.652930	1.364305
0.653027	1.442844
0.653125	1.439091
0.653223	1.451219
0.653320	1.507745
0.653418	1.447640
0.653516	1.394481
0.653613	1.425088
0.653711	1.391486
0.653809	1.403218
0.653906	1.391517
0.654004	1.381825
0.654102	1.399050
0.654199	1.409305
0.654297	1.396280
0.654395	1.406053
0.654492	1.406682
0.654590	1.399586
0.654687	1.396296
0.654785	1.400799
0.654883	1.400524
0.654980	1.396624
0.655078	1.404016
0.655176	1.436160
0.655273	1.456845
0.655371	1.477035
0.655469	1.508559
0.655566	1.512040
0.655664	1.533980
0.655762	1.562453
0.655859	1.544004
0.655957	1.506140
0.656055	1.507389
0.656152	1.519726
0.656250	1.518222
0.656348	1.509142
0.656445	1.489889
0.656543	1.473152
0.656641	1.453415
0.656738	1.437249
0.656836	1.420593
0.656934	1.385307
0.657031	1.350353
0.657129	1.333746
0.657227	1.347401
0.657324	1.345814
0.657422	1.325453
0.657520	1.314584
0.657617	1.340248
0.657715	1.374109
0.657812	1.389952
0.657910	1.400832
0.658008	1.413695
0.658105	1.419496
0.658203	1.426581
0.658301	1.436077
0.658398	1.448785
0.658496	1.462541
0.658594	1.453295
0.658691	1.446920
0.658789	1.441752
0.658887	1.418439
0.658984	1.392917
0.659082	1.394379
0.659180	1.393100
0.659277	1.387418
0.659375	1.379280
0.659473	1.384284
0.659570	1.363859
0.659668	1.335045
0.659766	1.336868
0.659863	1.342876
0.659961	1.439233
0.660059	1.486139
0.660156	1.469110
0.660254	1.492140
0.660352	1.529393
0.660449	1.501402
0.660547	1.507098
0.660645	1.490121
0.660742	1.480711
0.660840	1.500003
0.660937	1.527874
0.661035	1.517841
0.661133	1.511997
0.661230	1.578944
0.661328	1.608932
0.661426	1.618046
0.661523	1.609342
0.661621	1.597275
0.661719	1.589953
0.661816	1.586756
0.661914	1.586945
0.662012	1.589200
0.662109	1.593184
0.662207	1.597280
0.662305	1.600117
0.662402	1.600280
0.662500	1.603716
0.662598	1.608068
0.662695	1.607241
0.662793	1.609339
0.662891	1.612234
0.662988	1.615028
0.663086	1.616739
0.663184	1.621979
0.663281	1.645416
0.663379	1.677267
0.663477	1.652938
0.663574	1.631496
0.663672	1.640152
0.663770	1.658364
0.663867	1.642875
0.663965	1.671428
0.664062	1.659779
0.664160	1.625614
0.664258	1.638327
0.664355	1.601920
0.664453	1.604105
0.664551	1.614416
0.664648	1.598870
0.664746	1.547635
0.664844	1.545491
0.664941	1.553932
0.665039	1.533891
0.665137	1.528485
0.665234	1.545201
0.665332	1.563364
0.665430	1.516777
0.665527	1.442031
0.665625	1.429806
0.665723	1.464493
0.665820	1.516881
0.665918	1.532427
0.666016	1.507499
0.666113	1.499557
0.666211	1.491350
0.666309	1.539496
0.666406	1.566324
0.666504	1.555481
0.666602	1.519346
0.666699	1.455147
0.666797	1.399698
0.666895	1.423877
0.666992	1.467401
0.667090	1.485366
0.667187	1.513498
0.667285	1.517408
0.667383	1.511497
0.667480	1.515897
0.667578	1.548858
0.667676	1.535308
0.667773	1.532355
0.667871	1.542740
0.667969	1.562050
0.668066	1.593197
0.668164	1.598218
0.668262	1.572282
0.668359	1.548012
0.668457	1.581357
0.668555	1.616463
0.668652	1.623331
0.668750	1.643648
0.668848	1.614453
0.668945	1.583192
0.669043	1.555607
0.669141	1.585578
0.669238	1.635492
0.669336	1.593543
0.669434	1.605899
0.669531	1.630221
0.669629	1.612921
0.669727	1.583165
0.669824	1.549718
0.669922	1.503643
0.670020	1.484182
0.670117	1.475486
0.670215	1.461419
0.670312	1.410774
0.670410	1.395711
0.670508	1.383222
0.670605	1.425551
0.670703	1.464555
0.670801	1.449880
0.670898	1.416697
0.670996	1.428945
0.671094	1.444514
0.671191	1.434393
0.671289	1.435873
0.671387	1.428856
0.671484	1.427644
0.671582	1.413608
0.671680	1.388138
0.671777	1.350758
0.671875	1.330366
0.671973	1.343569
0.672070	1.359318
0.672168	1.371421
0.672266	1.370615
0.672363	1.363656
0.672461	1.357888
0.672559	1.353082
0.672656	1.352867
0.672754	1.368466
0.672852	1.386978
0.672949	1.384195
0.673047	1.368733
0.673145	1.355979
0.673242	1.351022
0.673340	1.339105
0.673437	1.328344
0.673535	1.327111
0.673633	1.330740
0.673730	1.333217
0.673828	1.335317
0.673926	1.342296
0.674023	1.350238
0.674121	1.362993
0.674219	1.383515
0.674316	1.453151
0.674414	1.506350
0.674512	1.526928
0.674609	1.540718
0.674707	1.555139
0.674805	1.566053
0.674902	1.573983
0.675000	1.583627
0.675098	1.591593
0.675195	1.563486
0.675293	1.553929
0.675391	1.548399
0.675488	1.547568
0.675586	1.545888
0.675684	1.548442
0.675781	1.538804
0.675879	1.511894
0.675977	1.511284
0.676074	1.506748
0.676172	1.502648
0.676270	1.518185
0.676367	1.522595
0.676465	1.540286
0.676562	1.529296
0.676660	1.471464
0.676758	1.393116
0.676855	1.369835
0.676953	1.342721
0.677051	1.324065
0.677148	1.323564
0.677246	1.322629
0.677344	1.313698
0.677441	1.286872
0.677539	1.305831
0.677637	1.340488
0.677734	1.352606
0.677832	1.358665
0.677930	1.339716
0.678027	1.326220
0.678125	1.333530
0.678223	1.349755
0.678320	1.331456
0.678418	1.285849
0.678516	1.271749
0.678613	1.267576
0.678711	1.275481
0.678809	1.285186
0.678906	1.279806
0.679004	1.282781
0.679102	1.313209
0.679199	1.357601
0.679297	1.433732
0.679395	1.482671
0.679492	1.521140
0.679590	1.539442
0.679687	1.493426
0.679785	1.504831
0.679883	1.559522
0.679980	1.548043
0.680078	1.515583
0.680176	1.540218
0.680273	1.547480
0.680371	1.513051
0.680469	1.479911
0.680566	1.509765
0.680664	1.517211
0.680762	1.544314
0.680859	1.593917
0.680957	1.607022
0.681055	1.578821
0.681152	1.603406
0.681250	1.621105
0.681348	1.596986
0.681445	1.571879
0.681543	1.557976
0.681641	1.550151
0.681738	1.560972
0.681836	1.549828
0.681934	1.521493
0.682031	1.459693
0.682129	1.439526
0.682227	1.421963
0.682324	1.388618
0.682422	1.403385
0.682520	1.424667
0.682617	1.441051
0.682715	1.429524
0.682812	1.405655
0.682910	1.390286
0.683008	1.369116
0.683105	1.368730
0.683203	1.395402
0.683301	1.365098
0.683398	1.333276
0.683496	1.291047
0.683594	1.265239
0.683691	1.316082
0.683789	1.377158
0.683887	1.437198
0.683984	1.487523
0.684082	1.504848
0.684180	1.516715
0.684277	1.515664
0.684375	1.510457
0.684473	1.493143
0.684570	1.477132
0.684668	1.458735
0.684766	1.440202
0.684863	1.416286
0.684961	1.398945
0.685059	1.394444
0.685156	1.405929
0.685254	1.432790
0.685352	1.440656
0.685449	1.442782
0.685547	1.448025
0.685645	1.441125
0.685742	1.428919
0.685840	1.415473
0.685937	1.404472
0.686035	1.385249
0.686133	1.366922
0.686230	1.361373
0.686328	1.356051
0.686426	1.345457
0.686523	1.328290
0.686621	1.311945
0.686719	1.296313
0.686816	1.297869
0.686914	1.308368
0.687012	1.307634
0.687109	1.296684
0.687207	1.286273
0.687305	1.279154
0.687402	1.272560
0.687500	1.263433
0.687598	1.251324
0.687695	1.237885
0.687793	1.225562
0.687891	1.216662
0.687988	1.211938
0.688086	1.220531
0.688184	1.254514
0.688281	1.287947
0.688379	1.296942
0.688477	1.308562
0.688574	1.306910
0.688672	1.364370
0.688770	1.463701
0.688867	1.494001
0.688965	1.495984
0.689062	1.490804
0.689160	1.482800
0.689258	1.476483
0.689355	1.468738
0.689453	1.473482
0.689551	1.473779
0.689648	1.486685
0.689746	1.530850
0.689844	1.529199
0.689941	1.627782
0.690039	1.590795
0.690137	1.431548
0.690234	1.449098
0.690332	1.515437
0.690430	1.514028
0.690527	1.519785
0.690625	1.487909
0.690723	1.502631
0.690820	1.540782
0.690918	1.616062
0.691016	1.613215
0.691113	1.587575
0.691211	1.599683
0.691309	1.625719
0.691406	1.632390
0.691504	1.620117
0.691602	1.628516
0.691699	1.604655
0.691797	1.542037
0.691895	1.461805
0.691992	1.468395
0.692090	1.484381
0.692187	1.496090
0.692285	1.469318
0.692383	1.468345
0.692480	1.454350
0.692578	1.452868
0.692676	1.448421
0.692773	1.433510
0.692871	1.436193
0.692969	1.464884
0.693066	1.441792
0.693164	1.408609
0.693262	1.380385
0.693359	1.353396
0.693457	1.385717
0.693555	1.348602
0.693652	1.326668
0.693750	1.309978
0.693848	1.307906
0.693945	1.318617
0.694043	1.303308
0.694141	1.293670
0.694238	1.296169
0.694336	1.318156
0.694434	1.344257
0.694531	1.339254
0.694629	1.322814
0.694727	1.325450
0.694824	1.337094
0.694922	1.403085
0.695020	1.483532
0.695117	1.481063
0.695215	1.531179
0.695312	1.523767
0.695410	1.487011
0.695508	1.475238
0.695605	1.449687
0.695703	1.436876
0.695801	1.480853
0.695898	1.427351
0.695996	1.431160
0.696094	1.486738
0.696191	1.492176
0.696289	1.435215
0.696387	1.382123
0.696484	1.435110
0.696582	1.395551
0.696680	1.419497
0.696777	1.487870
0.696875	1.423541
0.696973	1.419983
0.697070	1.420736
0.697168	1.340907
0.697266	1.392115
0.697363	1.480517
0.697461	1.422944
0.697559	1.454954
0.697656	1.475958
0.697754	1.481932
0.697852	1.459851
0.697949	1.445646
0.698047	1.445391
0.698145	1.466202
0.698242	1.436572
0.698340	1.377257
0.698437	1.432179
0.698535	1.444811
0.698633	1.475420
0.698730	1.481625
0.698828	1.489015
0.698926	1.530956
0.699023	1.526674
0.699121	1.507661
0.699219	1.508599
0.699316	1.542300
0.699414	1.522850
0.699512	1.532463
0.699609	1.498332
0.699707	1.493030
0.699805	1.489619
0.699902	1.528795
0.700000	1.532688
0.700098	1.523773
0.700195	1.516466
0.700293	1.489578
0.700391	1.541491
0.700488	1.508443
0.700586	1.481218
0.700684	1.513511
0.700781	1.530339
0.700879	1.506104
0.700977	1.464446
0.701074	1.434584
0.701172	1.434763
0.701270	1.445748
0.701367	1.446287
0.701465	1.441042
0.701562	1.429189
0.701660	1.417406
0.701758	1.415132
0.701855	1.421896
0.701953	1.415643
0.702051	1.417116
0.702148	1.429128
0.702246	1.455014
0.702344	1.482103
0.702441	1.475630
0.702539	1.405888
0.702637	1.359551
0.702734	1.345617
0.702832	1.317003
0.702930	1.308868
0.703027	1.370004
0.703125	1.398717
0.703223	1.373052
0.703320	1.383205
0.703418	1.410951
0.703516	1.451728
0.703613	1.483861
0.703711	1.519708
0.703809	1.519008
0.703906	1.488697
0.704004	1.485619
0.704102	1.499322
0.704199	1.474896
0.704297	1.457171
0.704395	1.440115
0.704492	1.465414
0.704590	1.496275
0.704687	1.509518
0.704785	1.506113
0.704883	1.493030
0.704980	1.493116
0.705078	1.486185
0.705176	1.467639
0.705273	1.457813
0.705371	1.447733
0.705469	1.437932
0.705566	1.413361
0.705664	1.381264
0.705762	1.339217
0.705859	1.302654
0.705957	1.303216
0.706055	1.292345
0.706152	1.261066
0.706250	1.277339
0.706348	1.328996
0.706445	1.373864
0.706543	1.388965
0.706641	1.423646
0.706738	1.469294
0.706836	1.491760
0.706934	1.513344
0.707031	1.527815
0.707129	1.535317
0.707227	1.541750
0.707324	1.552257
0.707422	1.549834
0.707520	1.554018
0.707617	1.555208
0.707715	1.560985
0.707812	1.566616
0.707910	1.573880
0.708008	1.578624
0.708105	1.584476
0.708203	1.586321
0.708301	1.586705
0.708398	1.573423
0.708496	1.543278
0.708594	1.515205
0.708691	1.489171
0.708789	1.456084
0.708887	1.467187
0.708984	1.512672
0.709082	1.525539
0.709180	1.529613
0.709277	1.532453
0.709375	1.530709
0.709473	1.551641
0.709570	1.536474
0.709668	1.523478
0.709766	1.491409
0.709863	1.475937
0.709961	1.514534
0.710059	1.520372
0.710156	1.515349
0.710254	1.476608
0.710352	1.399983
0.710449	1.385368
0.710547	1.469981
0.710645	1.562000
0.710742	1.554272
0.710840	1.494725
0.710937	1.441208
0.711035	1.445541
0.711133	1.454131
0.711230	1.433472
0.711328	1.473692
0.711426	1.539012
0.711523	1.575249
0.711621	1.607110
0.711719	1.542134
0.711816	1.509264
0.711914	1.455743
0.712012	1.441989
0.712109	1.473130
0.712207	1.510885
0.712305	1.523417
0.712402	1.560370
0.712500	1.563626
0.712598	1.533877
0.712695	1.542646
0.712793	1.547089
0.712891	1.559735
0.712988	1.549958
0.713086	1.500428
0.713184	1.450597
0.713281	1.451707
0.713379	1.455693
0.713477	1.489021
0.713574	1.491480
0.713672	1.464773
0.713770	1.492874
0.713867	1.475547
0.713965	1.413455
0.714062	1.374680
0.714160	1.406648
0.714258	1.337823
0.714355	1.291854
0.714453	1.343169
0.714551	1.371868
0.714648	1.358972
0.714746	1.336252
0.714844	1.354722
0.714941	1.351251
0.715039	1.371814
0.715137	1.351492
0.715234	1.390525
0.715332	1.468341
0.715430	1.464529
0.715527	1.502489
0.715625	1.431591
0.715723	1.452001
0.715820	1.493734
0.715918	1.470012
0.716016	1.455279
0.716113	1.510866
0.716211	1.542694
0.716309	1.527304
0.716406	1.503971
0.716504	1.500178
0.716602	1.482168
0.716699	1.492899
0.716797	1.527340
0.716895	1.503389
0.716992	1.473342
0.717090	1.499817
0.717187	1.532712
0.717285	1.555472
0.717383	1.549684
0.717480	1.545512
0.717578	1.594106
0.717676	1.608637
0.717773	1.559725
0.717871	1.511710
0.717969	1.485549
0.718066	1.470515
0.718164	1.459261
0.718262	1.477226
0.718359	1.508464
0.718457	1.534540
0.718555	1.488922
0.718652	1.470091
0.718750	1.467741
0.718848	1.450815
0.718945	1.432151
0.719043	1.419858
0.719141	1.416687
0.719238	1.370086
0.719336	1.414903
0.719434	1.510615
0.719531	1.529190
0.719629	1.512200
0.719727	1.496485
0.719824	1.488855
0.719922	1.481175
0.720020	1.461043
0.720117	1.421755
0.720215	1.372906
0.720312	1.344778
0.720410	1.325391
0.720508	1.306262
0.720605	1.294575
0.720703	1.297172
0.720801	1.299751
0.720898	1.288817
0.720996	1.282840
0.721094	1.276641
0.721191	1.285041
0.721289	1.282522
0.721387	1.342014
0.721484	1.376296
0.721582	1.347794
0.721680	1.328639
0.721777	1.284747
0.721875	1.271471
0.721973	1.288737
0.722070	1.300393
0.722168	1.261529
0.722266	1.331631
0.722363	1.418252
0.722461	1.477283
0.722559	1.551962
0.722656	1.595322
0.722754	1.601573
0.722852	1.576204
0.722949	1.562166
0.723047	1.590984
0.723145	1.542482
0.723242	1.508713
0.723340	1.599205
0.723437	1.605621
0.723535	1.630266
0.723633	1.609829
0.723730	1.528118
0.723828	1.516168
0.723926	1.542826
0.724023	1.578891
0.724121	1.481632
0.724219	1.522223
0.724316	1.631357
0.724414	1.591235
0.724512	1.612360
0.724609	1.610379
0.724707	1.614215
0.724805	1.571030
0.724902	1.546290
0.725000	1.548875
0.725098	1.554510
0.725195	1.524975
0.725293	1.532787
0.725391	1.530217
0.725488	1.532634
0.725586	1.551778
0.725684	1.526862
0.725781	1.529134
0.725879	1.584088
0.725977	1.575516
0.726074	1.572879
0.726172	1.584404
0.726270	1.567067
0.726367	1.559976
0.726465	1.544311
0.726562	1.469364
0.726660	1.414904
0.726758	1.391846
0.726855	1.401164
0.726953	1.420792
0.727051	1.420678
0.727148	1.379836
0.727246	1.385067
0.727344	1.400080
0.727441	1.446687
0.727539	1.479665
0.727637	1.454740
0.727734	1.438617
0.727832	1.419335
0.727930	1.399135
0.728027	1.411584
0.728125	1.467505
0.728223	1.511146
0.728320	1.543369
0.728418	1.533940
0.728516	1.524314
0.728613	1.575159
0.728711	1.575518
0.728809	1.585088
0.728906	1.609905
0.729004	1.623585
0.729102	1.642804
0.729199	1.668583
0.729297	1.612506
0.729395	1.597036
0.729492	1.578692
0.729590	1.577367
0.729687	1.577573
0.729785	1.566571
0.729883	1.587156
0.729980	1.581545
0.730078	1.597231
0.730176	1.592090
0.730273	1.592298
0.730371	1.611323
0.730469	1.571457
0.730566	1.576470
0.730664	1.581963
0.730762	1.608041
0.730859	1.624954
0.730957	1.594488
0.731055	1.570849
0.731152	1.558249
0.731250	1.552023
0.731348	1.560485
0.731445	1.572308
0.731543	1.609613
0.731641	1.593465
0.731738	1.590213
0.731836	1.593466
0.731934	1.571025
0.732031	1.552633
0.732129	1.532423
0.732227	1.527627
0.732324	1.505797
0.732422	1.485835
0.732520	1.488259
0.732617	1.488712
0.732715	1.474595
0.732812	1.453659
0.732910	1.438402
0.733008	1.427082
0.733105	1.423447
0.733203	1.422270
0.733301	1.414704
0.733398	1.409145
0.733496	1.408498
0.733594	1.421382
0.733691	1.416805
0.733789	1.403164
0.733887	1.418414
0.733984	1.386081
0.734082	1.332997
0.734180	1.335618
0.734277	1.349564
0.734375	1.336416
0.734473	1.314792
0.734570	1.286967
0.734668	1.276374
0.734766	1.272989
0.734863	1.307554
0.734961	1.388119
0.735059	1.434805
0.735156	1.449131
0.735254	1.459548
0.735352	1.495942
0.735449	1.534087
0.735547	1.571168
0.735645	1.578618
0.735742	1.555570
0.735840	1.513777
0.735937	1.452711
0.736035	1.382478
0.736133	1.339834
0.736230	1.443450
0.736328	1.557954
0.736426	1.525835
0.736523	1.556334
0.736621	1.608735
0.736719	1.580861
0.736816	1.510939
0.736914	1.408427
0.737012	1.475170
0.737109	1.392349
0.737207	1.507766
0.737305	1.567733
0.737402	1.535219
0.737500	1.594723
0.737598	1.545330
0.737695	1.608785
0.737793	1.622989
0.737891	1.618402
0.737988	1.637760
0.738086	1.656922
0.738184	1.664653
0.738281	1.627989
0.738379	1.611139
0.738477	1.632090
0.738574	1.656816
0.738672	1.652621
0.738770	1.656879
0.738867	1.650754
0.738965	1.596294
0.739062	1.593619
0.739160	1.624846
0.739258	1.633099
0.739355	1.599004
0.739453	1.583879
0.739551	1.582680
0.739648	1.559244
0.739746	1.579235
0.739844	1.579241
0.739941	1.561363
0.740039	1.559966
0.740137	1.571645
0.740234	1.533390
0.740332	1.483197
0.740430	1.466833
0.740527	1.453645
0.740625	1.484742
0.740723	1.476929
0.740820	1.504366
0.740918	1.540897
0.741016	1.506818
0.741113	1.487130
0.741211	1.478269
0.741309	1.466516
0.741406	1.433979
0.741504	1.455247
0.741602	1.434791
0.741699	1.496865
0.741797	1.528323
0.741895	1.472835
0.741992	1.452345
0.742090	1.427851
0.742187	1.407633
0.742285	1.413668
0.742383	1.422368
0.742480	1.418093
0.742578	1.433004
0.742676	1.413138
0.742773	1.394967
0.742871	1.357229
0.742969	1.329959
0.743066	1.307728
0.743164	1.337099
0.743262	1.365700
0.743359	1.393776
0.743457	1.407710
0.743555	1.412780
0.743652	1.409710
0.743750	1.383720
0.743848	1.375197
0.743945	1.423823
0.744043	1.437593
0.744141	1.421355
0.744238	1.460371
0.744336	1.469224
0.744434	1.430032
0.744531	1.383741
0.744629	1.359875
0.744727	1.336847
0.744824	1.324088
0.744922	1.318707
0.745020	1.353762
0.745117	1.410660
0.745215	1.446248
0.745312	1.465174
0.745410	1.461911
0.745508	1.444680
0.745605	1.450992
0.745703	1.455416
0.745801	1.456604
0.745898	1.485654
0.745996	1.500655
0.746094	1.476912
0.746191	1.438424
0.746289	1.412249
0.746387	1.376543
0.746484	1.345314
0.746582	1.345521
0.746680	1.350138
0.746777	1.363693
0.746875	1.380101
0.746973	1.397253
0.747070	1.402208
0.747168	1.406448
0.747266	1.402388
0.747363	1.394798
0.747461	1.386317
0.747559	1.352029
0.747656	1.310314
0.747754	1.304897
0.747852	1.300115
0.747949	1.283084
0.748047	1.300728
0.748145	1.354736
0.748242	1.388759
0.748340	1.397118
0.748437	1.398305
0.748535	1.445593
0.748633	1.441145
0.748730	1.446413
0.748828	1.469678
0.748926	1.489754
0.749023	1.512209
0.749121	1.470285
0.749219	1.516005
0.749316	1.539624
0.749414	1.524473
0.749512	1.559248
0.749609	1.548505
0.749707	1.570580
0.749805	1.562225
0.749902	1.562315
0.750000	1.566455
0.750098	1.571555
0.750195	1.577707
0.750293	1.584109
0.750391	1.587448
0.750488	1.589166
0.750586	1.570175
0.750684	1.568680
0.750781	1.536715
0.750879	1.523941
0.750977	1.512325
0.751074	1.498254
0.751172	1.486951
0.751270	1.494809
0.751367	1.511268
0.751465	1.462808
0.751562	1.455119
0.751660	1.469189
0.751758	1.434996
0.751855	1.443617
0.751953	1.491756
0.752051	1.455604
0.752148	1.483308
0.752246	1.499489
0.752344	1.424128
0.752441	1.398897
0.752539	1.398651
0.752637	1.426355
0.752734	1.486104
0.752832	1.450970
0.752930	1.368734
0.753027	1.365972
0.753125	1.348806
0.753223	1.359959
0.753320	1.451429
0.753418	1.444321
0.753516	1.425385
0.753613	1.404392
0.753711	1.419931
0.753809	1.345354
0.753906	1.319116
0.754004	1.347830
0.754102	1.337440
0.754199	1.333747
0.754297	1.403377
0.754395	1.426468
0.754492	1.413435
0.754590	1.366137
0.754687	1.401738
0.754785	1.446710
0.754883	1.409739
0.754980	1.365160
0.755078	1.389586
0.755176	1.420706
0.755273	1.409827
0.755371	1.360821
0.755469	1.329032
0.755566	1.387583
0.755664	1.455137
0.755762	1.472361
0.755859	1.455053
0.755957	1.426247
0.756055	1.390513
0.756152	1.367604
0.756250	1.364707
0.756348	1.353598
0.756445	1.367671
0.756543	1.393083
0.756641	1.411835
0.756738	1.410756
0.756836	1.389097
0.756934	1.339688
0.757031	1.305482
0.757129	1.349466
0.757227	1.388430
0.757324	1.393745
0.757422	1.436805
0.757520	1.436551
0.757617	1.463497
0.757715	1.483471
0.757812	1.459131
0.757910	1.437856
0.758008	1.432908
0.758105	1.427026
0.758203	1.405776
0.758301	1.359074
0.758398	1.339307
0.758496	1.312502
0.758594	1.298852
0.758691	1.317322
0.758789	1.323681
0.758887	1.370658
0.758984	1.402191
0.759082	1.380556
0.759180	1.375012
0.759277	1.386306
0.759375	1.455068
0.759473	1.500484
0.759570	1.518818
0.759668	1.523299
0.759766	1.545084
0.759863	1.565580
0.759961	1.549720
0.760059	1.543739
0.760156	1.510468
0.760254	1.508695
0.760352	1.522833
0.760449	1.508655
0.760547	1.509167
0.760645	1.511102
0.760742	1.505631
0.760840	1.492081
0.760937	1.486856
0.761035	1.471505
0.761133	1.469365
0.761230	1.476002
0.761328	1.466055
0.761426	1.457379
0.761523	1.477163
0.761621	1.463716
0.761719	1.433543
0.761816	1.412994
0.761914	1.411309
0.762012	1.400920
0.762109	1.414124
0.762207	1.500632
0.762305	1.526173
0.762402	1.519916
0.762500	1.501720
0.762598	1.479331
0.762695	1.466237
0.762793	1.455064
0.762891	1.454172
0.762988	1.457234
0.763086	1.465798
0.763184	1.443975
0.763281	1.441234
0.763379	1.455915
0.763477	1.465453
0.763574	1.474441
0.763672	1.466777
0.763770	1.454458
0.763867	1.437504
0.763965	1.434385
0.764062	1.461587
0.764160	1.483986
0.764258	1.503735
0.764355	1.503718
0.764453	1.498204
0.764551	1.487535
0.764648	1.473074
0.764746	1.472008
0.764844	1.484722
0.764941	1.511660
0.765039	1.497094
0.765137	1.459046
0.765234	1.463467
0.765332	1.473631
0.765430	1.463896
0.765527	1.445579
0.765625	1.439888
0.765723	1.486411
0.765820	1.541636
0.765918	1.520838
0.766016	1.503730
0.766113	1.496712
0.766211	1.485056
0.766309	1.491420
0.766406	1.497566
0.766504	1.526424
0.766602	1.538429
0.766699	1.520898
0.766797	1.463601
0.766895	1.441837
0.766992	1.448546
0.767090	1.468463
0.767187	1.411542
0.767285	1.406111
0.767383	1.452456
0.767480	1.450021
0.767578	1.454021
0.767676	1.430732
0.767773	1.449131
0.767871	1.466785
0.767969	1.428422
0.768066	1.410992
0.768164	1.400923
0.768262	1.428302
0.768359	1.459452
0.768457	1.466689
0.768555	1.503116
0.768652	1.500991
0.768750	1.503277
0.768848	1.500429
0.768945	1.486857
0.769043	1.482070
0.769141	1.466940
0.769238	1.425186
0.769336	1.398242
0.769434	1.397332
0.769531	1.401130
0.769629	1.402865
0.769727	1.404322
0.769824	1.401940
0.769922	1.387103
0.770020	1.373474
0.770117	1.361984
0.770215	1.343990
0.770312	1.321667
0.770410	1.301097
0.770508	1.292730
0.770605	1.299152
0.770703	1.323097
0.770801	1.356824
0.770898	1.398360
0.770996	1.392309
0.771094	1.365647
0.771191	1.406934
0.771289	1.457248
0.771387	1.433716
0.771484	1.407280
0.771582	1.420297
0.771680	1.422835
0.771777	1.441117
0.771875	1.485478
0.771973	1.448518
0.772070	1.492048
0.772168	1.515890
0.772266	1.537792
0.772363	1.543233
0.772461	1.522219
0.772559	1.465260
0.772656	1.438665
0.772754	1.416441
0.772852	1.374992
0.772949	1.371901
0.773047	1.377666
0.773145	1.382389
0.773242	1.392958
0.773340	1.412215
0.773437	1.432445
0.773535	1.421902
0.773633	1.360746
0.773730	1.304350
0.773828	1.294918
0.773926	1.296371
0.774023	1.327516
0.774121	1.393854
0.774219	1.400020
0.774316	1.409130
0.774414	1.430867
0.774512	1.442229
0.774609	1.445347
0.774707	1.475944
0.774805	1.456570
0.774902	1.402834
0.775000	1.340434
0.775098	1.345075
0.775195	1.362443
0.775293	1.296399
0.775391	1.299827
0.775488	1.346594
0.775586	1.409106
0.775684	1.442432
0.775781	1.508047
0.775879	1.568528
0.775977	1.624395
0.776074	1.584809
0.776172	1.560298
0.776270	1.544709
0.776367	1.583658
0.776465	1.606167
0.776562	1.579882
0.776660	1.537090
0.776758	1.534118
0.776855	1.513449
0.776953	1.526510
0.777051	1.577891
0.777148	1.561300
0.777246	1.497492
0.777344	1.473793
0.777441	1.488567
0.777539	1.498405
0.777637	1.489761
0.777734	1.483737
0.777832	1.478427
0.777930	1.499550
0.778027	1.562482
0.778125	1.572657
0.778223	1.594352
0.778320	1.594092
0.778418	1.624037
0.778516	1.602828
0.778613	1.610779
0.778711	1.612008
0.778809	1.625122
0.778906	1.653458
0.779004	1.630203
0.779102	1.666957
0.779199	1.559317
0.779297	1.508147
0.779395	1.531069
0.779492	1.492806
0.779590	1.411862
0.779687	1.404903
0.779785	1.471578
0.779883	1.481577
0.779980	1.452183
0.780078	1.549571
0.780176	1.610655
0.780273	1.589576
0.780371	1.636588
0.780469	1.648663
0.780566	1.643449
0.780664	1.638128
0.780762	1.616337
0.780859	1.577894
0.780957	1.546094
0.781055	1.521567
0.781152	1.502797
0.781250	1.531900
0.781348	1.483906
0.781445	1.507955
0.781543	1.530751
0.781641	1.507112
0.781738	1.532314
0.781836	1.521815
0.781934	1.540288
0.782031	1.539275
0.782129	1.510839
0.782227	1.474798
0.782324	1.475666
0.782422	1.469778
0.782520	1.458691
0.782617	1.504279
0.782715	1.523783
0.782812	1.517598
0.782910	1.525641
0.783008	1.484904
0.783105	1.497597
0.783203	1.464983
0.783301	1.433102
0.783398	1.422353
0.783496	1.410196
0.783594	1.376163
0.783691	1.396531
0.783789	1.437791
0.783887	1.464818
0.783984	1.499387
0.784082	1.442792
0.784180	1.397339
0.784277	1.382083
0.784375	1.377943
0.784473	1.431559
0.784570	1.517672
0.784668	1.537627
0.784766	1.523224
0.784863	1.491983
0.784961	1.499264
0.785059	1.514390
0.785156	1.518666
0.785254	1.494175
0.785352	1.462155
0.785449	1.454704
0.785547	1.447587
0.785645	1.435768
0.785742	1.418899
0.785840	1.410954
0.785937	1.430918
0.786035	1.458477
0.786133	1.514069
0.786230	1.541148
0.786328	1.531163
0.786426	1.544808
0.786523	1.538064
0.786621	1.506177
0.786719	1.458259
0.786816	1.435699
0.786914	1.477874
0.787012	1.512311
0.787109	1.546411
0.787207	1.589765
0.787305	1.593676
0.787402	1.553190
0.787500	1.526103
0.787598	1.524123
0.787695	1.575773
0.787793	1.590361
0.787891	1.592316
0.787988	1.578857
0.788086	1.554163
0.788184	1.528642
0.788281	1.534201
0.788379	1.528913
0.788477	1.496358
0.788574	1.506874
0.788672	1.524700
0.788770	1.547207
0.788867	1.563671
0.788965	1.552229
0.789062	1.522798
0.789160	1.474274
0.789258	1.426273
0.789355	1.448371
0.789453	1.446228
0.789551	1.439979
0.789648	1.512275
0.789746	1.559593
0.789844	1.564215
0.789941	1.527474
0.790039	1.522380
0.790137	1.508844
0.790234	1.537339
0.790332	1.532376
0.790430	1.506207
0.790527	1.517537
0.790625	1.541188
0.790723	1.568880
0.790820	1.573221
0.790918	1.572049
0.791016	1.575433
0.791113	1.555663
0.791211	1.524658
0.791309	1.495688
0.791406	1.477319
0.791504	1.461160
0.791602	1.463787
0.791699	1.450884
0.791797	1.426457
0.791895	1.411179
0.791992	1.374298
0.792090	1.398864
0.792187	1.446830
0.792285	1.454013
0.792383	1.451411
0.792480	1.444497
0.792578	1.441301
0.792676	1.457070
0.792773	1.472313
0.792871	1.483972
0.792969	1.486334
0.793066	1.457633
0.793164	1.412944
0.793262	1.356793
0.793359	1.309828
0.793457	1.280561
0.793555	1.286919
0.793652	1.314164
0.793750	1.349107
0.793848	1.390443
0.793945	1.418157
0.794043	1.444422
0.794141	1.455054
0.794238	1.429248
0.794336	1.407679
0.794434	1.390365
0.794531	1.383776
0.794629	1.397951
0.794727	1.396934
0.794824	1.397757
0.794922	1.382929
0.795020	1.360950
0.795117	1.335679
0.795215	1.334550
0.795312	1.329068
0.795410	1.378426
0.795508	1.427410
0.795605	1.458923
0.795703	1.521467
0.795801	1.555418
0.795898	1.599783
0.795996	1.582743
0.796094	1.551061
0.796191	1.542530
0.796289	1.540258
0.796387	1.544022
0.796484	1.547999
0.796582	1.570241
0.796680	1.540377
0.796777	1.505059
0.796875	1.551725
0.796973	1.590311
0.797070	1.589595
0.797168	1.592663
0.797266	1.600391
0.797363	1.594832
0.797461	1.589872
0.797559	1.578843
0.797656	1.567480
0.797754	1.537091
0.797852	1.494527
0.797949	1.490957
0.798047	1.483535
0.798145	1.508966
0.798242	1.522250
0.798340	1.480384
0.798437	1.452395
0.798535	1.414308
0.798633	1.370777
0.798730	1.339751
0.798828	1.318501
0.798926	1.291627
0.799023	1.260595
0.799121	1.268202
0.799219	1.341727
0.799316	1.394654
0.799414	1.395374
0.799512	1.384503
0.799609	1.359036
0.799707	1.360044
0.799805	1.400373
0.799902	1.432950
0.800000	1.429310
0.800098	1.433111
0.800195	1.430285
0.800293	1.425557
0.800391	1.424167
0.800488	1.423002
0.800586	1.429302
0.800684	1.436095
0.800781	1.419309
0.800879	1.397714
0.800977	1.417132
0.801074	1.400504
0.801172	1.356968
0.801270	1.338378
0.801367	1.378803
0.801465	1.419874
0.801562	1.422226
0.801660	1.410744
0.801758	1.373394
0.801855	1.324870
0.801953	1.281532
0.802051	1.263665
0.802148	1.269278
0.802246	1.286809
0.802344	1.297112
0.802441	1.295089
0.802539	1.306456
0.802637	1.340939
0.802734	1.359877
0.802832	1.364785
0.802930	1.381066
0.803027	1.403482
0.803125	1.419299
0.803223	1.416187
0.803320	1.380633
0.803418	1.373971
0.803516	1.392329
0.803613	1.425980
0.803711	1.475166
0.803809	1.485697
0.803906	1.475991
0.804004	1.453337
0.804102	1.440487
0.804199	1.407671
0.804297	1.463485
0.804395	1.541407
0.804492	1.544381
0.804590	1.590434
0.804687	1.578777
0.804785	1.528716
0.804883	1.488320
0.804980	1.488364
0.805078	1.520247
0.805176	1.524125
0.805273	1.524445
0.805371	1.556597
0.805469	1.565363
0.805566	1.558558
0.805664	1.536110
0.805762	1.513601
0.805859	1.493152
0.805957	1.514044
0.806055	1.551923
0.806152	1.556693
0.806250	1.545618
0.806348	1.498159
0.806445	1.480855
0.806543	1.503865
0.806641	1.508552
0.806738	1.524752
0.806836	1.533196
0.806934	1.554467
0.807031	1.568296
0.807129	1.559098
0.807227	1.540826
0.807324	1.521974
0.807422	1.493640
0.807520	1.532958
0.807617	1.544624
0.807715	1.471048
0.807812	1.476796
0.807910	1.459875
0.808008	1.463452
0.808105	1.475340
0.808203	1.465354
0.808301	1.460352
0.808398	1.457199
0.808496	1.441200
0.808594	1.451649
0.808691	1.491856
0.808789	1.481890
0.808887	1.481798
0.808984	1.491788
0.809082	1.486227
0.809180	1.475341
0.809277	1.445597
0.809375	1.437961
0.809473	1.479985
0.809570	1.463578
0.809668	1.455402
0.809766	1.476282
0.809863	1.456485
0.809961	1.450890
0.810059	1.456309
0.810156	1.450081
0.810254	1.429258
0.810352	1.416412
0.810449	1.404068
0.810547	1.394420
0.810645	1.370273
0.810742	1.335050
0.810840	1.330640
0.810937	1.336133
0.811035	1.345209
0.811133	1.366594
0.811230	1.385466
0.811328	1.388467
0.811426	1.413791
0.811523	1.453987
0.811621	1.454253
0.811719	1.441120
0.811816	1.422589
0.811914	1.397570
0.812012	1.363349
0.812109	1.350258
0.812207	1.390042
0.812305	1.420883
0.812402	1.427198
0.812500	1.404690
0.812598	1.418601
0.812695	1.447440
0.812793	1.442402
0.812891	1.433397
0.812988	1.464446
0.813086	1.511412
0.813184	1.501013
0.813281	1.486688
0.813379	1.460548
0.813477	1.492750
0.813574	1.514265
0.813672	1.526555
0.813770	1.537266
0.813867	1.563096
0.813965	1.547499
0.814062	1.531510
0.814160	1.520541
0.814258	1.488567
0.814355	1.455758
0.814453	1.473224
0.814551	1.519174
0.814648	1.514637
0.814746	1.529405
0.814844	1.526395
0.814941	1.511909
0.815039	1.575980
0.815137	1.556431
0.815234	1.544512
0.815332	1.537983
0.815430	1.515090
0.815527	1.460873
0.815625	1.437019
0.815723	1.450031
0.815820	1.459030
0.815918	1.534154
0.816016	1.542123
0.816113	1.526009
0.816211	1.488121
0.816309	1.490269
0.816406	1.515395
0.816504	1.574963
0.816602	1.576176
0.816699	1.536488
0.816797	1.488734
0.816895	1.475109
0.816992	1.449329
0.817090	1.437468
0.817187	1.411183
0.817285	1.392658
0.817383	1.405367
0.817480	1.418942
0.817578	1.488088
0.817676	1.522051
0.817773	1.508902
0.817871	1.455119
0.817969	1.448658
0.818066	1.512036
0.818164	1.503729
0.818262	1.469039
0.818359	1.420577
0.818457	1.421072
0.818555	1.418786
0.818652	1.426138
0.818750	1.457550
0.818848	1.461583
0.818945	1.464638
0.819043	1.518855
0.819141	1.536579
0.819238	1.498549
0.819336	1.500494
0.819434	1.517339
0.819531	1.518614
0.819629	1.524728
0.819727	1.502940
0.819824	1.515178
0.819922	1.523506
0.820020	1.481399
0.820117	1.491208
0.820215	1.554302
0.820312	1.554210
0.820410	1.553333
0.820508	1.552867
0.820605	1.529713
0.820703	1.522361
0.820801	1.500350
0.820898	1.484839
0.820996	1.509423
0.821094	1.523559
0.821191	1.557528
0.821289	1.550574
0.821387	1.526129
0.821484	1.559463
0.821582	1.599507
0.821680	1.579996
0.821777	1.583162
0.821875	1.569377
0.821973	1.548266
0.822070	1.540672
0.822168	1.543167
0.822266	1.544841
0.822363	1.562928
0.822461	1.583835
0.822559	1.604187
0.822656	1.581673
0.822754	1.563716
0.822852	1.565732
0.822949	1.537067
0.823047	1.486778
0.823145	1.440077
0.823242	1.442033
0.823340	1.466077
0.823437	1.470645
0.823535	1.494610
0.823633	1.498239
0.823730	1.496918
0.823828	1.492053
0.823926	1.495188
0.824023	1.498664
0.824121	1.502998
0.824219	1.428875
0.824316	1.454558
0.824414	1.516276
0.824512	1.450744
0.824609	1.422212
0.824707	1.408691
0.824805	1.449896
0.824902	1.480965
0.825000	1.471815
0.825098	1.421799
0.825195	1.420817
0.825293	1.475813
0.825391	1.494616
0.825488	1.495228
0.825586	1.502925
0.825684	1.492662
0.825781	1.498763
0.825879	1.513006
0.825977	1.493606
0.826074	1.421728
0.826172	1.342323
0.826270	1.345261
0.826367	1.441615
0.826465	1.487750
0.826562	1.466382
0.826660	1.466992
0.826758	1.459493
0.826855	1.476996
0.826953	1.481024
0.827051	1.508399
0.827148	1.491253
0.827246	1.492890
0.827344	1.499499
0.827441	1.512020
0.827539	1.464329
0.827637	1.467901
0.827734	1.489736
0.827832	1.489068
0.827930	1.435571
0.828027	1.429716
0.828125	1.426525
0.828223	1.449406
0.828320	1.453401
0.828418	1.425197
0.828516	1.467155
0.828613	1.460398
0.828711	1.462816
0.828809	1.457199
0.828906	1.445156
0.829004	1.437687
0.829102	1.406435
0.829199	1.380155
0.829297	1.365325
0.829395	1.388495
0.829492	1.387537
0.829590	1.392203
0.829687	1.407421
0.829785	1.435127
0.829883	1.444772
0.829980	1.493157
0.830078	1.525945
0.830176	1.519886
0.830273	1.521113
0.830371	1.511813
0.830469	1.504177
0.830566	1.487547
0.830664	1.477380
0.830762	1.490176
0.830859	1.503864
0.830957	1.509109
0.831055	1.511984
0.831152	1.518689
0.831250	1.504454
0.831348	1.478858
0.831445	1.443698
0.831543	1.419579
0.831641	1.434829
0.831738	1.437907
0.831836	1.429779
0.831934	1.423972
0.832031	1.415064
0.832129	1.403210
0.832227	1.380175
0.832324	1.356827
0.832422	1.370369
0.832520	1.381881
0.832617	1.393288
0.832715	1.407064
0.832812	1.422185
0.832910	1.427460
0.833008	1.425745
0.833105	1.420742
0.833203	1.400367
0.833301	1.369287
0.833398	1.356508
0.833496	1.372897
0.833594	1.379591
0.833691	1.376728
0.833789	1.369217
0.833887	1.360160
0.833984	1.353014
0.834082	1.351174
0.834180	1.353674
0.834277	1.357668
0.834375	1.361842
0.834473	1.364896
0.834570	1.365107
0.834668	1.359940
0.834766	1.344296
0.834863	1.309550
0.834961	1.272977
0.835059	1.263160
0.835156	1.288584
0.835254	1.360298
0.835352	1.364288
0.835449	1.364179
0.835547	1.380308
0.835645	1.374948
0.835742	1.406715
0.835840	1.412021
0.835937	1.440019
0.836035	1.447684
0.836133	1.443481
0.836230	1.469142
0.836328	1.462887
0.836426	1.443275
0.836523	1.442535
0.836621	1.454802
0.836719	1.441089
0.836816	1.409592
0.836914	1.374765
0.837012	1.343910
0.837109	1.325037
0.837207	1.294545
0.837305	1.273203
0.837402	1.307230
0.837500	1.344185
0.837598	1.363700
0.837695	1.351400
0.837793	1.334486
0.837891	1.331262
0.837988	1.347519
0.838086	1.356863
0.838184	1.363137
0.838281	1.362469
0.838379	1.358510
0.838477	1.357651
0.838574	1.346284
0.838672	1.336784
0.838770	1.341967
0.838867	1.351801
0.838965	1.359094
0.839062	1.365971
0.839160	1.371094
0.839258	1.377913
0.839355	1.390185
0.839453	1.407377
0.839551	1.428294
0.839648	1.465077
0.839746	1.476920
0.839844	1.460103
0.839941	1.456971
0.840039	1.453547
0.840137	1.442926
0.840234	1.391041
0.840332	1.352529
0.840430	1.475711
0.840527	1.522216
0.840625	1.533023
0.840723	1.511853
0.840820	1.489686
0.840918	1.487270
0.841016	1.478084
0.841113	1.476031
0.841211	1.468903
0.841309	1.444705
0.841406	1.448670
0.841504	1.460076
0.841602	1.459836
0.841699	1.478304
0.841797	1.506228
0.841895	1.497334
0.841992	1.496528
0.842090	1.518220
0.842187	1.534803
0.842285	1.552402
0.842383	1.562503
0.842480	1.566112
0.842578	1.567548
0.842676	1.604919
0.842773	1.592301
0.842871	1.573365
0.842969	1.583904
0.843066	1.598787
0.843164	1.614195
0.843262	1.605996
0.843359	1.615527
0.843457	1.598194
0.843555	1.581545
0.843652	1.593356
0.843750	1.567158
0.843848	1.586983
0.843945	1.604916
0.844043	1.587576
0.844141	1.578305
0.844238	1.590537
0.844336	1.595545
0.844434	1.613853
0.844531	1.592478
0.844629	1.573697
0.844727	1.610658
0.844824	1.584697
0.844922	1.593581
0.845020	1.590540
0.845117	1.597320
0.845215	1.583184
0.845312	1.574489
0.845410	1.552234
0.845508	1.547614
0.845605	1.534145
0.845703	1.525793
0.845801	1.525986
0.845898	1.474108
0.845996	1.460604
0.846094	1.454311
0.846191	1.424819
0.846289	1.420452
0.846387	1.428785
0.846484	1.426373
0.846582	1.417703
0.846680	1.396913
0.846777	1.413380
0.846875	1.456767
0.846973	1.493786
0.847070	1.542483
0.847168	1.606637
0.847266	1.643802
0.847363	1.648988
0.847461	1.649531
0.847559	1.690670
0.847656	1.705298
0.847754	1.670813
0.847852	1.661940
0.847949	1.683784
0.848047	1.667855
0.848145	1.654653
0.848242	1.631337
0.848340	1.650597
0.848437	1.688663
0.848535	1.655332
0.848633	1.671666
0.848730	1.623038
0.848828	1.601939
0.848926	1.669058
0.849023	1.655834
0.849121	1.627945
0.849219	1.637955
0.849316	1.644872
0.849414	1.608858
0.849512	1.560227
0.849609	1.485077
0.849707	1.425051
0.849805	1.469153
0.849902	1.551505
0.850000	1.563203
0.850098	1.628455
0.850195	1.632099
0.850293	1.581879
0.850391	1.562131
0.850488	1.615703
0.850586	1.629000
0.850684	1.615613
0.850781	1.595241
0.850879	1.596123
0.850977	1.558207
0.851074	1.577623
0.851172	1.590033
0.851270	1.597713
0.851367	1.581310
0.851465	1.579093
0.851562	1.549800
0.851660	1.535856
0.851758	1.560099
0.851855	1.537107
0.851953	1.525626
0.852051	1.516431
0.852148	1.560848
0.852246	1.543481
0.852344	1.532379
0.852441	1.518699
0.852539	1.499951
0.852637	1.484088
0.852734	1.472206
0.852832	1.479471
0.852930	1.458671
0.853027	1.450434
0.853125	1.435536
0.853223	1.417853
0.853320	1.406970
0.853418	1.385824
0.853516	1.357712
0.853613	1.326537
0.853711	1.310614
0.853809	1.307534
0.853906	1.305206
0.854004	1.303592
0.854102	1.325293
0.854199	1.367120
0.854297	1.391179
0.854395	1.410281
0.854492	1.411573
0.854590	1.409823
0.854687	1.436857
0.854785	1.471995
0.854883	1.482626
0.854980	1.478467
0.855078	1.468212
0.855176	1.449903
0.855273	1.421800
0.855371	1.398673
0.855469	1.384823
0.855566	1.379009
0.855664	1.379430
0.855762	1.376158
0.855859	1.372842
0.855957	1.370993
0.856055	1.374659
0.856152	1.382414
0.856250	1.395592
0.856348	1.403211
0.856445	1.411605
0.856543	1.427977
0.856641	1.457152
0.856738	1.466507
0.856836	1.464757
0.856934	1.462107
0.857031	1.471074
0.857129	1.486355
0.857227	1.483745
0.857324	1.475552
0.857422	1.492885
0.857520	1.490430
0.857617	1.481078
0.857715	1.458717
0.857812	1.475908
0.857910	1.526624
0.858008	1.513137
0.858105	1.537936
0.858203	1.539705
0.858301	1.551138
0.858398	1.560050
0.858496	1.565838
0.858594	1.583743
0.858691	1.561666
0.858789	1.577336
0.858887	1.584526
0.858984	1.522499
0.859082	1.544582
0.859180	1.577451
0.859277	1.551102
0.859375	1.569151
0.859473	1.558520
0.859570	1.593587
0.859668	1.588973
0.859766	1.580612
0.859863	1.547826
0.859961	1.568177
0.860059	1.561368
0.860156	1.534965
0.860254	1.457853
0.860352	1.405730
0.860449	1.482526
0.860547	1.459190
0.860645	1.493545
0.860742	1.500303
0.860840	1.481403
0.860937	1.448541
0.861035	1.421080
0.861133	1.408049
0.861230	1.408901
0.861328	1.410376
0.861426	1.487631
0.861523	1.582926
0.861621	1.560799
0.861719	1.584462
0.861816	1.562704
0.861914	1.517943
0.862012	1.400527
0.862109	1.363825
0.862207	1.413173
0.862305	1.402497
0.862402	1.498532
0.862500	1.575241
0.862598	1.545392
0.862695	1.492791
0.862793	1.489904
0.862891	1.383973
0.862988	1.425124
0.863086	1.501244
0.863184	1.521402
0.863281	1.506291
0.863379	1.454088
0.863477	1.478082
0.863574	1.465138
0.863672	1.523623
0.863770	1.532025
0.863867	1.533058
0.863965	1.551674
0.864062	1.551042
0.864160	1.518312
0.864258	1.518758
0.864355	1.507985
0.864453	1.479610
0.864551	1.428502
0.864648	1.350886
0.864746	1.305661
0.864844	1.292556
0.864941	1.301431
0.865039	1.320118
0.865137	1.331642
0.865234	1.312713
0.865332	1.280634
0.865430	1.255551
0.865527	1.259785
0.865625	1.289995
0.865723	1.317997
0.865820	1.328702
0.865918	1.325544
0.866016	1.301906
0.866113	1.268658
0.866211	1.273400
0.866309	1.344704
0.866406	1.421065
0.866504	1.473313
0.866602	1.513931
0.866699	1.480802
0.866797	1.464912
0.866895	1.402361
0.866992	1.430313
0.867090	1.530752
0.867187	1.514075
0.867285	1.502361
0.867383	1.478210
0.867480	1.460523
0.867578	1.393368
0.867676	1.353011
0.867773	1.400754
0.867871	1.406499
0.867969	1.368410
0.868066	1.355748
0.868164	1.372232
0.868262	1.387116
0.868359	1.382004
0.868457	1.361480
0.868555	1.351144
0.868652	1.361645
0.868750	1.385037
0.868848	1.406935
0.868945	1.394133
0.869043	1.404887
0.869141	1.410343
0.869238	1.389122
0.869336	1.389818
0.869434	1.403797
0.869531	1.412145
0.869629	1.414692
0.869727	1.407725
0.869824	1.410735
0.869922	1.419815
0.870020	1.434036
0.870117	1.509709
0.870215	1.538433
0.870312	1.533656
0.870410	1.541420
0.870508	1.555742
0.870605	1.563424
0.870703	1.565552
0.870801	1.569101
0.870898	1.578395
0.870996	1.586432
0.871094	1.580917
0.871191	1.567758
0.871289	1.572658
0.871387	1.563499
0.871484	1.587250
0.871582	1.583075
0.871680	1.541139
0.871777	1.539534
0.871875	1.535882
0.871973	1.544047
0.872070	1.601743
0.872168	1.637055
0.872266	1.640660
0.872363	1.634434
0.872461	1.587298
0.872559	1.539685
0.872656	1.503831
0.872754	1.560605
0.872852	1.555022
0.872949	1.493076
0.873047	1.479249
0.873145	1.497030
0.873242	1.483110
0.873340	1.452757
0.873437	1.443504
0.873535	1.433981
0.873633	1.420357
0.873730	1.405476
0.873828	1.370887
0.873926	1.347453
0.874023	1.362428
0.874121	1.335072
0.874219	1.315739
0.874316	1.318012
0.874414	1.325151
0.874512	1.329117
0.874609	1.310114
0.874707	1.303368
0.874805	1.296019
0.874902	1.309997
0.875000	1.302482
0.875098	1.316538
0.875195	1.369991
0.875293	1.382599
0.875391	1.376244
0.875488	1.368454
0.875586	1.365314
0.875684	1.358912
0.875781	1.363096
0.875879	1.377753
0.875977	1.382166
0.876074	1.379303
0.876172	1.381027
0.876270	1.386364
0.876367	1.395705
0.876465	1.397881
0.876562	1.394523
0.876660	1.385487
0.876758	1.375662
0.876855	1.368469
0.876953	1.358594
0.877051	1.346685
0.877148	1.350174
0.877246	1.378753
0.877344	1.421230
0.877441	1.439421
0.877539	1.433970
0.877637	1.424292
0.877734	1.427286
0.877832	1.446164
0.877930	1.454305
0.878027	1.445422
0.878125	1.469710
0.878223	1.480428
0.878320	1.469446
0.878418	1.478177
0.878516	1.476646
0.878613	1.472643
0.878711	1.482444
0.878809	1.488376
0.878906	1.488260
0.879004	1.507259
0.879102	1.507999
0.879199	1.511633
0.879297	1.526308
0.879395	1.539213
0.879492	1.564564
0.879590	1.577905
0.879687	1.551970
0.879785	1.538452
0.879883	1.559033
0.879980	1.518157
0.880078	1.472939
0.880176	1.466897
0.880273	1.452545
0.880371	1.416490
0.880469	1.408313
0.880566	1.424147
0.880664	1.433084
0.880762	1.437790
0.880859	1.400721
0.880957	1.413714
0.881055	1.420685
0.881152	1.415749
0.881250	1.414190
0.881348	1.405020
0.881445	1.387574
0.881543	1.382624
0.881641	1.395704
0.881738	1.415302
0.881836	1.428414
0.881934	1.435171
0.882031	1.440754
0.882129	1.435678
0.882227	1.428426
0.882324	1.421476
0.882422	1.414073
0.882520	1.403396
0.882617	1.387977
0.882715	1.366101
0.882812	1.350304
0.882910	1.352237
0.883008	1.392844
0.883105	1.447695
0.883203	1.448860
0.883301	1.407900
0.883398	1.352651
0.883496	1.326281
0.883594	1.358205
0.883691	1.401074
0.883789	1.479896
0.883887	1.463598
0.883984	1.423164
0.884082	1.414845
0.884180	1.437410
0.884277	1.530786
0.884375	1.532302
0.884473	1.512552
0.884570	1.468948
0.884668	1.433187
0.884766	1.373836
0.884863	1.351530
0.884961	1.339561
0.885059	1.372448
0.885156	1.451236
0.885254	1.490467
0.885352	1.498713
0.885449	1.491149
0.885547	1.475096
0.885645	1.485868
0.885742	1.499015
0.885840	1.506323
0.885937	1.465900
0.886035	1.462370
0.886133	1.515002
0.886230	1.481226
0.886328	1.470734
0.886426	1.457647
0.886523	1.410251
0.886621	1.368436
0.886719	1.347754
0.886816	1.354891
0.886914	1.361773
0.887012	1.381323
0.887109	1.404171
0.887207	1.417860
0.887305	1.425678
0.887402	1.423551
0.887500	1.466345
0.887598	1.507225
0.887695	1.474060
0.887793	1.465683
0.887891	1.481907
0.887988	1.490064
0.888086	1.483913
0.888184	1.490826
0.888281	1.483257
0.888379	1.460319
0.888477	1.473298
0.888574	1.475357
0.888672	1.446384
0.888770	1.453323
0.888867	1.441384
0.888965	1.431228
0.889062	1.434462
0.889160	1.425808
0.889258	1.418073
0.889355	1.407782
0.889453	1.397463
0.889551	1.383297
0.889648	1.359433
0.889746	1.340291
0.889844	1.333628
0.889941	1.329449
0.890039	1.331960
0.890137	1.355766
0.890234	1.409690
0.890332	1.398490
0.890430	1.344913
0.890527	1.290107
0.890625	1.273447
0.890723	1.307104
0.890820	1.384115
0.890918	1.448911
0.891016	1.448015
0.891113	1.457911
0.891211	1.447731
0.891309	1.476214
0.891406	1.482211
0.891504	1.469800
0.891602	1.474435
0.891699	1.445168
0.891797	1.440044
0.891895	1.453072
0.891992	1.469195
0.892090	1.473510
0.892187	1.484839
0.892285	1.490522
0.892383	1.490186
0.892480	1.552357
0.892578	1.594238
0.892676	1.559017
0.892773	1.522089
0.892871	1.534635
0.892969	1.549817
0.893066	1.575322
0.893164	1.617599
0.893262	1.589176
0.893359	1.572244
0.893457	1.559777
0.893555	1.574762
0.893652	1.572435
0.893750	1.575966
0.893848	1.582687
0.893945	1.548986
0.894043	1.511889
0.894141	1.487811
0.894238	1.472487
0.894336	1.477881
0.894434	1.519470
0.894531	1.492772
0.894629	1.468569
0.894727	1.464966
0.894824	1.474221
0.894922	1.466719
0.895020	1.457641
0.895117	1.457329
0.895215	1.445084
0.895312	1.415017
0.895410	1.422201
0.895508	1.475033
0.895605	1.479739
0.895703	1.438894
0.895801	1.407344
0.895898	1.421475
0.895996	1.436612
0.896094	1.422305
0.896191	1.405968
0.896289	1.404525
0.896387	1.442792
0.896484	1.433640
0.896582	1.407640
0.896680	1.398368
0.896777	1.383649
0.896875	1.356350
0.896973	1.329400
0.897070	1.308176
0.897168	1.292812
0.897266	1.281690
0.897363	1.266146
0.897461	1.249076
0.897559	1.236366
0.897656	1.228828
0.897754	1.224379
0.897852	1.224057
0.897949	1.230565
0.898047	1.246412
0.898145	1.269360
0.898242	1.294636
0.898340	1.317848
0.898437	1.336620
0.898535	1.350351
0.898633	1.361049
0.898730	1.369539
0.898828	1.377459
0.898926	1.384844
0.899023	1.394700
0.899121	1.405059
0.899219	1.414372
0.899316	1.430371
0.899414	1.439284
0.899512	1.446785
0.899609	1.455663
0.899707	1.461174
0.899805	1.458689
0.899902	1.470026
0.900000	1.484458
0.900098	1.491452
0.900195	1.500907
0.900293	1.495283
0.900391	1.470510
0.900488	1.448953
0.900586	1.438232
0.900684	1.438645
0.900781	1.443213
0.900879	1.455172
0.900977	1.459842
0.901074	1.452098
0.901172	1.414863
0.901270	1.368111
0.901367	1.384144
0.901465	1.444504
0.901562	1.443066
0.901660	1.448923
0.901758	1.442989
0.901855	1.437488
0.901953	1.429084
0.902051	1.443380
0.902148	1.494327
0.902246	1.491104
0.902344	1.450872
0.902441	1.461282
0.902539	1.496482
0.902637	1.479772
0.902734	1.467232
0.902832	1.468812
0.902930	1.419389
0.903027	1.405917
0.903125	1.390609
0.903223	1.413793
0.903320	1.505652
0.903418	1.513671
0.903516	1.476465
0.903613	1.483455
0.903711	1.499201
0.903809	1.479098
0.903906	1.468480
0.904004	1.482446
0.904102	1.531737
0.904199	1.541695
0.904297	1.510569
0.904395	1.499998
0.904492	1.477704
0.904590	1.438584
0.904687	1.467921
0.904785	1.464754
0.904883	1.475503
0.904980	1.474184
0.905078	1.459854
0.905176	1.416280
0.905273	1.378660
0.905371	1.374243
0.905469	1.371029
0.905566	1.344245
0.905664	1.348532
0.905762	1.342873
0.905859	1.351879
0.905957	1.431836
0.906055	1.501442
0.906152	1.513782
0.906250	1.516166
0.906348	1.535178
0.906445	1.518262
0.906543	1.510365
0.906641	1.487839
0.906738	1.490743
0.906836	1.507741
0.906934	1.532118
0.907031	1.584930
0.907129	1.599758
0.907227	1.590855
0.907324	1.584295
0.907422	1.579158
0.907520	1.562023
0.907617	1.537210
0.907715	1.525127
0.907812	1.530906
0.907910	1.545374
0.908008	1.592887
0.908105	1.594717
0.908203	1.521088
0.908301	1.511024
0.908398	1.498318
0.908496	1.491725
0.908594	1.512168
0.908691	1.504499
0.908789	1.520665
0.908887	1.555840
0.908984	1.530338
0.909082	1.510734
0.909180	1.487406
0.909277	1.525133
0.909375	1.537978
0.909473	1.514233
0.909570	1.510943
0.909668	1.504854
0.909766	1.522590
0.909863	1.549167
0.909961	1.555579
0.910059	1.547813
0.910156	1.516811
0.910254	1.469498
0.910352	1.476080
0.910449	1.494584
0.910547	1.487269
0.910645	1.456259
0.910742	1.442766
0.910840	1.466786
0.910937	1.486878
0.911035	1.487087
0.911133	1.454228
0.911230	1.390490
0.911328	1.351745
0.911426	1.336317
0.911523	1.343629
0.911621	1.355055
0.911719	1.352428
0.911816	1.337769
0.911914	1.316177
0.912012	1.294824
0.912109	1.286133
0.912207	1.292421
0.912305	1.303952
0.912402	1.312768
0.912500	1.319955
0.912598	1.328700
0.912695	1.345147
0.912793	1.360584
0.912891	1.369049
0.912988	1.364901
0.913086	1.356227
0.913184	1.355744
0.913281	1.361272
0.913379	1.370528
0.913477	1.381728
0.913574	1.392390
0.913672	1.392861
0.913770	1.395322
0.913867	1.392766
0.913965	1.386637
0.914062	1.378909
0.914160	1.360952
0.914258	1.345910
0.914355	1.338104
0.914453	1.352755
0.914551	1.393112
0.914648	1.534200
0.914746	1.513230
0.914844	1.508942
0.914941	1.543443
0.915039	1.506294
0.915137	1.519664
0.915234	1.580541
0.915332	1.581819
0.915430	1.591406
0.915527	1.601166
0.915625	1.602311
0.915723	1.604299
0.915820	1.613777
0.915918	1.617771
0.916016	1.612204
0.916113	1.614406
0.916211	1.615477
0.916309	1.602512
0.916406	1.573930
0.916504	1.549723
0.916602	1.600684
0.916699	1.593365
0.916797	1.580668
0.916895	1.572002
0.916992	1.539990
0.917090	1.557040
0.917187	1.553869
0.917285	1.558109
0.917383	1.576020
0.917480	1.624517
0.917578	1.584179
0.917676	1.551315
0.917773	1.554536
0.917871	1.539192
0.917969	1.525871
0.918066	1.548994
0.918164	1.533705
0.918262	1.547837
0.918359	1.520660
0.918457	1.475065
0.918555	1.461010
0.918652	1.446122
0.918750	1.418974
0.918848	1.398023
0.918945	1.382746
0.919043	1.385493
0.919141	1.409162
0.919238	1.404742
0.919336	1.379157
0.919434	1.365528
0.919531	1.408475
0.919629	1.461163
0.919727	1.430044
0.919824	1.401890
0.919922	1.414146
0.920020	1.397685
0.920117	1.380455
0.920215	1.403881
0.920312	1.406372
0.920410	1.403683
0.920508	1.390125
0.920605	1.375687
0.920703	1.367149
0.920801	1.397306
0.920898	1.420684
0.920996	1.421741
0.921094	1.419149
0.921191	1.430917
0.921289	1.423278
0.921387	1.414917
0.921484	1.441251
0.921582	1.460994
0.921680	1.501378
0.921777	1.535039
0.921875	1.543280
0.921973	1.576981
0.922070	1.577740
0.922168	1.571258
0.922266	1.581623
0.922363	1.584214
0.922461	1.579004
0.922559	1.556432
0.922656	1.542224
0.922754	1.539289
0.922852	1.553584
0.922949	1.508786
0.923047	1.524825
0.923145	1.549504
0.923242	1.542921
0.923340	1.540341
0.923437	1.515607
0.923535	1.516755
0.923633	1.507107
0.923730	1.499707
0.923828	1.516369
0.923926	1.530872
0.924023	1.524004
0.924121	1.522715
0.924219	1.538758
0.924316	1.550395
0.924414	1.539822
0.924512	1.537280
0.924609	1.556198
0.924707	1.544944
0.924805	1.523509
0.924902	1.496057
0.925000	1.479456
0.925098	1.506678
0.925195	1.529234
0.925293	1.533434
0.925391	1.539913
0.925488	1.554820
0.925586	1.559814
0.925684	1.573098
0.925781	1.564775
0.925879	1.542991
0.925977	1.513469
0.926074	1.490331
0.926172	1.465731
0.926270	1.449348
0.926367	1.442776
0.926465	1.428305
0.926562	1.439224
0.926660	1.461656
0.926758	1.471267
0.926855	1.469820
0.926953	1.460045
0.927051	1.447823
0.927148	1.435133
0.927246	1.430218
0.927344	1.429929
0.927441	1.426590
0.927539	1.434398
0.927637	1.443337
0.927734	1.445314
0.927832	1.439798
0.927930	1.433340
0.928027	1.444520
0.928125	1.459716
0.928223	1.454774
0.928320	1.448323
0.928418	1.442961
0.928516	1.423937
0.928613	1.388215
0.928711	1.358980
0.928809	1.329684
0.928906	1.308092
0.929004	1.302761
0.929102	1.313025
0.929199	1.326320
0.929297	1.334993
0.929395	1.333731
0.929492	1.336990
0.929590	1.336466
0.929687	1.329719
0.929785	1.342974
0.929883	1.369957
0.929980	1.387246
0.930078	1.403520
0.930176	1.412138
0.930273	1.422607
0.930371	1.416792
0.930469	1.423426
0.930566	1.431755
0.930664	1.453719
0.930762	1.431175
0.930859	1.426587
0.930957	1.412132
0.931055	1.417528
0.931152	1.469594
0.931250	1.445054
0.931348	1.442768
0.931445	1.437248
0.931543	1.438508
0.931641	1.406825
0.931738	1.411113
0.931836	1.457107
0.931934	1.495328
0.932031	1.466248
0.932129	1.425712
0.932227	1.468163
0.932324	1.477608
0.932422	1.444893
0.932520	1.425772
0.932617	1.436103
0.932715	1.450700
0.932812	1.479717
0.932910	1.523490
0.933008	1.548174
0.933105	1.572478
0.933203	1.585803
0.933301	1.586193
0.933398	1.581492
0.933496	1.598553
0.933594	1.607559
0.933691	1.614795
0.933789	1.625921
0.933887	1.629333
0.933984	1.633693
0.934082	1.633989
0.934180	1.610463
0.934277	1.625098
0.934375	1.641301
0.934473	1.629601
0.934570	1.642726
0.934668	1.665373
0.934766	1.660833
0.934863	1.666197
0.934961	1.656518
0.935059	1.657564
0.935156	1.632554
0.935254	1.592662
0.935352	1.591193
0.935449	1.583139
0.935547	1.570211
0.935645	1.549913
0.935742	1.537517
0.935840	1.520191
0.935937	1.511542
0.936035	1.517806
0.936133	1.533484
0.936230	1.536416
0.936328	1.501011
0.936426	1.519884
0.936523	1.546406
0.936621	1.531610
0.936719	1.559601
0.936816	1.559124
0.936914	1.541039
0.937012	1.537737
0.937109	1.537432
0.937207	1.565086
0.937305	1.586173
0.937402	1.565279
0.937500	1.586374
0.937598	1.607625
0.937695	1.606773
0.937793	1.538416
0.937891	1.521461
0.937988	1.526901
0.938086	1.554676
0.938184	1.593345
0.938281	1.588567
0.938379	1.598941
0.938477	1.618400
0.938574	1.612680
0.938672	1.622923
0.938770	1.651457
0.938867	1.644502
0.938965	1.633217
0.939062	1.616549
0.939160	1.620214
0.939258	1.593109
0.939355	1.574456
0.939453	1.617191
0.939551	1.609409
0.939648	1.609666
0.939746	1.617975
0.939844	1.610591
0.939941	1.583217
0.940039	1.574906
0.940137	1.599850
0.940234	1.619677
0.940332	1.612864
0.940430	1.605306
0.940527	1.611518
0.940625	1.611806
0.940723	1.621117
0.940820	1.620497
0.940918	1.609494
0.941016	1.580456
0.941113	1.554785
0.941211	1.559731
0.941309	1.548936
0.941406	1.546711
0.941504	1.588763
0.941602	1.606980
0.941699	1.621893
0.941797	1.599149
0.941895	1.575727
0.941992	1.596212
0.942090	1.601365
0.942187	1.606172
0.942285	1.574373
0.942383	1.570372
0.942480	1.578348
0.942578	1.537072
0.942676	1.500564
0.942773	1.494071
0.942871	1.474229
0.942969	1.484277
0.943066	1.516625
0.943164	1.509640
0.943262	1.502062
0.943359	1.495808
0.943457	1.498062
0.943555	1.493238
0.943652	1.476198
0.943750	1.440769
0.943848	1.406752
0.943945	1.399532
0.944043	1.414273
0.944141	1.426615
0.944238	1.429499
0.944336	1.423711
0.944434	1.402296
0.944531	1.385532
0.944629	1.381467
0.944727	1.362158
0.944824	1.345661
0.944922	1.340488
0.945020	1.339338
0.945117	1.334467
0.945215	1.324542
0.945312	1.307793
0.945410	1.286441
0.945508	1.263760
0.945605	1.247981
0.945703	1.242861
0.945801	1.243725
0.945898	1.246762
0.945996	1.265933
0.946094	1.321652
0.946191	1.377946
0.946289	1.391592
0.946387	1.361835
0.946484	1.307335
0.946582	1.305025
0.946680	1.317666
0.946777	1.347355
0.946875	1.429023
0.946973	1.453406
0.947070	1.451678
0.947168	1.430804
0.947266	1.400122
0.947363	1.373516
0.947461	1.373489
0.947559	1.376124
0.947656	1.383528
0.947754	1.370876
0.947852	1.476497
0.947949	1.545281
0.948047	1.536030
0.948145	1.545263
0.948242	1.544965
0.948340	1.552976
0.948437	1.554811
0.948535	1.561990
0.948633	1.565389
0.948730	1.572283
0.948828	1.576476
0.948926	1.583242
0.949023	1.588192
0.949121	1.595009
0.949219	1.600703
0.949316	1.607958
0.949414	1.614834
0.949512	1.622263
0.949609	1.628898
0.949707	1.634122
0.949805	1.636284
0.949902	1.638946
0.950000	1.643100
0.950098	1.648124
0.950195	1.654422
0.950293	1.661124
0.950391	1.667646
0.950488	1.672730
0.950586	1.676731
0.950684	1.682335
0.950781	1.688049
0.950879	1.688271
0.950977	1.694870
0.951074	1.696880
0.951172	1.704029
0.951270	1.697666
0.951367	1.708119
0.951465	1.711665
0.951562	1.700689
0.951660	1.730597
0.951758	1.699917
0.951855	1.710373
0.951953	1.724671
0.952051	1.736206
0.952148	1.718159
0.952246	1.725785
0.952344	1.726521
0.952441	1.738372
0.952539	1.698721
0.952637	1.688371
0.952734	1.742121
0.952832	1.730529
0.952930	1.703372
0.953027	1.705516
0.953125	1.699602
0.953223	1.733255
0.953320	1.748184
0.953418	1.713609
0.953516	1.723883
0.953613	1.693318
0.953711	1.678188
0.953809	1.652791
0.953906	1.646258
0.954004	1.646491
0.954102	1.629861
0.954199	1.649815
0.954297	1.669635
0.954395	1.655995
0.954492	1.654272
0.954590	1.614751
0.954687	1.592224
0.954785	1.593128
0.954883	1.613682
0.954980	1.572683
0.955078	1.547347
0.955176	1.540277
0.955273	1.553701
0.955371	1.569303
0.955469	1.567045
0.955566	1.600169
0.955664	1.629836
0.955762	1.629606
0.955859	1.631965
0.955957	1.586146
0.956055	1.604653
0.956152	1.600470
0.956250	1.587855
0.956348	1.607165
0.956445	1.580999
0.956543	1.547455
0.956641	1.555717
0.956738	1.580790
0.956836	1.559791
0.956934	1.566972
0.957031	1.567377
0.957129	1.581282
0.957227	1.581955
0.957324	1.557344
0.957422	1.564619
0.957520	1.592376
0.957617	1.634320
0.957715	1.644985
0.957812	1.620974
0.957910	1.587959
0.958008	1.614639
0.958105	1.602793
0.958203	1.593804
0.958301	1.588789
0.958398	1.583890
0.958496	1.596870
0.958594	1.604832
0.958691	1.606929
0.958789	1.616508
0.958887	1.606182
0.958984	1.591323
0.959082	1.562566
0.959180	1.549388
0.959277	1.544537
0.959375	1.556477
0.959473	1.564899
0.959570	1.538294
0.959668	1.528629
0.959766	1.496499
0.959863	1.493633
0.959961	1.532874
0.960059	1.520852
0.960156	1.471899
0.960254	1.430141
0.960352	1.439051
0.960449	1.470838
0.960547	1.464052
0.960645	1.454740
0.960742	1.460585
0.960840	1.433131
0.960937	1.430445
0.961035	1.442123
0.961133	1.415696
0.961230	1.389650
0.961328	1.373190
0.961426	1.381376
0.961523	1.375201
0.961621	1.372110
0.961719	1.349172
0.961816	1.352002
0.961914	1.372630
0.962012	1.391402
0.962109	1.417304
0.962207	1.385401
0.962305	1.358223
0.962402	1.355311
0.962500	1.324996
0.962598	1.286705
0.962695	1.298941
0.962793	1.326209
0.962891	1.435893
0.962988	1.481210
0.963086	1.490904
0.963184	1.533022
0.963281	1.516304
0.963379	1.517875
0.963477	1.503420
0.963574	1.494164
0.963672	1.484769
0.963770	1.482222
0.963867	1.479301
0.963965	1.479860
0.964062	1.476679
0.964160	1.479507
0.964258	1.487925
0.964355	1.504727
0.964453	1.518358
0.964551	1.530455
0.964648	1.537046
0.964746	1.543826
0.964844	1.546515
0.964941	1.553261
0.965039	1.560555
0.965137	1.563841
0.965234	1.558776
0.965332	1.575622
0.965430	1.574983
0.965527	1.588530
0.965625	1.580214
0.965723	1.592846
0.965820	1.577776
0.965918	1.572211
0.966016	1.631018
0.966113	1.639952
0.966211	1.625417
0.966309	1.585160
0.966406	1.580441
0.966504	1.567144
0.966602	1.566068
0.966699	1.526366
0.966797	1.578849
0.966895	1.601414
0.966992	1.613808
0.967090	1.566146
0.967187	1.513097
0.967285	1.513859
0.967383	1.508894
0.967480	1.451244
0.967578	1.431688
0.967676	1.442272
0.967773	1.412639
0.967871	1.449943
0.967969	1.453703
0.968066	1.473636
0.968164	1.483445
0.968262	1.444175
0.968359	1.416072
0.968457	1.378456
0.968555	1.359708
0.968652	1.360930
0.968750	1.364695
0.968848	1.386565
0.968945	1.434430
0.969043	1.460748
0.969141	1.475383
0.969238	1.520031
0.969336	1.536024
0.969434	1.531702
0.969531	1.488173
0.969629	1.496495
0.969727	1.562219
0.969824	1.578127
0.969922	1.620499
0.970020	1.611050
0.970117	1.622594
0.970215	1.605026
0.970312	1.609015
0.970410	1.603761
0.970508	1.569151
0.970605	1.546249
0.970703	1.539098
0.970801	1.543071
0.970898	1.574488
0.970996	1.617365
0.971094	1.641926
0.971191	1.657241
0.971289	1.677567
0.971387	1.653011
0.971484	1.640257
0.971582	1.633570
0.971680	1.651095
0.971777	1.688731
0.971875	1.680600
0.971973	1.680704
0.972070	1.662739
0.972168	1.660128
0.972266	1.647656
0.972363	1.617482
0.972461	1.604608
0.972559	1.619887
0.972656	1.624496
0.972754	1.629420
0.972852	1.606800
0.972949	1.606950
0.973047	1.621117
0.973145	1.605760
0.973242	1.571051
0.973340	1.583720
0.973437	1.577545
0.973535	1.548934
0.973633	1.538404
0.973730	1.549073
0.973828	1.527897
0.973926	1.473015
0.974023	1.473410
0.974121	1.482444
0.974219	1.491466
0.974316	1.486838
0.974414	1.465588
0.974512	1.461636
0.974609	1.455293
0.974707	1.443572
0.974805	1.415289
0.974902	1.395456
0.975000	1.384020
0.975098	1.377821
0.975195	1.371504
0.975293	1.363752
0.975391	1.356589
0.975488	1.367524
0.975586	1.377930
0.975684	1.373537
0.975781	1.356198
0.975879	1.332463
0.975977	1.310991
0.976074	1.296504
0.976172	1.290550
0.976270	1.288714
0.976367	1.287389
0.976465	1.284670

