LabVIEW Measurement	
Writer_Version	2
Reader_Version	2
Separator	Tab
Decimal_Separator	.
Multi_Headings	Yes
X_Columns	One
Time_Pref	Absolute
Operator	W-Tunnel
Date	1904/01/01
Time	01:00:00
***End_of_Header***	
	
Channels	1	
Samples	10000	
Date	2024/05/17	
Time	18:33:26.4117815562497991851	
Y_Unit_Label	Volts	
X_Dimension	Time	
X0	0.0000000000000000E+0	
Delta_X	9.765625E-5	
***End_of_Header***		
X_Value	Voltage	Comment
0.000000	1.666931
9.765625E-5	1.667320
0.000195	1.667714
0.000293	1.668267
0.000391	1.668901
0.000488	1.669517
0.000586	1.670286
0.000684	1.671094
0.000781	1.672060
0.000879	1.672988
0.000977	1.674075
0.001074	1.675144
0.001172	1.675928
0.001270	1.676752
0.001367	1.677299
0.001465	1.677881
0.001562	1.678594
0.001660	1.679278
0.001758	1.680285
0.001855	1.681247
0.001953	1.682309
0.002051	1.683277
0.002148	1.684342
0.002246	1.685314
0.002344	1.686155
0.002441	1.687044
0.002539	1.687836
0.002637	1.688523
0.002734	1.689286
0.002832	1.689957
0.002930	1.690762
0.003027	1.691629
0.003125	1.692512
0.003223	1.693654
0.003320	1.694461
0.003418	1.695512
0.003516	1.696363
0.003613	1.697153
0.003711	1.697812
0.003809	1.698187
0.003906	1.698347
0.004004	1.698303
0.004102	1.698299
0.004199	1.698428
0.004297	1.698564
0.004395	1.699073
0.004492	1.699695
0.004590	1.700390
0.004687	1.701280
0.004785	1.701998
0.004883	1.702745
0.004980	1.703390
0.005078	1.704100
0.005176	1.704789
0.005273	1.705315
0.005371	1.705894
0.005469	1.706168
0.005566	1.706021
0.005664	1.705213
0.005762	1.704091
0.005859	1.703046
0.005957	1.702121
0.006055	1.701467
0.006152	1.701021
0.006250	1.700379
0.006348	1.699915
0.006445	1.699382
0.006543	1.699032
0.006641	1.698768
0.006738	1.698499
0.006836	1.698402
0.006934	1.698215
0.007031	1.698167
0.007129	1.697785
0.007227	1.697227
0.007324	1.696482
0.007422	1.695573
0.007520	1.694109
0.007617	1.692078
0.007715	1.689466
0.007812	1.686591
0.007910	1.683661
0.008008	1.680587
0.008105	1.677106
0.008203	1.672952
0.008301	1.669037
0.008398	1.665712
0.008496	1.663064
0.008594	1.660853
0.008691	1.659498
0.008789	1.658558
0.008887	1.658112
0.008984	1.657897
0.009082	1.657949
0.009180	1.658159
0.009277	1.658459
0.009375	1.658925
0.009473	1.659485
0.009570	1.659913
0.009668	1.660377
0.009766	1.660585
0.009863	1.660428
0.009961	1.659659
0.010059	1.658656
0.010156	1.657381
0.010254	1.655816
0.010352	1.654483
0.010449	1.653278
0.010547	1.652426
0.010645	1.651668
0.010742	1.651390
0.010840	1.651308
0.010937	1.651471
0.011035	1.651848
0.011133	1.652543
0.011230	1.653205
0.011328	1.654130
0.011426	1.654971
0.011523	1.656072
0.011621	1.656958
0.011719	1.658096
0.011816	1.659135
0.011914	1.660249
0.012012	1.661428
0.012109	1.662486
0.012207	1.663757
0.012305	1.665060
0.012402	1.666386
0.012500	1.667685
0.012598	1.668989
0.012695	1.669942
0.012793	1.670617
0.012891	1.670908
0.012988	1.671062
0.013086	1.671035
0.013184	1.670984
0.013281	1.670990
0.013379	1.670860
0.013477	1.670500
0.013574	1.670059
0.013672	1.669599
0.013770	1.668997
0.013867	1.668375
0.013965	1.667923
0.014062	1.667572
0.014160	1.667439
0.014258	1.667530
0.014355	1.667836
0.014453	1.668305
0.014551	1.669124
0.014648	1.669883
0.014746	1.670911
0.014844	1.672067
0.014941	1.673132
0.015039	1.674149
0.015137	1.675181
0.015234	1.676125
0.015332	1.677081
0.015430	1.677941
0.015527	1.678694
0.015625	1.679484
0.015723	1.680403
0.015820	1.681147
0.015918	1.682026
0.016016	1.682820
0.016113	1.683683
0.016211	1.684478
0.016309	1.685277
0.016406	1.686269
0.016504	1.687163
0.016602	1.688265
0.016699	1.689189
0.016797	1.690045
0.016895	1.690889
0.016992	1.691729
0.017090	1.692810
0.017187	1.693882
0.017285	1.694847
0.017383	1.695812
0.017480	1.696380
0.017578	1.696476
0.017676	1.696524
0.017773	1.696418
0.017871	1.696422
0.017969	1.696691
0.018066	1.697144
0.018164	1.697841
0.018262	1.698646
0.018359	1.699432
0.018457	1.700133
0.018555	1.700864
0.018652	1.701271
0.018750	1.701454
0.018848	1.701526
0.018945	1.701603
0.019043	1.701927
0.019141	1.702226
0.019238	1.702759
0.019336	1.703374
0.019434	1.704430
0.019531	1.706333
0.019629	1.709019
0.019727	1.712984
0.019824	1.717134
0.019922	1.721486
0.020020	1.719670
0.020117	1.706284
0.020215	1.700419
0.020312	1.700551
0.020410	1.700304
0.020508	1.699206
0.020605	1.697548
0.020703	1.695694
0.020801	1.693874
0.020898	1.692193
0.020996	1.690984
0.021094	1.690086
0.021191	1.689730
0.021289	1.689189
0.021387	1.688474
0.021484	1.687757
0.021582	1.687199
0.021680	1.686979
0.021777	1.687005
0.021875	1.687441
0.021973	1.687769
0.022070	1.688535
0.022168	1.689315
0.022266	1.690331
0.022363	1.691363
0.022461	1.692414
0.022559	1.693610
0.022656	1.694779
0.022754	1.695857
0.022852	1.696950
0.022949	1.697764
0.023047	1.698137
0.023145	1.698145
0.023242	1.697726
0.023340	1.696880
0.023437	1.695492
0.023535	1.693775
0.023633	1.691680
0.023730	1.689235
0.023828	1.686573
0.023926	1.683708
0.024023	1.680691
0.024121	1.677639
0.024219	1.674839
0.024316	1.672132
0.024414	1.670001
0.024512	1.668405
0.024609	1.667029
0.024707	1.666162
0.024805	1.665515
0.024902	1.664937
0.025000	1.664395
0.025098	1.663818
0.025195	1.663356
0.025293	1.662852
0.025391	1.662370
0.025488	1.661826
0.025586	1.661421
0.025684	1.661064
0.025781	1.660760
0.025879	1.660577
0.025977	1.660506
0.026074	1.660606
0.026172	1.660650
0.026270	1.660846
0.026367	1.661119
0.026465	1.661359
0.026562	1.661682
0.026660	1.661919
0.026758	1.662107
0.026855	1.662297
0.026953	1.662392
0.027051	1.662757
0.027148	1.662999
0.027246	1.663228
0.027344	1.663527
0.027441	1.663694
0.027539	1.663771
0.027637	1.663920
0.027734	1.664003
0.027832	1.664225
0.027930	1.664480
0.028027	1.664886
0.028125	1.665415
0.028223	1.665971
0.028320	1.666786
0.028418	1.667702
0.028516	1.668696
0.028613	1.669864
0.028711	1.670998
0.028809	1.672272
0.028906	1.673608
0.029004	1.674937
0.029102	1.676248
0.029199	1.677335
0.029297	1.678266
0.029395	1.678958
0.029492	1.679647
0.029590	1.680310
0.029687	1.681034
0.029785	1.681707
0.029883	1.682531
0.029980	1.683291
0.030078	1.683961
0.030176	1.684752
0.030273	1.685525
0.030371	1.686288
0.030469	1.687189
0.030566	1.688118
0.030664	1.689076
0.030762	1.690109
0.030859	1.691156
0.030957	1.692157
0.031055	1.693070
0.031152	1.693909
0.031250	1.694854
0.031348	1.695734
0.031445	1.696550
0.031543	1.697364
0.031641	1.697869
0.031738	1.698356
0.031836	1.698713
0.031934	1.698879
0.032031	1.699101
0.032129	1.699316
0.032227	1.699918
0.032324	1.700676
0.032422	1.701500
0.032520	1.702170
0.032617	1.702586
0.032715	1.702530
0.032812	1.702005
0.032910	1.700905
0.033008	1.699387
0.033105	1.697732
0.033203	1.696418
0.033301	1.695599
0.033398	1.695118
0.033496	1.695063
0.033594	1.695197
0.033691	1.695566
0.033789	1.695942
0.033887	1.696443
0.033984	1.696927
0.034082	1.697237
0.034180	1.697671
0.034277	1.698045
0.034375	1.698497
0.034473	1.698879
0.034570	1.699109
0.034668	1.699057
0.034766	1.698768
0.034863	1.698069
0.034961	1.696901
0.035059	1.695384
0.035156	1.693964
0.035254	1.692349
0.035352	1.690839
0.035449	1.689184
0.035547	1.687347
0.035645	1.685684
0.035742	1.684130
0.035840	1.682687
0.035937	1.681425
0.036035	1.680307
0.036133	1.679445
0.036230	1.678848
0.036328	1.678330
0.036426	1.677836
0.036523	1.677162
0.036621	1.676441
0.036719	1.675493
0.036816	1.674623
0.036914	1.673610
0.037012	1.672757
0.037109	1.671910
0.037207	1.671224
0.037305	1.670242
0.037402	1.669452
0.037500	1.668499
0.037598	1.667725
0.037695	1.666884
0.037793	1.665992
0.037891	1.665321
0.037988	1.664719
0.038086	1.664083
0.038184	1.663536
0.038281	1.663043
0.038379	1.662629
0.038477	1.662350
0.038574	1.662257
0.038672	1.662222
0.038770	1.662245
0.038867	1.662265
0.038965	1.662390
0.039062	1.662450
0.039160	1.662467
0.039258	1.662566
0.039355	1.662785
0.039453	1.662903
0.039551	1.663136
0.039648	1.663481
0.039746	1.663742
0.039844	1.664142
0.039941	1.664634
0.040039	1.665075
0.040137	1.665741
0.040234	1.666465
0.040332	1.667131
0.040430	1.667841
0.040527	1.668719
0.040625	1.669470
0.040723	1.670205
0.040820	1.670937
0.040918	1.671398
0.041016	1.671828
0.041113	1.672095
0.041211	1.672167
0.041309	1.671965
0.041406	1.671750
0.041504	1.671638
0.041602	1.671596
0.041699	1.671659
0.041797	1.671844
0.041895	1.672067
0.041992	1.672466
0.042090	1.672805
0.042187	1.673270
0.042285	1.673693
0.042383	1.674172
0.042480	1.674852
0.042578	1.675577
0.042676	1.676291
0.042773	1.677255
0.042871	1.678085
0.042969	1.679014
0.043066	1.679946
0.043164	1.680723
0.043262	1.681514
0.043359	1.682180
0.043457	1.682776
0.043555	1.683202
0.043652	1.683626
0.043750	1.684174
0.043848	1.684623
0.043945	1.685284
0.044043	1.686065
0.044141	1.686923
0.044238	1.687872
0.044336	1.688706
0.044434	1.689649
0.044531	1.690549
0.044629	1.691435
0.044727	1.692414
0.044824	1.693525
0.044922	1.694492
0.045020	1.695473
0.045117	1.696246
0.045215	1.696905
0.045312	1.697618
0.045410	1.698373
0.045508	1.699502
0.045605	1.701092
0.045703	1.703049
0.045801	1.705818
0.045898	1.708815
0.045996	1.711314
0.046094	1.712757
0.046191	1.715487
0.046289	1.716284
0.046387	1.698893
0.046484	1.699228
0.046582	1.699753
0.046680	1.694631
0.046777	1.690554
0.046875	1.688050
0.046973	1.686871
0.047070	1.686179
0.047168	1.685995
0.047266	1.686028
0.047363	1.686198
0.047461	1.686648
0.047559	1.687358
0.047656	1.687992
0.047754	1.688616
0.047852	1.688966
0.047949	1.688990
0.048047	1.688697
0.048145	1.687950
0.048242	1.687065
0.048340	1.686158
0.048437	1.685180
0.048535	1.684312
0.048633	1.683371
0.048730	1.682545
0.048828	1.681438
0.048926	1.680358
0.049023	1.679223
0.049121	1.678014
0.049219	1.676863
0.049316	1.675700
0.049414	1.674751
0.049512	1.673856
0.049609	1.673169
0.049707	1.672597
0.049805	1.672167
0.049902	1.671932
0.050000	1.671827
0.050098	1.671846
0.050195	1.671697
0.050293	1.671710
0.050391	1.671628
0.050488	1.671619
0.050586	1.671450
0.050684	1.671275
0.050781	1.670813
0.050879	1.670247
0.050977	1.669430
0.051074	1.668619
0.051172	1.667785
0.051270	1.666878
0.051367	1.665902
0.051465	1.664690
0.051562	1.663410
0.051660	1.662036
0.051758	1.660470
0.051855	1.658688
0.051953	1.656774
0.052051	1.654808
0.052148	1.652913
0.052246	1.651429
0.052344	1.650237
0.052441	1.649299
0.052539	1.648434
0.052637	1.647921
0.052734	1.647471
0.052832	1.647245
0.052930	1.647129
0.053027	1.647191
0.053125	1.647337
0.053223	1.647604
0.053320	1.647979
0.053418	1.648384
0.053516	1.648896
0.053613	1.649498
0.053711	1.650266
0.053809	1.651036
0.053906	1.651985
0.054004	1.652958
0.054102	1.654120
0.054199	1.655443
0.054297	1.656709
0.054395	1.658158
0.054492	1.659723
0.054590	1.661114
0.054687	1.662730
0.054785	1.664253
0.054883	1.665665
0.054980	1.667020
0.055078	1.668247
0.055176	1.669408
0.055273	1.670628
0.055371	1.671799
0.055469	1.673145
0.055566	1.674415
0.055664	1.675932
0.055762	1.677270
0.055859	1.679025
0.055957	1.680651
0.056055	1.682533
0.056152	1.684068
0.056250	1.685569
0.056348	1.686880
0.056445	1.688081
0.056543	1.689016
0.056641	1.689956
0.056738	1.690759
0.056836	1.691473
0.056934	1.692112
0.057031	1.692808
0.057129	1.693409
0.057227	1.693667
0.057324	1.693938
0.057422	1.694143
0.057520	1.694409
0.057617	1.694615
0.057715	1.695023
0.057812	1.695440
0.057910	1.695864
0.058008	1.696479
0.058105	1.697364
0.058203	1.698454
0.058301	1.699947
0.058398	1.701772
0.058496	1.703790
0.058594	1.706063
0.058691	1.708249
0.058789	1.709618
0.058887	1.709419
0.058984	1.707566
0.059082	1.704814
0.059180	1.702055
0.059277	1.699153
0.059375	1.695793
0.059473	1.692930
0.059570	1.691305
0.059668	1.690491
0.059766	1.690449
0.059863	1.690889
0.059961	1.691593
0.060059	1.692055
0.060156	1.692684
0.060254	1.693135
0.060352	1.693625
0.060449	1.693916
0.060547	1.694190
0.060645	1.694364
0.060742	1.694503
0.060840	1.694550
0.060937	1.694706
0.061035	1.695197
0.061133	1.696146
0.061230	1.697429
0.061328	1.698365
0.061426	1.698765
0.061523	1.699170
0.061621	1.699021
0.061719	1.698904
0.061816	1.698154
0.061914	1.696799
0.062012	1.696371
0.062109	1.697074
0.062207	1.696209
0.062305	1.693130
0.062402	1.689234
0.062500	1.686161
0.062598	1.683716
0.062695	1.681285
0.062793	1.679565
0.062891	1.679558
0.062988	1.680590
0.063086	1.682056
0.063184	1.683543
0.063281	1.684894
0.063379	1.686240
0.063477	1.687266
0.063574	1.688356
0.063672	1.689307
0.063770	1.690291
0.063867	1.691415
0.063965	1.692432
0.064062	1.692977
0.064160	1.693587
0.064258	1.694456
0.064355	1.695657
0.064453	1.695505
0.064551	1.691487
0.064648	1.686917
0.064746	1.682994
0.064844	1.680613
0.064941	1.679964
0.065039	1.680712
0.065137	1.681933
0.065234	1.681317
0.065332	1.680233
0.065430	1.680061
0.065527	1.679127
0.065625	1.678488
0.065723	1.676212
0.065820	1.674904
0.065918	1.673806
0.066016	1.675490
0.066113	1.678512
0.066211	1.686787
0.066309	1.671477
0.066406	1.664481
0.066504	1.667341
0.066602	1.662422
0.066699	1.659942
0.066797	1.656394
0.066895	1.654452
0.066992	1.651577
0.067090	1.650058
0.067187	1.648830
0.067285	1.649110
0.067383	1.649265
0.067480	1.650022
0.067578	1.650650
0.067676	1.651536
0.067773	1.652080
0.067871	1.652691
0.067969	1.653026
0.068066	1.653417
0.068164	1.653487
0.068262	1.653752
0.068359	1.653781
0.068457	1.653934
0.068555	1.654011
0.068652	1.654216
0.068750	1.654469
0.068848	1.654787
0.068945	1.655087
0.069043	1.655577
0.069141	1.655974
0.069238	1.656611
0.069336	1.657099
0.069434	1.657700
0.069531	1.658552
0.069629	1.659292
0.069727	1.660246
0.069824	1.661169
0.069922	1.662218
0.070020	1.663211
0.070117	1.664235
0.070215	1.665235
0.070312	1.666326
0.070410	1.667273
0.070508	1.668339
0.070605	1.669228
0.070703	1.670125
0.070801	1.670914
0.070898	1.671712
0.070996	1.672535
0.071094	1.673345
0.071191	1.674242
0.071289	1.675361
0.071387	1.676502
0.071484	1.677669
0.071582	1.679030
0.071680	1.680357
0.071777	1.681794
0.071875	1.683168
0.071973	1.684686
0.072070	1.686003
0.072168	1.687203
0.072266	1.688404
0.072363	1.689428
0.072461	1.690372
0.072559	1.691141
0.072656	1.691773
0.072754	1.692305
0.072852	1.692853
0.072949	1.693245
0.073047	1.693665
0.073145	1.693872
0.073242	1.694110
0.073340	1.694309
0.073437	1.694590
0.073535	1.695154
0.073633	1.696014
0.073730	1.697203
0.073828	1.698600
0.073926	1.700263
0.074023	1.701742
0.074121	1.703056
0.074219	1.704070
0.074316	1.704733
0.074414	1.705370
0.074512	1.705985
0.074609	1.706475
0.074707	1.706707
0.074805	1.706291
0.074902	1.705675
0.075000	1.705127
0.075098	1.704707
0.075195	1.704250
0.075293	1.703820
0.075391	1.703233
0.075488	1.702475
0.075586	1.701501
0.075684	1.700229
0.075781	1.699128
0.075879	1.698477
0.075977	1.698110
0.076074	1.697863
0.076172	1.697653
0.076270	1.697767
0.076367	1.698374
0.076465	1.699245
0.076562	1.700147
0.076660	1.700616
0.076758	1.700261
0.076855	1.699089
0.076953	1.697582
0.077051	1.696435
0.077148	1.695781
0.077246	1.695574
0.077344	1.695577
0.077441	1.695082
0.077539	1.693495
0.077637	1.691309
0.077734	1.688807
0.077832	1.686602
0.077930	1.685071
0.078027	1.683965
0.078125	1.683531
0.078223	1.683580
0.078320	1.684124
0.078418	1.684997
0.078516	1.685930
0.078613	1.686872
0.078711	1.688149
0.078809	1.690389
0.078906	1.693204
0.079004	1.695367
0.079102	1.695760
0.079199	1.693187
0.079297	1.688511
0.079395	1.684406
0.079492	1.681273
0.079590	1.677968
0.079687	1.674818
0.079785	1.672343
0.079883	1.670554
0.079980	1.669417
0.080078	1.669174
0.080176	1.669506
0.080273	1.670388
0.080371	1.671709
0.080469	1.672893
0.080566	1.674038
0.080664	1.674715
0.080762	1.674976
0.080859	1.674633
0.080957	1.674005
0.081055	1.673092
0.081152	1.671799
0.081250	1.670053
0.081348	1.668275
0.081445	1.666278
0.081543	1.664495
0.081641	1.662954
0.081738	1.661809
0.081836	1.661049
0.081934	1.660554
0.082031	1.660439
0.082129	1.660440
0.082227	1.660717
0.082324	1.660980
0.082422	1.661342
0.082520	1.661863
0.082617	1.662336
0.082715	1.662741
0.082812	1.663163
0.082910	1.663537
0.083008	1.664219
0.083105	1.664919
0.083203	1.665878
0.083301	1.667137
0.083398	1.668705
0.083496	1.670287
0.083594	1.671636
0.083691	1.672621
0.083789	1.673394
0.083887	1.674128
0.083984	1.674791
0.084082	1.675491
0.084180	1.676439
0.084277	1.677541
0.084375	1.678162
0.084473	1.678621
0.084570	1.678924
0.084668	1.678642
0.084766	1.677790
0.084863	1.676519
0.084961	1.675125
0.085059	1.673860
0.085156	1.672630
0.085254	1.671381
0.085352	1.670471
0.085449	1.669525
0.085547	1.668738
0.085645	1.668179
0.085742	1.667710
0.085840	1.667348
0.085937	1.667040
0.086035	1.666839
0.086133	1.666725
0.086230	1.666617
0.086328	1.666606
0.086426	1.666619
0.086523	1.666816
0.086621	1.667041
0.086719	1.667309
0.086816	1.667711
0.086914	1.668103
0.087012	1.668666
0.087109	1.669315
0.087207	1.669974
0.087305	1.670764
0.087402	1.671616
0.087500	1.672606
0.087598	1.673688
0.087695	1.674865
0.087793	1.676057
0.087891	1.677294
0.087988	1.678532
0.088086	1.679295
0.088184	1.679830
0.088281	1.680336
0.088379	1.680536
0.088477	1.681000
0.088574	1.681493
0.088672	1.682377
0.088770	1.683491
0.088867	1.684813
0.088965	1.686386
0.089062	1.687910
0.089160	1.689452
0.089258	1.691188
0.089355	1.692941
0.089453	1.694815
0.089551	1.696855
0.089648	1.698966
0.089746	1.700909
0.089844	1.701683
0.089941	1.701166
0.090039	1.700185
0.090137	1.699351
0.090234	1.698583
0.090332	1.697974
0.090430	1.697294
0.090527	1.696798
0.090625	1.696128
0.090723	1.695534
0.090820	1.695155
0.090918	1.695000
0.091016	1.695316
0.091113	1.695875
0.091211	1.696750
0.091309	1.697718
0.091406	1.698469
0.091504	1.699294
0.091602	1.699851
0.091699	1.700681
0.091797	1.701754
0.091895	1.703377
0.091992	1.705391
0.092090	1.707438
0.092187	1.709321
0.092285	1.710721
0.092383	1.711566
0.092480	1.712537
0.092578	1.713919
0.092676	1.713900
0.092773	1.711194
0.092871	1.708474
0.092969	1.706667
0.093066	1.704579
0.093164	1.702424
0.093262	1.699915
0.093359	1.697526
0.093457	1.695416
0.093555	1.693722
0.093652	1.692365
0.093750	1.691221
0.093848	1.690695
0.093945	1.690299
0.094043	1.690660
0.094141	1.691120
0.094238	1.692356
0.094336	1.693387
0.094434	1.694804
0.094531	1.695574
0.094629	1.697362
0.094727	1.700284
0.094824	1.705181
0.094922	1.703907
0.095020	1.706470
0.095117	1.702312
0.095215	1.681979
0.095312	1.677313
0.095410	1.672742
0.095508	1.668509
0.095605	1.665352
0.095703	1.662804
0.095801	1.660300
0.095898	1.658107
0.095996	1.655984
0.096094	1.654267
0.096191	1.652667
0.096289	1.651144
0.096387	1.649935
0.096484	1.648889
0.096582	1.647990
0.096680	1.647363
0.096777	1.646885
0.096875	1.646781
0.096973	1.646633
0.097070	1.646926
0.097168	1.647142
0.097266	1.647725
0.097363	1.648223
0.097461	1.648909
0.097559	1.649872
0.097656	1.650854
0.097754	1.652122
0.097852	1.653544
0.097949	1.654980
0.098047	1.656701
0.098145	1.658571
0.098242	1.660508
0.098340	1.662548
0.098437	1.664538
0.098535	1.666623
0.098633	1.668554
0.098730	1.670435
0.098828	1.672377
0.098926	1.674222
0.099023	1.676119
0.099121	1.677914
0.099219	1.679743
0.099316	1.681585
0.099414	1.683406
0.099512	1.685088
0.099609	1.686461
0.099707	1.687587
0.099805	1.688005
0.099902	1.687961
0.100000	1.687869
0.100098	1.687886
0.100195	1.688080
0.100293	1.688387
0.100391	1.688754
0.100488	1.689162
0.100586	1.689691
0.100684	1.689954
0.100781	1.689527
0.100879	1.688597
0.100977	1.687946
0.101074	1.687791
0.101172	1.688104
0.101270	1.688727
0.101367	1.689480
0.101465	1.690433
0.101562	1.691462
0.101660	1.692136
0.101758	1.692298
0.101855	1.691885
0.101953	1.691495
0.102051	1.691059
0.102148	1.690976
0.102246	1.691167
0.102344	1.691626
0.102441	1.692419
0.102539	1.693195
0.102637	1.693315
0.102734	1.692622
0.102832	1.691989
0.102930	1.691075
0.103027	1.689469
0.103125	1.687746
0.103223	1.686115
0.103320	1.685063
0.103418	1.684287
0.103516	1.683834
0.103613	1.683492
0.103711	1.683318
0.103809	1.683171
0.103906	1.683336
0.104004	1.683281
0.104102	1.683307
0.104199	1.683130
0.104297	1.682620
0.104395	1.681632
0.104492	1.680617
0.104590	1.679755
0.104687	1.678941
0.104785	1.678229
0.104883	1.677563
0.104980	1.676959
0.105078	1.676553
0.105176	1.676272
0.105273	1.676282
0.105371	1.676452
0.105469	1.676771
0.105566	1.677295
0.105664	1.677807
0.105762	1.678495
0.105859	1.679127
0.105957	1.679697
0.106055	1.680372
0.106152	1.680859
0.106250	1.681428
0.106348	1.681986
0.106445	1.682606
0.106543	1.683064
0.106641	1.683648
0.106738	1.684155
0.106836	1.684515
0.106934	1.684683
0.107031	1.684660
0.107129	1.684869
0.107227	1.684990
0.107324	1.685424
0.107422	1.685697
0.107520	1.685879
0.107617	1.685704
0.107715	1.685197
0.107812	1.684739
0.107910	1.684382
0.108008	1.683960
0.108105	1.683516
0.108203	1.683076
0.108301	1.682399
0.108398	1.682000
0.108496	1.681453
0.108594	1.681325
0.108691	1.680936
0.108789	1.680495
0.108887	1.679775
0.108984	1.678950
0.109082	1.678109
0.109180	1.677102
0.109277	1.676020
0.109375	1.675118
0.109473	1.674268
0.109570	1.674042
0.109668	1.673910
0.109766	1.674025
0.109863	1.674144
0.109961	1.674118
0.110059	1.674158
0.110156	1.674041
0.110254	1.674175
0.110352	1.674031
0.110449	1.674080
0.110547	1.674160
0.110645	1.674223
0.110742	1.674332
0.110840	1.674480
0.110937	1.674659
0.111035	1.674767
0.111133	1.674866
0.111230	1.674809
0.111328	1.674715
0.111426	1.674335
0.111523	1.673865
0.111621	1.673303
0.111719	1.672906
0.111816	1.672461
0.111914	1.672071
0.112012	1.671619
0.112109	1.671243
0.112207	1.670706
0.112305	1.670357
0.112402	1.669893
0.112500	1.669428
0.112598	1.668981
0.112695	1.668278
0.112793	1.667737
0.112891	1.667016
0.112988	1.666265
0.113086	1.665597
0.113184	1.664792
0.113281	1.664087
0.113379	1.663319
0.113477	1.662490
0.113574	1.661763
0.113672	1.661166
0.113770	1.660855
0.113867	1.660657
0.113965	1.660715
0.114062	1.660903
0.114160	1.661219
0.114258	1.661877
0.114355	1.662601
0.114453	1.663328
0.114551	1.664235
0.114648	1.665183
0.114746	1.666182
0.114844	1.667058
0.114941	1.667851
0.115039	1.668610
0.115137	1.669281
0.115234	1.669898
0.115332	1.670637
0.115430	1.671433
0.115527	1.672319
0.115625	1.673278
0.115723	1.674456
0.115820	1.675711
0.115918	1.677108
0.116016	1.678621
0.116113	1.680130
0.116211	1.681590
0.116309	1.682786
0.116406	1.683867
0.116504	1.684704
0.116602	1.685519
0.116699	1.686034
0.116797	1.686645
0.116895	1.687299
0.116992	1.687943
0.117090	1.688847
0.117187	1.689572
0.117285	1.690289
0.117383	1.690937
0.117480	1.691482
0.117578	1.692038
0.117676	1.692289
0.117773	1.692550
0.117871	1.693043
0.117969	1.693556
0.118066	1.694332
0.118164	1.695034
0.118262	1.696059
0.118359	1.697096
0.118457	1.698407
0.118555	1.699654
0.118652	1.700860
0.118750	1.701708
0.118848	1.702368
0.118945	1.702643
0.119043	1.702869
0.119141	1.703122
0.119238	1.703620
0.119336	1.704319
0.119434	1.704993
0.119531	1.705171
0.119629	1.704914
0.119727	1.704188
0.119824	1.703280
0.119922	1.702532
0.120020	1.701212
0.120117	1.699509
0.120215	1.698023
0.120312	1.696800
0.120410	1.695805
0.120508	1.695174
0.120605	1.695009
0.120703	1.695396
0.120801	1.696326
0.120898	1.697781
0.120996	1.699513
0.121094	1.701626
0.121191	1.703596
0.121289	1.705087
0.121387	1.705739
0.121484	1.705532
0.121582	1.704581
0.121680	1.703298
0.121777	1.702043
0.121875	1.700539
0.121973	1.698659
0.122070	1.696471
0.122168	1.694413
0.122266	1.692569
0.122363	1.691023
0.122461	1.689688
0.122559	1.688540
0.122656	1.687661
0.122754	1.687150
0.122852	1.686823
0.122949	1.686793
0.123047	1.687027
0.123145	1.687225
0.123242	1.687573
0.123340	1.687857
0.123437	1.688074
0.123535	1.687978
0.123633	1.687142
0.123730	1.685810
0.123828	1.684652
0.123926	1.683918
0.124023	1.683328
0.124121	1.683033
0.124219	1.682948
0.124316	1.683158
0.124414	1.683388
0.124512	1.683833
0.124609	1.684223
0.124707	1.684515
0.124805	1.684670
0.124902	1.684270
0.125000	1.683629
0.125098	1.682426
0.125195	1.680943
0.125293	1.679106
0.125391	1.677342
0.125488	1.675390
0.125586	1.673914
0.125684	1.672596
0.125781	1.671583
0.125879	1.670881
0.125977	1.670434
0.126074	1.670222
0.126172	1.670201
0.126270	1.670343
0.126367	1.670639
0.126465	1.671174
0.126562	1.671737
0.126660	1.672557
0.126758	1.673484
0.126855	1.674516
0.126953	1.675623
0.127051	1.676818
0.127148	1.677889
0.127246	1.678844
0.127344	1.679658
0.127441	1.680452
0.127539	1.681180
0.127637	1.681739
0.127734	1.682473
0.127832	1.683063
0.127930	1.683726
0.128027	1.684525
0.128125	1.685233
0.128223	1.686070
0.128320	1.686677
0.128418	1.687235
0.128516	1.687674
0.128613	1.688173
0.128711	1.688491
0.128809	1.688833
0.128906	1.689242
0.129004	1.689591
0.129102	1.690072
0.129199	1.690416
0.129297	1.690524
0.129395	1.690319
0.129492	1.689716
0.129590	1.689210
0.129687	1.688746
0.129785	1.688162
0.129883	1.687651
0.129980	1.687051
0.130078	1.686604
0.130176	1.686087
0.130273	1.685379
0.130371	1.684584
0.130469	1.683445
0.130566	1.682046
0.130664	1.680411
0.130762	1.678797
0.130859	1.677043
0.130957	1.675510
0.131055	1.674007
0.131152	1.672953
0.131250	1.672117
0.131348	1.671551
0.131445	1.671254
0.131543	1.671018
0.131641	1.671004
0.131738	1.670986
0.131836	1.671268
0.131934	1.671672
0.132031	1.671935
0.132129	1.672491
0.132227	1.672784
0.132324	1.673117
0.132422	1.673549
0.132520	1.673903
0.132617	1.674340
0.132715	1.674732
0.132812	1.675141
0.132910	1.675578
0.133008	1.676130
0.133105	1.676923
0.133203	1.677848
0.133301	1.678981
0.133398	1.680284
0.133496	1.681721
0.133594	1.683144
0.133691	1.684311
0.133789	1.685305
0.133887	1.685891
0.133984	1.686293
0.134082	1.686283
0.134180	1.686099
0.134277	1.685810
0.134375	1.685357
0.134473	1.684863
0.134570	1.684457
0.134668	1.684016
0.134766	1.683766
0.134863	1.683823
0.134961	1.684051
0.135059	1.684625
0.135156	1.685438
0.135254	1.686458
0.135352	1.687646
0.135449	1.688824
0.135547	1.689829
0.135645	1.690464
0.135742	1.690860
0.135840	1.690978
0.135937	1.691057
0.136035	1.691167
0.136133	1.691285
0.136230	1.691193
0.136328	1.691222
0.136426	1.691098
0.136523	1.691085
0.136621	1.691153
0.136719	1.691042
0.136816	1.690812
0.136914	1.690408
0.137012	1.689940
0.137109	1.689525
0.137207	1.689026
0.137305	1.688635
0.137402	1.688425
0.137500	1.688396
0.137598	1.688654
0.137695	1.689177
0.137793	1.689825
0.137891	1.690782
0.137988	1.691817
0.138086	1.692928
0.138184	1.694130
0.138281	1.695053
0.138379	1.695654
0.138477	1.696016
0.138574	1.696078
0.138672	1.695968
0.138770	1.695855
0.138867	1.695563
0.138965	1.695578
0.139062	1.695447
0.139160	1.695381
0.139258	1.695451
0.139355	1.695247
0.139453	1.694970
0.139551	1.694423
0.139648	1.693919
0.139746	1.693371
0.139844	1.692977
0.139941	1.692924
0.140039	1.693133
0.140137	1.693455
0.140234	1.693968
0.140332	1.694499
0.140430	1.695217
0.140527	1.696094
0.140625	1.697176
0.140723	1.698241
0.140820	1.699220
0.140918	1.700001
0.141016	1.700426
0.141113	1.700658
0.141211	1.700533
0.141309	1.700383
0.141406	1.700307
0.141504	1.700103
0.141602	1.699942
0.141699	1.699574
0.141797	1.699065
0.141895	1.698587
0.141992	1.698363
0.142090	1.698301
0.142187	1.698575
0.142285	1.699358
0.142383	1.701442
0.142480	1.704265
0.142578	1.707483
0.142676	1.705315
0.142773	1.699935
0.142871	1.693701
0.142969	1.687039
0.143066	1.683583
0.143164	1.680974
0.143262	1.679207
0.143359	1.677306
0.143457	1.675974
0.143555	1.675127
0.143652	1.674864
0.143750	1.674780
0.143848	1.674917
0.143945	1.675054
0.144043	1.675338
0.144141	1.675436
0.144238	1.675899
0.144336	1.676479
0.144434	1.677164
0.144531	1.677909
0.144629	1.678651
0.144727	1.679481
0.144824	1.680699
0.144922	1.681462
0.145020	1.681690
0.145117	1.681366
0.145215	1.680661
0.145312	1.680170
0.145410	1.679336
0.145508	1.678018
0.145605	1.676686
0.145703	1.675943
0.145801	1.674795
0.145898	1.673319
0.145996	1.671431
0.146094	1.669443
0.146191	1.667688
0.146289	1.666459
0.146387	1.665784
0.146484	1.665564
0.146582	1.665727
0.146680	1.665864
0.146777	1.666357
0.146875	1.666767
0.146973	1.667240
0.147070	1.667548
0.147168	1.667348
0.147266	1.666640
0.147363	1.665607
0.147461	1.664440
0.147559	1.663475
0.147656	1.662871
0.147754	1.662580
0.147852	1.662789
0.147949	1.663202
0.148047	1.663691
0.148145	1.664122
0.148242	1.664451
0.148340	1.664667
0.148437	1.664469
0.148535	1.663793
0.148633	1.662937
0.148730	1.662200
0.148828	1.661814
0.148926	1.661620
0.149023	1.661564
0.149121	1.661695
0.149219	1.661871
0.149316	1.662213
0.149414	1.662792
0.149512	1.663450
0.149609	1.664189
0.149707	1.665070
0.149805	1.665907
0.149902	1.666881
0.150000	1.667807
0.150098	1.668723
0.150195	1.669772
0.150293	1.670761
0.150391	1.671967
0.150488	1.673325
0.150586	1.674625
0.150684	1.675973
0.150781	1.677588
0.150879	1.679035
0.150977	1.680527
0.151074	1.682214
0.151172	1.683932
0.151270	1.685867
0.151367	1.687828
0.151465	1.689518
0.151562	1.690656
0.151660	1.691287
0.151758	1.691501
0.151855	1.691521
0.151953	1.691546
0.152051	1.691699
0.152148	1.692057
0.152246	1.692694
0.152344	1.693519
0.152441	1.694829
0.152539	1.696373
0.152637	1.698082
0.152734	1.700062
0.152832	1.702009
0.152930	1.704125
0.153027	1.706141
0.153125	1.708017
0.153223	1.709560
0.153320	1.710322
0.153418	1.710301
0.153516	1.709078
0.153613	1.707357
0.153711	1.705510
0.153809	1.703813
0.153906	1.702283
0.154004	1.701111
0.154102	1.700378
0.154199	1.700064
0.154297	1.700005
0.154395	1.700113
0.154492	1.700364
0.154590	1.700992
0.154687	1.701774
0.154785	1.702953
0.154883	1.704356
0.154980	1.706024
0.155078	1.707777
0.155176	1.709726
0.155273	1.711338
0.155371	1.712668
0.155469	1.712997
0.155566	1.713004
0.155664	1.712824
0.155762	1.712267
0.155859	1.711910
0.155957	1.711629
0.156055	1.710312
0.156152	1.706964
0.156250	1.703818
0.156348	1.701087
0.156445	1.698386
0.156543	1.695872
0.156641	1.693731
0.156738	1.692232
0.156836	1.691429
0.156934	1.690877
0.157031	1.691065
0.157129	1.691530
0.157227	1.692220
0.157324	1.693260
0.157422	1.694272
0.157520	1.695399
0.157617	1.696077
0.157715	1.696099
0.157812	1.695560
0.157910	1.694583
0.158008	1.693018
0.158105	1.691097
0.158203	1.688857
0.158301	1.686931
0.158398	1.685765
0.158496	1.685228
0.158594	1.685058
0.158691	1.685249
0.158789	1.685647
0.158887	1.686244
0.158984	1.687024
0.159082	1.688140
0.159180	1.689410
0.159277	1.691192
0.159375	1.692802
0.159473	1.693890
0.159570	1.693545
0.159668	1.692275
0.159766	1.690594
0.159863	1.688707
0.159961	1.686612
0.160059	1.684668
0.160156	1.682889
0.160254	1.681071
0.160352	1.679231
0.160449	1.677001
0.160547	1.674369
0.160645	1.671680
0.160742	1.669088
0.160840	1.666385
0.160937	1.663690
0.161035	1.660831
0.161133	1.658084
0.161230	1.655402
0.161328	1.652860
0.161426	1.650514
0.161523	1.648160
0.161621	1.646175
0.161719	1.644159
0.161816	1.642261
0.161914	1.640547
0.162012	1.639134
0.162109	1.637696
0.162207	1.636514
0.162305	1.635589
0.162402	1.634827
0.162500	1.634291
0.162598	1.633946
0.162695	1.633734
0.162793	1.633883
0.162891	1.633996
0.162988	1.634395
0.163086	1.634761
0.163184	1.635314
0.163281	1.635986
0.163379	1.636735
0.163477	1.637652
0.163574	1.638707
0.163672	1.639940
0.163770	1.641322
0.163867	1.642634
0.163965	1.644093
0.164062	1.645643
0.164160	1.647188
0.164258	1.648825
0.164355	1.650432
0.164453	1.652156
0.164551	1.653871
0.164648	1.655660
0.164746	1.657321
0.164844	1.659124
0.164941	1.660816
0.165039	1.662534
0.165137	1.664238
0.165234	1.665938
0.165332	1.667672
0.165430	1.669316
0.165527	1.671026
0.165625	1.672680
0.165723	1.674385
0.165820	1.676159
0.165918	1.677832
0.166016	1.679575
0.166113	1.681305
0.166211	1.682944
0.166309	1.684594
0.166406	1.686132
0.166504	1.687737
0.166602	1.689374
0.166699	1.690950
0.166797	1.692416
0.166895	1.693794
0.166992	1.694769
0.167090	1.695738
0.167187	1.696509
0.167285	1.697237
0.167383	1.697935
0.167480	1.698769
0.167578	1.699687
0.167676	1.700713
0.167773	1.701798
0.167871	1.702818
0.167969	1.703363
0.168066	1.703768
0.168164	1.703818
0.168262	1.703759
0.168359	1.703681
0.168457	1.703704
0.168555	1.703961
0.168652	1.704339
0.168750	1.705027
0.168848	1.705879
0.168945	1.706810
0.169043	1.707691
0.169141	1.708407
0.169238	1.709043
0.169336	1.709499
0.169434	1.709875
0.169531	1.710083
0.169629	1.710282
0.169727	1.710467
0.169824	1.710356
0.169922	1.710302
0.170020	1.710209
0.170117	1.710321
0.170215	1.709387
0.170312	1.707630
0.170410	1.705656
0.170508	1.704221
0.170605	1.703183
0.170703	1.702087
0.170801	1.700576
0.170898	1.698466
0.170996	1.696369
0.171094	1.694375
0.171191	1.692826
0.171289	1.691905
0.171387	1.691548
0.171484	1.691746
0.171582	1.692086
0.171680	1.692583
0.171777	1.692785
0.171875	1.692994
0.171973	1.693150
0.172070	1.693485
0.172168	1.694196
0.172266	1.695432
0.172363	1.697101
0.172461	1.699533
0.172559	1.701934
0.172656	1.704239
0.172754	1.705983
0.172852	1.707791
0.172949	1.708882
0.173047	1.709513
0.173145	1.706787
0.173242	1.700261
0.173340	1.697470
0.173437	1.696224
0.173535	1.692352
0.173633	1.686496
0.173730	1.680860
0.173828	1.674600
0.173926	1.668836
0.174023	1.664180
0.174121	1.660544
0.174219	1.657944
0.174316	1.655962
0.174414	1.654577
0.174512	1.653605
0.174609	1.652789
0.174707	1.652197
0.174805	1.651634
0.174902	1.651254
0.175000	1.650958
0.175098	1.650712
0.175195	1.650594
0.175293	1.650551
0.175391	1.650651
0.175488	1.650709
0.175586	1.650793
0.175684	1.650825
0.175781	1.650828
0.175879	1.650836
0.175977	1.650840
0.176074	1.650832
0.176172	1.650734
0.176270	1.650618
0.176367	1.650378
0.176465	1.650156
0.176562	1.649769
0.176660	1.649337
0.176758	1.648828
0.176855	1.648350
0.176953	1.647755
0.177051	1.647294
0.177148	1.646767
0.177246	1.646278
0.177344	1.645678
0.177441	1.645250
0.177539	1.644824
0.177637	1.644387
0.177734	1.644071
0.177832	1.643864
0.177930	1.643581
0.178027	1.643443
0.178125	1.643268
0.178223	1.643160
0.178320	1.643202
0.178418	1.643292
0.178516	1.643396
0.178613	1.643592
0.178711	1.644048
0.178809	1.644491
0.178906	1.645102
0.179004	1.645825
0.179102	1.646814
0.179199	1.647794
0.179297	1.648946
0.179395	1.650157
0.179492	1.651436
0.179590	1.652716
0.179687	1.654035
0.179785	1.655325
0.179883	1.656623
0.179980	1.657955
0.180078	1.659232
0.180176	1.660440
0.180273	1.661601
0.180371	1.662749
0.180469	1.663938
0.180566	1.665191
0.180664	1.666407
0.180762	1.667856
0.180859	1.669241
0.180957	1.670838
0.181055	1.672408
0.181152	1.674047
0.181250	1.675614
0.181348	1.677261
0.181445	1.678856
0.181543	1.680635
0.181641	1.682403
0.181738	1.683849
0.181836	1.684834
0.181934	1.685317
0.182031	1.685650
0.182129	1.686037
0.182227	1.686656
0.182324	1.687649
0.182422	1.689015
0.182520	1.690773
0.182617	1.692553
0.182715	1.694109
0.182812	1.694959
0.182910	1.695078
0.183008	1.694768
0.183105	1.694773
0.183203	1.695144
0.183301	1.695997
0.183398	1.697433
0.183496	1.699369
0.183594	1.701289
0.183691	1.703384
0.183789	1.705174
0.183887	1.706936
0.183984	1.708696
0.184082	1.709949
0.184180	1.710650
0.184277	1.712283
0.184375	1.712077
0.184473	1.708459
0.184570	1.704609
0.184668	1.702114
0.184766	1.701401
0.184863	1.701647
0.184961	1.701543
0.185059	1.701914
0.185156	1.702317
0.185254	1.703678
0.185352	1.704989
0.185449	1.706829
0.185547	1.708505
0.185645	1.710714
0.185742	1.712166
0.185840	1.713221
0.185937	1.712557
0.186035	1.713868
0.186133	1.723827
0.186230	1.745382
0.186328	1.712458
0.186426	1.687961
0.186523	1.699097
0.186621	1.705717
0.186719	1.694846
0.186816	1.683009
0.186914	1.688184
0.187012	1.690325
0.187109	1.693871
0.187207	1.694524
0.187305	1.693968
0.187402	1.691415
0.187500	1.689551
0.187598	1.687343
0.187695	1.686497
0.187793	1.684476
0.187891	1.681815
0.187988	1.678430
0.188086	1.675782
0.188184	1.673641
0.188281	1.672309
0.188379	1.671409
0.188477	1.670942
0.188574	1.670827
0.188672	1.670935
0.188770	1.671149
0.188867	1.671528
0.188965	1.671873
0.189062	1.672141
0.189160	1.672563
0.189258	1.673067
0.189355	1.673793
0.189453	1.674716
0.189551	1.675857
0.189648	1.677180
0.189746	1.678406
0.189844	1.679631
0.189941	1.680500
0.190039	1.681028
0.190137	1.681436
0.190234	1.681696
0.190332	1.681831
0.190430	1.681449
0.190527	1.681533
0.190625	1.682348
0.190723	1.684808
0.190820	1.689438
0.190918	1.692756
0.191016	1.690928
0.191113	1.685471
0.191211	1.679493
0.191309	1.669350
0.191406	1.655995
0.191504	1.648497
0.191602	1.647053
0.191699	1.645636
0.191797	1.644528
0.191895	1.643396
0.191992	1.642097
0.192090	1.640765
0.192187	1.639542
0.192285	1.638527
0.192383	1.637686
0.192480	1.637107
0.192578	1.636737
0.192676	1.636586
0.192773	1.636660
0.192871	1.636996
0.192969	1.637463
0.193066	1.638207
0.193164	1.639038
0.193262	1.640071
0.193359	1.641237
0.193457	1.642485
0.193555	1.643815
0.193652	1.644999
0.193750	1.646326
0.193848	1.647448
0.193945	1.648712
0.194043	1.649787
0.194141	1.650956
0.194238	1.652306
0.194336	1.653596
0.194434	1.655383
0.194531	1.657085
0.194629	1.659015
0.194727	1.661211
0.194824	1.663292
0.194922	1.665352
0.195020	1.667453
0.195117	1.669639
0.195215	1.671804
0.195312	1.674127
0.195410	1.676555
0.195508	1.679093
0.195605	1.681452
0.195703	1.683496
0.195801	1.685104
0.195898	1.686385
0.195996	1.687355
0.196094	1.687984
0.196191	1.688226
0.196289	1.688296
0.196387	1.688266
0.196484	1.688183
0.196582	1.688448
0.196680	1.688839
0.196777	1.689682
0.196875	1.690806
0.196973	1.692247
0.197070	1.694062
0.197168	1.695973
0.197266	1.697546
0.197363	1.697692
0.197461	1.697786
0.197559	1.698592
0.197656	1.699834
0.197754	1.701049
0.197852	1.702847
0.197949	1.704582
0.198047	1.706913
0.198145	1.708711
0.198242	1.710586
0.198340	1.711302
0.198437	1.713238
0.198535	1.717122
0.198633	1.725929
0.198730	1.721330
0.198828	1.720049
0.198926	1.723164
0.199023	1.711998
0.199121	1.705111
0.199219	1.696517
0.199316	1.695769
0.199414	1.693639
0.199512	1.690718
0.199609	1.687129
0.199707	1.684306
0.199805	1.681947
0.199902	1.680776
0.200000	1.680043
0.200098	1.680544
0.200195	1.681610
0.200293	1.683601
0.200391	1.686004
0.200488	1.688965
0.200586	1.692131
0.200684	1.695369
0.200781	1.698423
0.200879	1.701717
0.200977	1.704656
0.201074	1.706392
0.201172	1.707567
0.201270	1.705204
0.201367	1.704675
0.201465	1.701134
0.201562	1.693862
0.201660	1.688207
0.201758	1.682363
0.201855	1.678513
0.201953	1.676896
0.202051	1.675168
0.202148	1.674388
0.202246	1.674910
0.202344	1.676816
0.202441	1.678772
0.202539	1.679386
0.202637	1.678469
0.202734	1.677553
0.202832	1.677973
0.202930	1.677666
0.203027	1.674215
0.203125	1.669208
0.203223	1.665662
0.203320	1.664062
0.203418	1.663239
0.203516	1.662900
0.203613	1.662707
0.203711	1.661937
0.203809	1.660360
0.203906	1.658383
0.204004	1.656521
0.204102	1.655267
0.204199	1.654049
0.204297	1.653049
0.204395	1.652330
0.204492	1.652011
0.204590	1.651890
0.204687	1.651919
0.204785	1.652103
0.204883	1.652425
0.204980	1.652867
0.205078	1.653505
0.205176	1.654284
0.205273	1.655166
0.205371	1.656044
0.205469	1.657029
0.205566	1.658127
0.205664	1.659430
0.205762	1.660899
0.205859	1.662207
0.205957	1.662952
0.206055	1.663380
0.206152	1.663627
0.206250	1.663688
0.206348	1.663871
0.206445	1.663848
0.206543	1.663913
0.206641	1.664163
0.206738	1.664466
0.206836	1.664975
0.206934	1.665521
0.207031	1.666130
0.207129	1.667046
0.207227	1.667820
0.207324	1.668544
0.207422	1.669187
0.207520	1.669755
0.207617	1.670594
0.207715	1.671622
0.207812	1.672738
0.207910	1.674031
0.208008	1.675279
0.208105	1.676591
0.208203	1.677949
0.208301	1.679198
0.208398	1.680807
0.208496	1.682565
0.208594	1.684595
0.208691	1.686819
0.208789	1.689187
0.208887	1.691627
0.208984	1.693862
0.209082	1.695297
0.209180	1.696324
0.209277	1.696894
0.209375	1.697299
0.209473	1.697581
0.209570	1.697692
0.209668	1.697817
0.209766	1.697777
0.209863	1.698324
0.209961	1.699361
0.210059	1.700960
0.210156	1.702881
0.210254	1.704793
0.210352	1.706453
0.210449	1.706990
0.210547	1.706546
0.210645	1.706743
0.210742	1.708090
0.210840	1.710300
0.210937	1.711878
0.211035	1.710940
0.211133	1.708936
0.211230	1.706502
0.211328	1.702664
0.211426	1.700092
0.211523	1.699362
0.211621	1.699521
0.211719	1.700293
0.211816	1.701337
0.211914	1.702517
0.212012	1.703111
0.212109	1.702977
0.212207	1.701859
0.212305	1.699923
0.212402	1.696885
0.212500	1.692832
0.212598	1.688022
0.212695	1.682759
0.212793	1.677998
0.212891	1.673976
0.212988	1.670794
0.213086	1.668193
0.213184	1.666187
0.213281	1.664364
0.213379	1.663249
0.213477	1.662755
0.213574	1.662750
0.213672	1.663137
0.213770	1.663901
0.213867	1.664806
0.213965	1.665613
0.214062	1.666325
0.214160	1.666981
0.214258	1.667469
0.214355	1.667764
0.214453	1.668129
0.214551	1.668458
0.214648	1.669050
0.214746	1.669354
0.214844	1.670030
0.214941	1.670587
0.215039	1.671055
0.215137	1.671585
0.215234	1.672161
0.215332	1.672511
0.215430	1.672955
0.215527	1.673101
0.215625	1.673377
0.215723	1.673670
0.215820	1.673977
0.215918	1.674378
0.216016	1.674897
0.216113	1.675590
0.216211	1.676364
0.216309	1.677319
0.216406	1.678340
0.216504	1.679183
0.216602	1.679919
0.216699	1.680295
0.216797	1.680510
0.216895	1.680624
0.216992	1.680396
0.217090	1.680293
0.217187	1.680071
0.217285	1.679713
0.217383	1.679411
0.217480	1.679168
0.217578	1.679041
0.217676	1.679015
0.217773	1.679047
0.217871	1.678909
0.217969	1.678528
0.218066	1.678086
0.218164	1.677521
0.218262	1.677041
0.218359	1.676607
0.218457	1.676370
0.218555	1.676416
0.218652	1.676766
0.218750	1.677267
0.218848	1.677991
0.218945	1.678654
0.219043	1.679307
0.219141	1.679981
0.219238	1.680447
0.219336	1.680940
0.219434	1.681303
0.219531	1.681544
0.219629	1.681566
0.219727	1.681327
0.219824	1.680754
0.219922	1.680278
0.220020	1.679839
0.220117	1.679695
0.220215	1.679619
0.220312	1.679828
0.220410	1.680227
0.220508	1.680602
0.220605	1.681107
0.220703	1.681648
0.220801	1.682368
0.220898	1.683057
0.220996	1.683882
0.221094	1.684786
0.221191	1.685506
0.221289	1.686255
0.221387	1.686836
0.221484	1.687232
0.221582	1.687465
0.221680	1.687419
0.221777	1.686969
0.221875	1.686408
0.221973	1.686054
0.222070	1.685880
0.222168	1.685831
0.222266	1.685777
0.222363	1.685896
0.222461	1.686026
0.222559	1.686193
0.222656	1.686340
0.222754	1.686690
0.222852	1.687080
0.222949	1.687391
0.223047	1.687989
0.223145	1.688650
0.223242	1.689506
0.223340	1.690277
0.223437	1.691100
0.223535	1.691776
0.223633	1.692392
0.223730	1.692897
0.223828	1.693298
0.223926	1.693757
0.224023	1.694070
0.224121	1.694274
0.224219	1.694320
0.224316	1.694121
0.224414	1.693869
0.224512	1.693271
0.224609	1.692738
0.224707	1.691864
0.224805	1.691384
0.224902	1.690780
0.225000	1.690330
0.225098	1.690242
0.225195	1.690298
0.225293	1.690448
0.225391	1.690654
0.225488	1.690694
0.225586	1.690565
0.225684	1.690356
0.225781	1.689929
0.225879	1.689452
0.225977	1.688852
0.226074	1.688225
0.226172	1.687671
0.226270	1.687106
0.226367	1.686598
0.226465	1.686226
0.226562	1.686193
0.226660	1.686281
0.226758	1.686433
0.226855	1.686682
0.226953	1.686676
0.227051	1.686570
0.227148	1.686588
0.227246	1.686242
0.227344	1.686182
0.227441	1.686012
0.227539	1.686034
0.227637	1.686131
0.227734	1.686244
0.227832	1.686253
0.227930	1.686322
0.228027	1.686391
0.228125	1.686390
0.228223	1.686395
0.228320	1.686349
0.228418	1.686003
0.228516	1.685616
0.228613	1.684907
0.228711	1.684026
0.228809	1.683256
0.228906	1.682305
0.229004	1.681685
0.229102	1.681304
0.229199	1.681219
0.229297	1.681175
0.229395	1.681360
0.229492	1.681402
0.229590	1.681375
0.229687	1.681111
0.229785	1.680679
0.229883	1.680216
0.229980	1.679701
0.230078	1.679281
0.230176	1.678654
0.230273	1.678233
0.230371	1.677886
0.230469	1.677530
0.230566	1.677399
0.230664	1.677273
0.230762	1.677297
0.230859	1.677328
0.230957	1.677265
0.231055	1.677182
0.231152	1.676935
0.231250	1.676699
0.231348	1.676384
0.231445	1.676203
0.231543	1.676074
0.231641	1.676187
0.231738	1.676460
0.231836	1.676832
0.231934	1.677526
0.232031	1.678341
0.232129	1.679434
0.232227	1.680614
0.232324	1.681879
0.232422	1.682998
0.232520	1.683933
0.232617	1.684724
0.232715	1.685354
0.232812	1.685939
0.232910	1.686333
0.233008	1.686755
0.233105	1.687161
0.233203	1.687573
0.233301	1.688016
0.233398	1.688441
0.233496	1.688980
0.233594	1.689728
0.233691	1.690378
0.233789	1.691102
0.233887	1.691479
0.233984	1.691670
0.234082	1.691632
0.234180	1.691311
0.234277	1.691147
0.234375	1.690748
0.234473	1.690344
0.234570	1.689884
0.234668	1.689350
0.234766	1.688949
0.234863	1.688295
0.234961	1.687474
0.235059	1.686001
0.235156	1.684018
0.235254	1.682082
0.235352	1.680905
0.235449	1.680433
0.235547	1.680727
0.235645	1.681314
0.235742	1.682266
0.235840	1.683427
0.235937	1.684934
0.236035	1.686548
0.236133	1.688438
0.236230	1.690181
0.236328	1.690612
0.236426	1.689051
0.236523	1.686840
0.236621	1.684955
0.236719	1.683558
0.236816	1.682316
0.236914	1.680907
0.237012	1.679255
0.237109	1.677367
0.237207	1.675218
0.237305	1.672715
0.237402	1.670133
0.237500	1.667541
0.237598	1.665309
0.237695	1.663163
0.237793	1.661525
0.237891	1.660202
0.237988	1.659156
0.238086	1.658656
0.238184	1.658281
0.238281	1.658586
0.238379	1.658888
0.238477	1.659389
0.238574	1.660053
0.238672	1.660765
0.238770	1.661481
0.238867	1.662375
0.238965	1.663187
0.239062	1.664115
0.239160	1.665182
0.239258	1.666121
0.239355	1.666909
0.239453	1.667557
0.239551	1.668037
0.239648	1.668341
0.239746	1.668375
0.239844	1.668351
0.239941	1.668297
0.240039	1.668076
0.240137	1.667992
0.240234	1.668100
0.240332	1.668249
0.240430	1.668619
0.240527	1.669178
0.240625	1.669980
0.240723	1.671014
0.240820	1.672096
0.240918	1.673349
0.241016	1.674357
0.241113	1.675137
0.241211	1.675350
0.241309	1.675103
0.241406	1.674738
0.241504	1.674597
0.241602	1.674636
0.241699	1.674580
0.241797	1.674684
0.241895	1.674734
0.241992	1.674918
0.242090	1.674947
0.242187	1.674912
0.242285	1.674946
0.242383	1.675152
0.242480	1.675494
0.242578	1.675937
0.242676	1.676313
0.242773	1.676369
0.242871	1.676024
0.242969	1.675335
0.243066	1.674660
0.243164	1.673956
0.243262	1.673671
0.243359	1.673734
0.243457	1.674342
0.243555	1.674910
0.243652	1.675796
0.243750	1.676623
0.243848	1.677809
0.243945	1.678972
0.244043	1.680477
0.244141	1.681787
0.244238	1.683224
0.244336	1.683482
0.244434	1.683980
0.244531	1.684235
0.244629	1.686389
0.244727	1.687898
0.244824	1.691168
0.244922	1.692932
0.245020	1.696086
0.245117	1.704137
0.245215	1.710179
0.245312	1.695233
0.245410	1.714921
0.245508	1.721599
0.245605	1.719320
0.245703	1.727293
0.245801	1.708324
0.245898	1.698493
0.245996	1.690748
0.246094	1.688713
0.246191	1.685245
0.246289	1.683951
0.246387	1.682035
0.246484	1.682155
0.246582	1.680766
0.246680	1.678412
0.246777	1.673148
0.246875	1.669782
0.246973	1.667225
0.247070	1.665349
0.247168	1.663047
0.247266	1.661019
0.247363	1.659009
0.247461	1.657473
0.247559	1.655979
0.247656	1.654939
0.247754	1.654190
0.247852	1.653482
0.247949	1.652929
0.248047	1.652560
0.248145	1.652306
0.248242	1.652302
0.248340	1.652197
0.248437	1.652322
0.248535	1.652428
0.248633	1.652592
0.248730	1.652835
0.248828	1.653116
0.248926	1.653613
0.249023	1.654104
0.249121	1.654759
0.249219	1.655532
0.249316	1.656322
0.249414	1.657181
0.249512	1.658203
0.249609	1.659175
0.249707	1.660320
0.249805	1.661572
0.249902	1.663026
0.250000	1.664621
0.250098	1.666233
0.250195	1.668009
0.250293	1.669771
0.250391	1.671691
0.250488	1.673571
0.250586	1.675385
0.250684	1.677238
0.250781	1.678886
0.250879	1.680535
0.250977	1.682069
0.251074	1.683397
0.251172	1.684663
0.251270	1.685506
0.251367	1.686184
0.251465	1.686407
0.251562	1.686272
0.251660	1.686020
0.251758	1.685845
0.251855	1.685946
0.251953	1.686324
0.252051	1.686817
0.252148	1.687456
0.252246	1.688194
0.252344	1.688926
0.252441	1.689593
0.252539	1.690231
0.252637	1.690937
0.252734	1.691708
0.252832	1.692863
0.252930	1.694175
0.253027	1.695846
0.253125	1.697551
0.253223	1.699397
0.253320	1.701162
0.253418	1.702783
0.253516	1.704230
0.253613	1.705344
0.253711	1.706121
0.253809	1.706580
0.253906	1.706958
0.254004	1.706995
0.254102	1.707427
0.254199	1.708394
0.254297	1.711668
0.254395	1.716690
0.254492	1.724265
0.254590	1.728506
0.254687	1.727185
0.254785	1.718760
0.254883	1.718503
0.254980	1.719940
0.255078	1.712453
0.255176	1.700171
0.255273	1.688538
0.255371	1.685455
0.255469	1.683337
0.255566	1.682482
0.255664	1.681453
0.255762	1.681367
0.255859	1.681442
0.255957	1.681759
0.256055	1.681493
0.256152	1.680279
0.256250	1.678645
0.256348	1.676613
0.256445	1.674970
0.256543	1.673241
0.256641	1.672104
0.256738	1.670822
0.256836	1.670280
0.256934	1.669806
0.257031	1.670767
0.257129	1.671171
0.257227	1.674969
0.257324	1.676395
0.257422	1.703085
0.257520	1.745607
0.257617	1.706003
0.257715	1.735980
0.257812	1.698033
0.257910	1.687547
0.258008	1.621121
0.258105	1.640028
0.258203	1.692740
0.258301	1.673056
0.258398	1.684278
0.258496	1.675257
0.258594	1.673221
0.258691	1.664398
0.258789	1.666231
0.258887	1.662060
0.258984	1.664244
0.259082	1.662416
0.259180	1.664606
0.259277	1.663536
0.259375	1.665036
0.259473	1.664455
0.259570	1.665838
0.259668	1.665874
0.259766	1.667463
0.259863	1.668234
0.259961	1.670047
0.260059	1.671466
0.260156	1.673397
0.260254	1.674987
0.260352	1.676995
0.260449	1.678683
0.260547	1.680585
0.260645	1.681948
0.260742	1.683070
0.260840	1.683453
0.260937	1.683594
0.261035	1.683374
0.261133	1.683142
0.261230	1.682844
0.261328	1.682595
0.261426	1.682045
0.261523	1.681285
0.261621	1.680166
0.261719	1.678914
0.261816	1.677686
0.261914	1.676569
0.262012	1.675843
0.262109	1.675267
0.262207	1.675035
0.262305	1.674964
0.262402	1.675041
0.262500	1.675267
0.262598	1.675581
0.262695	1.676024
0.262793	1.676431
0.262891	1.676871
0.262988	1.677551
0.263086	1.678415
0.263184	1.679918
0.263281	1.681724
0.263379	1.684085
0.263477	1.686400
0.263574	1.688547
0.263672	1.689938
0.263770	1.691091
0.263867	1.691887
0.263965	1.692603
0.264062	1.692929
0.264160	1.693151
0.264258	1.692999
0.264355	1.692464
0.264453	1.691517
0.264551	1.690455
0.264648	1.689475
0.264746	1.688882
0.264844	1.688703
0.264941	1.688919
0.265039	1.689325
0.265137	1.689653
0.265234	1.689840
0.265332	1.689792
0.265430	1.689522
0.265527	1.688827
0.265625	1.687888
0.265723	1.686657
0.265820	1.685348
0.265918	1.684267
0.266016	1.683451
0.266113	1.682924
0.266211	1.682577
0.266309	1.682412
0.266406	1.682410
0.266504	1.682427
0.266602	1.682516
0.266699	1.682708
0.266797	1.682965
0.266895	1.683226
0.266992	1.683506
0.267090	1.683869
0.267187	1.684127
0.267285	1.684617
0.267383	1.685045
0.267480	1.685647
0.267578	1.686507
0.267676	1.687516
0.267773	1.688752
0.267871	1.690092
0.267969	1.691563
0.268066	1.693149
0.268164	1.694688
0.268262	1.695932
0.268359	1.695972
0.268457	1.695216
0.268555	1.694389
0.268652	1.693721
0.268750	1.693465
0.268848	1.693304
0.268945	1.693260
0.269043	1.693185
0.269141	1.693245
0.269238	1.693215
0.269336	1.693207
0.269434	1.693207
0.269531	1.693216
0.269629	1.693262
0.269727	1.693397
0.269824	1.693579
0.269922	1.693725
0.270020	1.693829
0.270117	1.693876
0.270215	1.693830
0.270312	1.693783
0.270410	1.693689
0.270508	1.693631
0.270605	1.693682
0.270703	1.693726
0.270801	1.693657
0.270898	1.693329
0.270996	1.692880
0.271094	1.692515
0.271191	1.692224
0.271289	1.691710
0.271387	1.691193
0.271484	1.690603
0.271582	1.690094
0.271680	1.689629
0.271777	1.689365
0.271875	1.689087
0.271973	1.688883
0.272070	1.688524
0.272168	1.688060
0.272266	1.687050
0.272363	1.685971
0.272461	1.684351
0.272559	1.682286
0.272656	1.680153
0.272754	1.677914
0.272852	1.675921
0.272949	1.673957
0.273047	1.672142
0.273145	1.670522
0.273242	1.669218
0.273340	1.668219
0.273437	1.667625
0.273535	1.667333
0.273633	1.667187
0.273730	1.667168
0.273828	1.667322
0.273926	1.667536
0.274023	1.667798
0.274121	1.668077
0.274219	1.668391
0.274316	1.668586
0.274414	1.668873
0.274512	1.669139
0.274609	1.669490
0.274707	1.669800
0.274805	1.670276
0.274902	1.670865
0.275000	1.671464
0.275098	1.672139
0.275195	1.672881
0.275293	1.673565
0.275391	1.674331
0.275488	1.674925
0.275586	1.675865
0.275684	1.676665
0.275781	1.677757
0.275879	1.679192
0.275977	1.680775
0.276074	1.682806
0.276172	1.685079
0.276270	1.687265
0.276367	1.688555
0.276465	1.688797
0.276562	1.688799
0.276660	1.689062
0.276758	1.689317
0.276855	1.689334
0.276953	1.688720
0.277051	1.687679
0.277148	1.686773
0.277246	1.686077
0.277344	1.685514
0.277441	1.685261
0.277539	1.685471
0.277637	1.685884
0.277734	1.686296
0.277832	1.686950
0.277930	1.687605
0.278027	1.688382
0.278125	1.689346
0.278223	1.690560
0.278320	1.692310
0.278418	1.694388
0.278516	1.696976
0.278613	1.699947
0.278711	1.703131
0.278809	1.705896
0.278906	1.708220
0.279004	1.709858
0.279102	1.710312
0.279199	1.712423
0.279297	1.710433
0.279395	1.706791
0.279492	1.704383
0.279590	1.703252
0.279687	1.702074
0.279785	1.700737
0.279883	1.699051
0.279980	1.697785
0.280078	1.697244
0.280176	1.697304
0.280273	1.697706
0.280371	1.698631
0.280469	1.699486
0.280566	1.700057
0.280664	1.700695
0.280762	1.702513
0.280859	1.705026
0.280957	1.706746
0.281055	1.708058
0.281152	1.708092
0.281250	1.704063
0.281348	1.703784
0.281445	1.699245
0.281543	1.705561
0.281641	1.711949
0.281738	1.709055
0.281836	1.694116
0.281934	1.695982
0.282031	1.694183
0.282129	1.684803
0.282227	1.698672
0.282324	1.690295
0.282422	1.709356
0.282520	1.688725
0.282617	1.648430
0.282715	1.604409
0.282812	1.643064
0.282910	1.655521
0.283008	1.624147
0.283105	1.666202
0.283203	1.666318
0.283301	1.668601
0.283398	1.667082
0.283496	1.667544
0.283594	1.665412
0.283691	1.665028
0.283789	1.663713
0.283887	1.663962
0.283984	1.663255
0.284082	1.663565
0.284180	1.663715
0.284277	1.664742
0.284375	1.665769
0.284473	1.667571
0.284570	1.669245
0.284668	1.671431
0.284766	1.673573
0.284863	1.676072
0.284961	1.678106
0.285059	1.680264
0.285156	1.681994
0.285254	1.683376
0.285352	1.684000
0.285449	1.684216
0.285547	1.684221
0.285645	1.684382
0.285742	1.684695
0.285840	1.685157
0.285937	1.685881
0.286035	1.686508
0.286133	1.687193
0.286230	1.687726
0.286328	1.688177
0.286426	1.688545
0.286523	1.688839
0.286621	1.689315
0.286719	1.690003
0.286816	1.691056
0.286914	1.692293
0.287012	1.693473
0.287109	1.693849
0.287207	1.693354
0.287305	1.693783
0.287402	1.696343
0.287500	1.697611
0.287598	1.699327
0.287695	1.703745
0.287793	1.704916
0.287891	1.690123
0.287988	1.674624
0.288086	1.670708
0.288184	1.672105
0.288281	1.669919
0.288379	1.668360
0.288477	1.666802
0.288574	1.665820
0.288672	1.664986
0.288770	1.664631
0.288867	1.664570
0.288965	1.664865
0.289062	1.665495
0.289160	1.666268
0.289258	1.667431
0.289355	1.669019
0.289453	1.671195
0.289551	1.673750
0.289648	1.676370
0.289746	1.678703
0.289844	1.680968
0.289941	1.683827
0.290039	1.686632
0.290137	1.687773
0.290234	1.686543
0.290332	1.684301
0.290430	1.682646
0.290527	1.681220
0.290625	1.679739
0.290723	1.678159
0.290820	1.675692
0.290918	1.672689
0.291016	1.669088
0.291113	1.665766
0.291211	1.663311
0.291309	1.661603
0.291406	1.660704
0.291504	1.660271
0.291602	1.660211
0.291699	1.660209
0.291797	1.660485
0.291895	1.660747
0.291992	1.661398
0.292090	1.662088
0.292187	1.663129
0.292285	1.664321
0.292383	1.665670
0.292480	1.667155
0.292578	1.668663
0.292676	1.670159
0.292773	1.671412
0.292871	1.672636
0.292969	1.673489
0.293066	1.674262
0.293164	1.674956
0.293262	1.675583
0.293359	1.676361
0.293457	1.677222
0.293555	1.678100
0.293652	1.678909
0.293750	1.679855
0.293848	1.680941
0.293945	1.682266
0.294043	1.683791
0.294141	1.685625
0.294238	1.687613
0.294336	1.689790
0.294434	1.691937
0.294531	1.693885
0.294629	1.695300
0.294727	1.695764
0.294824	1.695518
0.294922	1.694836
0.295020	1.694161
0.295117	1.693296
0.295215	1.692211
0.295312	1.691076
0.295410	1.690032
0.295508	1.689093
0.295605	1.688375
0.295703	1.688047
0.295801	1.687993
0.295898	1.688259
0.295996	1.688933
0.296094	1.689765
0.296191	1.690727
0.296289	1.691316
0.296387	1.691712
0.296484	1.691776
0.296582	1.691753
0.296680	1.691804
0.296777	1.691596
0.296875	1.691376
0.296973	1.691023
0.297070	1.690483
0.297168	1.689882
0.297266	1.689241
0.297363	1.688763
0.297461	1.688542
0.297559	1.688464
0.297656	1.688738
0.297754	1.689149
0.297852	1.689599
0.297949	1.689785
0.298047	1.689796
0.298145	1.689505
0.298242	1.689066
0.298340	1.688670
0.298437	1.688313
0.298535	1.688295
0.298633	1.688426
0.298730	1.687982
0.298828	1.687073
0.298926	1.686255
0.299023	1.685494
0.299121	1.684480
0.299219	1.682945
0.299316	1.681325
0.299414	1.680057
0.299512	1.679531
0.299609	1.679607
0.299707	1.680275
0.299805	1.681357
0.299902	1.682990
0.300000	1.684898
0.300098	1.686860
0.300195	1.688346
0.300293	1.689086
0.300391	1.689052
0.300488	1.688246
0.300586	1.687246
0.300684	1.686378
0.300781	1.685821
0.300879	1.685740
0.300977	1.685952
0.301074	1.686362
0.301172	1.687384
0.301270	1.688689
0.301367	1.689798
0.301465	1.690430
0.301562	1.690632
0.301660	1.690228
0.301758	1.690070
0.301855	1.689848
0.301953	1.689945
0.302051	1.689948
0.302148	1.689489
0.302246	1.688431
0.302344	1.686970
0.302441	1.685727
0.302539	1.683823
0.302637	1.680142
0.302734	1.674796
0.302832	1.668592
0.302930	1.663661
0.303027	1.661338
0.303125	1.660969
0.303223	1.661705
0.303320	1.663194
0.303418	1.664618
0.303516	1.665965
0.303613	1.667043
0.303711	1.668259
0.303809	1.669229
0.303906	1.670784
0.304004	1.672394
0.304102	1.675212
0.304199	1.678340
0.304297	1.684489
0.304395	1.687155
0.304492	1.685547
0.304590	1.687888
0.304687	1.689285
0.304785	1.686897
0.304883	1.680908
0.304980	1.678629
0.305078	1.678724
0.305176	1.675417
0.305273	1.669261
0.305371	1.665864
0.305469	1.662381
0.305566	1.659940
0.305664	1.658066
0.305762	1.657077
0.305859	1.656531
0.305957	1.656767
0.306055	1.657328
0.306152	1.658336
0.306250	1.659552
0.306348	1.661083
0.306445	1.662769
0.306543	1.664505
0.306641	1.666066
0.306738	1.667417
0.306836	1.668310
0.306934	1.669103
0.307031	1.669726
0.307129	1.670548
0.307227	1.671479
0.307324	1.672156
0.307422	1.672828
0.307520	1.673366
0.307617	1.673975
0.307715	1.674515
0.307812	1.675176
0.307910	1.676046
0.308008	1.677004
0.308105	1.678160
0.308203	1.679374
0.308301	1.680617
0.308398	1.681763
0.308496	1.682991
0.308594	1.684034
0.308691	1.684976
0.308789	1.686060
0.308887	1.686962
0.308984	1.687832
0.309082	1.688763
0.309180	1.689622
0.309277	1.690600
0.309375	1.691675
0.309473	1.692850
0.309570	1.694436
0.309668	1.696108
0.309766	1.697768
0.309863	1.699300
0.309961	1.701280
0.310059	1.703667
0.310156	1.705963
0.310254	1.707589
0.310352	1.708051
0.310449	1.707321
0.310547	1.705826
0.310645	1.704348
0.310742	1.702998
0.310840	1.701667
0.310937	1.700476
0.311035	1.699841
0.311133	1.699608
0.311230	1.699912
0.311328	1.700670
0.311426	1.701608
0.311523	1.702646
0.311621	1.703579
0.311719	1.704094
0.311816	1.703809
0.311914	1.702737
0.312012	1.701511
0.312109	1.700411
0.312207	1.699957
0.312305	1.699863
0.312402	1.700413
0.312500	1.701036
0.312598	1.701888
0.312695	1.702764
0.312793	1.703475
0.312891	1.704230
0.312988	1.704933
0.313086	1.705493
0.313184	1.705506
0.313281	1.704887
0.313379	1.704139
0.313477	1.703627
0.313574	1.703580
0.313672	1.703225
0.313770	1.701429
0.313867	1.697730
0.313965	1.694738
0.314062	1.693627
0.314160	1.693408
0.314258	1.693614
0.314355	1.693664
0.314453	1.693692
0.314551	1.693803
0.314648	1.694262
0.314746	1.694710
0.314844	1.695595
0.314941	1.696520
0.315039	1.697245
0.315137	1.697457
0.315234	1.696388
0.315332	1.693852
0.315430	1.690671
0.315527	1.687929
0.315625	1.685584
0.315723	1.683580
0.315820	1.681577
0.315918	1.679126
0.316016	1.676901
0.316113	1.675061
0.316211	1.673602
0.316309	1.672428
0.316406	1.671340
0.316504	1.670464
0.316602	1.669582
0.316699	1.668706
0.316797	1.667663
0.316895	1.666266
0.316992	1.664558
0.317090	1.662808
0.317187	1.661063
0.317285	1.659261
0.317383	1.657911
0.317480	1.656513
0.317578	1.655447
0.317676	1.654295
0.317773	1.653258
0.317871	1.652109
0.317969	1.651004
0.318066	1.649904
0.318164	1.649061
0.318262	1.648259
0.318359	1.647615
0.318457	1.647105
0.318555	1.646808
0.318652	1.646537
0.318750	1.646485
0.318848	1.646558
0.318945	1.646679
0.319043	1.647031
0.319141	1.647340
0.319238	1.647898
0.319336	1.648359
0.319434	1.649095
0.319531	1.649959
0.319629	1.650872
0.319727	1.651950
0.319824	1.653065
0.319922	1.654326
0.320020	1.655706
0.320117	1.657148
0.320215	1.658871
0.320312	1.660633
0.320410	1.662708
0.320508	1.664987
0.320605	1.667294
0.320703	1.669643
0.320801	1.671977
0.320898	1.674157
0.320996	1.676203
0.321094	1.678078
0.321191	1.679641
0.321289	1.680729
0.321387	1.681524
0.321484	1.682187
0.321582	1.682983
0.321680	1.683775
0.321777	1.684758
0.321875	1.686040
0.321973	1.687630
0.322070	1.689752
0.322168	1.692415
0.322266	1.695485
0.322363	1.698324
0.322461	1.699733
0.322559	1.699604
0.322656	1.698435
0.322754	1.697097
0.322852	1.696443
0.322949	1.696623
0.323047	1.697118
0.323145	1.697567
0.323242	1.697770
0.323340	1.697809
0.323437	1.697985
0.323535	1.698418
0.323633	1.699490
0.323730	1.701074
0.323828	1.703120
0.323926	1.705337
0.324023	1.707529
0.324121	1.709302
0.324219	1.710391
0.324316	1.711293
0.324414	1.712213
0.324512	1.713687
0.324609	1.715422
0.324707	1.716591
0.324805	1.717700
0.324902	1.718867
0.325000	1.718571
0.325098	1.715830
0.325195	1.713979
0.325293	1.713545
0.325391	1.713786
0.325488	1.715204
0.325586	1.716200
0.325684	1.716611
0.325781	1.716387
0.325879	1.716358
0.325977	1.715475
0.326074	1.714815
0.326172	1.715728
0.326270	1.721709
0.326367	1.718830
0.326465	1.714269
0.326562	1.712098
0.326660	1.709396
0.326758	1.709704
0.326855	1.710753
0.326953	1.711859
0.327051	1.709019
0.327148	1.702524
0.327246	1.697618
0.327344	1.696803
0.327441	1.695535
0.327539	1.696862
0.327637	1.696636
0.327734	1.698981
0.327832	1.699710
0.327930	1.704955
0.328027	1.708862
0.328125	1.717873
0.328223	1.720387
0.328320	1.731458
0.328418	1.727108
0.328516	1.707442
0.328613	1.682238
0.328711	1.654339
0.328809	1.676980
0.328906	1.697168
0.329004	1.695254
0.329102	1.689573
0.329199	1.638001
0.329297	1.615621
0.329395	1.579245
0.329492	1.572378
0.329590	1.596528
0.329687	1.612974
0.329785	1.641367
0.329883	1.650626
0.329980	1.659988
0.330078	1.657488
0.330176	1.657111
0.330273	1.655242
0.330371	1.656011
0.330469	1.654881
0.330566	1.654993
0.330664	1.654052
0.330762	1.654372
0.330859	1.654239
0.330957	1.655145
0.331055	1.655841
0.331152	1.657086
0.331250	1.658350
0.331348	1.660056
0.331445	1.661630
0.331543	1.663477
0.331641	1.665138
0.331738	1.666792
0.331836	1.668212
0.331934	1.669755
0.332031	1.671693
0.332129	1.674302
0.332227	1.677332
0.332324	1.680448
0.332422	1.680768
0.332520	1.677619
0.332617	1.675529
0.332715	1.674184
0.332812	1.673552
0.332910	1.672572
0.333008	1.671024
0.333105	1.669271
0.333203	1.667812
0.333301	1.667018
0.333398	1.666603
0.333496	1.665758
0.333594	1.664191
0.333691	1.662374
0.333789	1.661611
0.333887	1.660887
0.333984	1.660582
0.334082	1.660294
0.334180	1.660513
0.334277	1.660700
0.334375	1.661822
0.334473	1.663389
0.334570	1.666446
0.334668	1.670005
0.334766	1.675650
0.334863	1.681136
0.334961	1.685103
0.335059	1.686466
0.335156	1.694453
0.335254	1.691925
0.335352	1.680128
0.335449	1.684210
0.335547	1.682955
0.335645	1.684279
0.335742	1.684076
0.335840	1.683460
0.335937	1.680736
0.336035	1.677091
0.336133	1.673859
0.336230	1.672266
0.336328	1.670711
0.336426	1.669698
0.336523	1.668550
0.336621	1.668231
0.336719	1.668211
0.336816	1.668792
0.336914	1.669301
0.337012	1.670092
0.337109	1.671017
0.337207	1.671865
0.337305	1.672786
0.337402	1.673614
0.337500	1.674624
0.337598	1.675853
0.337695	1.677136
0.337793	1.678751
0.337891	1.680755
0.337988	1.682869
0.338086	1.685419
0.338184	1.687781
0.338281	1.690136
0.338379	1.692393
0.338477	1.694733
0.338574	1.697148
0.338672	1.700294
0.338770	1.703428
0.338867	1.707531
0.338965	1.712113
0.339062	1.717072
0.339160	1.714983
0.339258	1.707252
0.339355	1.703428
0.339453	1.700878
0.339551	1.699211
0.339648	1.697479
0.339746	1.696006
0.339844	1.694436
0.339941	1.692853
0.340039	1.691156
0.340137	1.690352
0.340234	1.689786
0.340332	1.689592
0.340430	1.689744
0.340527	1.690172
0.340625	1.690867
0.340723	1.691718
0.340820	1.692473
0.340918	1.693529
0.341016	1.694533
0.341113	1.695540
0.341211	1.696525
0.341309	1.697055
0.341406	1.697115
0.341504	1.696768
0.341602	1.696676
0.341699	1.696517
0.341797	1.696492
0.341895	1.696610
0.341992	1.696728
0.342090	1.696791
0.342187	1.696433
0.342285	1.695897
0.342383	1.694980
0.342480	1.693398
0.342578	1.690672
0.342676	1.687867
0.342773	1.685188
0.342871	1.682389
0.342969	1.679172
0.343066	1.675983
0.343164	1.672657
0.343262	1.669517
0.343359	1.666176
0.343457	1.662658
0.343555	1.659295
0.343652	1.655922
0.343750	1.652932
0.343848	1.650317
0.343945	1.648186
0.344043	1.646299
0.344141	1.644583
0.344238	1.643035
0.344336	1.641644
0.344434	1.640351
0.344531	1.639124
0.344629	1.637861
0.344727	1.636766
0.344824	1.635791
0.344922	1.634738
0.345020	1.633932
0.345117	1.633153
0.345215	1.632631
0.345312	1.632232
0.345410	1.631993
0.345508	1.631791
0.345605	1.631779
0.345703	1.631869
0.345801	1.632118
0.345898	1.632412
0.345996	1.632842
0.346094	1.633415
0.346191	1.633881
0.346289	1.634441
0.346387	1.635129
0.346484	1.635836
0.346582	1.636503
0.346680	1.637363
0.346777	1.638150
0.346875	1.639002
0.346973	1.639821
0.347070	1.640858
0.347168	1.641911
0.347266	1.642933
0.347363	1.643907
0.347461	1.644974
0.347559	1.646054
0.347656	1.647141
0.347754	1.648321
0.347852	1.649421
0.347949	1.650621
0.348047	1.651742
0.348145	1.652834
0.348242	1.653992
0.348340	1.655142
0.348437	1.656332
0.348535	1.657529
0.348633	1.658801
0.348730	1.659929
0.348828	1.661191
0.348926	1.662423
0.349023	1.663693
0.349121	1.665100
0.349219	1.666490
0.349316	1.667892
0.349414	1.669255
0.349512	1.670535
0.349609	1.671704
0.349707	1.672881
0.349805	1.674074
0.349902	1.675238
0.350000	1.676377
0.350098	1.677627
0.350195	1.678904
0.350293	1.680152
0.350391	1.681272
0.350488	1.682457
0.350586	1.683519
0.350684	1.684413
0.350781	1.685259
0.350879	1.685980
0.350977	1.686707
0.351074	1.687449
0.351172	1.688385
0.351270	1.689292
0.351367	1.690309
0.351465	1.691414
0.351562	1.692512
0.351660	1.693805
0.351758	1.695097
0.351855	1.696507
0.351953	1.697885
0.352051	1.699308
0.352148	1.700430
0.352246	1.701105
0.352344	1.701670
0.352441	1.702118
0.352539	1.702226
0.352637	1.701669
0.352734	1.700975
0.352832	1.700591
0.352930	1.701198
0.353027	1.702576
0.353125	1.704638
0.353223	1.706617
0.353320	1.707200
0.353418	1.705126
0.353516	1.702046
0.353613	1.699914
0.353711	1.698668
0.353809	1.698048
0.353906	1.697797
0.354004	1.697668
0.354102	1.697559
0.354199	1.697766
0.354297	1.698123
0.354395	1.698615
0.354492	1.699277
0.354590	1.699937
0.354687	1.700518
0.354785	1.701039
0.354883	1.701503
0.354980	1.701794
0.355078	1.702007
0.355176	1.702151
0.355273	1.702113
0.355371	1.702113
0.355469	1.701904
0.355566	1.701587
0.355664	1.701310
0.355762	1.700925
0.355859	1.700476
0.355957	1.699948
0.356055	1.698884
0.356152	1.697592
0.356250	1.696061
0.356348	1.694487
0.356445	1.692782
0.356543	1.690882
0.356641	1.688746
0.356738	1.686508
0.356836	1.684627
0.356934	1.683017
0.357031	1.681824
0.357129	1.681043
0.357227	1.680506
0.357324	1.679910
0.357422	1.679382
0.357520	1.678933
0.357617	1.678434
0.357715	1.677929
0.357812	1.677390
0.357910	1.676822
0.358008	1.676196
0.358105	1.675485
0.358203	1.674417
0.358301	1.672624
0.358398	1.669228
0.358496	1.664379
0.358594	1.660046
0.358691	1.656808
0.358789	1.654109
0.358887	1.651682
0.358984	1.649708
0.359082	1.648224
0.359180	1.647012
0.359277	1.646266
0.359375	1.645542
0.359473	1.645173
0.359570	1.644827
0.359668	1.644608
0.359766	1.644646
0.359863	1.644691
0.359961	1.644799
0.360059	1.645045
0.360156	1.645305
0.360254	1.645625
0.360352	1.645891
0.360449	1.646267
0.360547	1.646561
0.360645	1.646749
0.360742	1.646908
0.360840	1.647083
0.360937	1.647136
0.361035	1.647141
0.361133	1.647084
0.361230	1.646921
0.361328	1.646722
0.361426	1.646503
0.361523	1.646214
0.361621	1.646018
0.361719	1.645805
0.361816	1.645619
0.361914	1.645366
0.362012	1.645326
0.362109	1.645131
0.362207	1.645077
0.362305	1.645115
0.362402	1.645275
0.362500	1.645378
0.362598	1.645628
0.362695	1.646020
0.362793	1.646347
0.362891	1.646902
0.362988	1.647410
0.363086	1.648112
0.363184	1.648782
0.363281	1.649647
0.363379	1.650377
0.363477	1.651347
0.363574	1.652310
0.363672	1.653289
0.363770	1.654366
0.363867	1.655429
0.363965	1.656627
0.364062	1.657753
0.364160	1.659005
0.364258	1.660404
0.364355	1.661726
0.364453	1.663126
0.364551	1.664622
0.364648	1.666053
0.364746	1.667596
0.364844	1.669160
0.364941	1.670786
0.365039	1.672352
0.365137	1.673987
0.365234	1.675508
0.365332	1.677014
0.365430	1.678407
0.365527	1.679805
0.365625	1.681113
0.365723	1.682459
0.365820	1.684004
0.365918	1.685387
0.366016	1.686990
0.366113	1.688445
0.366211	1.690008
0.366309	1.691272
0.366406	1.692435
0.366504	1.693332
0.366602	1.694047
0.366699	1.694765
0.366797	1.695532
0.366895	1.696374
0.366992	1.697207
0.367090	1.698171
0.367187	1.699156
0.367285	1.700106
0.367383	1.700966
0.367480	1.701728
0.367578	1.702429
0.367676	1.702768
0.367773	1.702667
0.367871	1.702427
0.367969	1.702183
0.368066	1.702301
0.368164	1.702690
0.368262	1.703532
0.368359	1.704793
0.368457	1.706219
0.368555	1.707298
0.368652	1.707427
0.368750	1.706379
0.368848	1.704478
0.368945	1.702755
0.369043	1.701531
0.369141	1.700495
0.369238	1.699636
0.369336	1.699037
0.369434	1.698689
0.369531	1.698951
0.369629	1.699518
0.369727	1.700481
0.369824	1.701807
0.369922	1.703307
0.370020	1.704872
0.370117	1.706153
0.370215	1.706594
0.370312	1.705903
0.370410	1.704098
0.370508	1.701532
0.370605	1.699082
0.370703	1.697042
0.370801	1.695423
0.370898	1.694491
0.370996	1.693947
0.371094	1.693636
0.371191	1.693472
0.371289	1.693031
0.371387	1.692439
0.371484	1.691690
0.371582	1.690887
0.371680	1.690363
0.371777	1.690065
0.371875	1.690178
0.371973	1.690644
0.372070	1.691181
0.372168	1.692097
0.372266	1.693188
0.372363	1.694142
0.372461	1.695034
0.372559	1.695782
0.372656	1.696449
0.372754	1.695786
0.372852	1.693094
0.372949	1.690267
0.373047	1.687221
0.373145	1.683258
0.373242	1.678646
0.373340	1.672900
0.373437	1.665218
0.373535	1.657872
0.373633	1.651884
0.373730	1.647013
0.373828	1.643387
0.373926	1.640705
0.374023	1.638583
0.374121	1.636903
0.374219	1.635666
0.374316	1.634648
0.374414	1.633715
0.374512	1.633125
0.374609	1.632664
0.374707	1.632204
0.374805	1.631752
0.374902	1.631352
0.375000	1.630939
0.375098	1.630618
0.375195	1.630460
0.375293	1.630318
0.375391	1.630230
0.375488	1.630335
0.375586	1.630526
0.375684	1.630883
0.375781	1.631363
0.375879	1.632053
0.375977	1.632701
0.376074	1.633471
0.376172	1.634077
0.376270	1.634723
0.376367	1.635234
0.376465	1.635653
0.376562	1.635895
0.376660	1.636049
0.376758	1.635839
0.376855	1.635379
0.376953	1.634833
0.377051	1.634086
0.377148	1.633493
0.377246	1.632732
0.377344	1.632017
0.377441	1.631185
0.377539	1.630433
0.377637	1.629784
0.377734	1.629289
0.377832	1.628839
0.377930	1.628690
0.378027	1.628611
0.378125	1.628799
0.378223	1.629180
0.378320	1.629728
0.378418	1.630304
0.378516	1.630930
0.378613	1.631663
0.378711	1.632327
0.378809	1.633089
0.378906	1.633703
0.379004	1.634352
0.379102	1.635094
0.379199	1.635780
0.379297	1.636677
0.379395	1.637418
0.379492	1.638391
0.379590	1.639318
0.379687	1.640351
0.379785	1.641508
0.379883	1.642590
0.379980	1.643824
0.380078	1.645107
0.380176	1.646460
0.380273	1.647805
0.380371	1.649198
0.380469	1.650707
0.380566	1.652141
0.380664	1.653706
0.380762	1.655304
0.380859	1.656966
0.380957	1.658679
0.381055	1.660373
0.381152	1.662101
0.381250	1.663983
0.381348	1.665659
0.381445	1.667378
0.381543	1.669041
0.381641	1.670615
0.381738	1.672010
0.381836	1.673456
0.381934	1.674992
0.382031	1.676512
0.382129	1.678124
0.382227	1.679688
0.382324	1.681161
0.382422	1.682361
0.382520	1.683482
0.382617	1.684382
0.382715	1.685330
0.382812	1.686192
0.382910	1.687117
0.383008	1.688031
0.383105	1.689110
0.383203	1.690573
0.383301	1.692026
0.383398	1.693816
0.383496	1.695294
0.383594	1.696706
0.383691	1.697716
0.383789	1.698765
0.383887	1.699947
0.383984	1.701570
0.384082	1.703404
0.384180	1.705533
0.384277	1.707636
0.384375	1.709330
0.384473	1.710282
0.384570	1.710236
0.384668	1.709109
0.384766	1.708050
0.384863	1.707643
0.384961	1.708037
0.385059	1.709815
0.385156	1.712529
0.385254	1.713451
0.385352	1.713248
0.385449	1.712618
0.385547	1.712111
0.385645	1.705158
0.385742	1.696543
0.385840	1.693512
0.385937	1.690795
0.386035	1.688830
0.386133	1.687698
0.386230	1.687282
0.386328	1.687676
0.386426	1.688608
0.386523	1.689354
0.386621	1.689810
0.386719	1.689710
0.386816	1.689459
0.386914	1.688863
0.387012	1.688216
0.387109	1.687939
0.387207	1.687939
0.387305	1.688344
0.387402	1.688910
0.387500	1.688830
0.387598	1.688144
0.387695	1.686973
0.387793	1.685283
0.387891	1.683573
0.387988	1.681957
0.388086	1.680387
0.388184	1.678675
0.388281	1.677064
0.388379	1.675437
0.388477	1.673631
0.388574	1.671701
0.388672	1.669913
0.388770	1.667890
0.388867	1.665462
0.388965	1.662561
0.389062	1.659432
0.389160	1.656235
0.389258	1.653298
0.389355	1.650628
0.389453	1.648218
0.389551	1.646351
0.389648	1.644659
0.389746	1.643289
0.389844	1.642144
0.389941	1.641159
0.390039	1.640375
0.390137	1.639657
0.390234	1.638834
0.390332	1.638138
0.390430	1.637360
0.390527	1.636564
0.390625	1.635780
0.390723	1.634878
0.390820	1.634076
0.390918	1.633109
0.391016	1.632256
0.391113	1.631347
0.391211	1.630647
0.391309	1.629841
0.391406	1.629083
0.391504	1.628490
0.391602	1.627925
0.391699	1.627477
0.391797	1.627218
0.391895	1.626914
0.391992	1.626946
0.392090	1.626885
0.392187	1.627027
0.392285	1.627173
0.392383	1.627391
0.392480	1.627833
0.392578	1.628294
0.392676	1.628771
0.392773	1.629463
0.392871	1.630127
0.392969	1.630870
0.393066	1.631786
0.393164	1.632654
0.393262	1.633724
0.393359	1.634764
0.393457	1.635903
0.393555	1.636998
0.393652	1.638291
0.393750	1.639512
0.393848	1.640912
0.393945	1.642136
0.394043	1.643594
0.394141	1.644907
0.394238	1.646441
0.394336	1.647850
0.394434	1.649489
0.394531	1.651216
0.394629	1.652978
0.394727	1.654836
0.394824	1.656726
0.394922	1.658513
0.395020	1.660375
0.395117	1.662177
0.395215	1.664048
0.395312	1.666020
0.395410	1.667943
0.395508	1.669900
0.395605	1.671893
0.395703	1.673790
0.395801	1.675816
0.395898	1.677837
0.395996	1.680015
0.396094	1.682203
0.396191	1.684248
0.396289	1.686139
0.396387	1.687784
0.396484	1.688852
0.396582	1.689553
0.396680	1.690065
0.396777	1.690372
0.396875	1.690688
0.396973	1.691117
0.397070	1.691834
0.397168	1.692934
0.397266	1.694016
0.397363	1.695232
0.397461	1.696233
0.397559	1.696938
0.397656	1.697146
0.397754	1.697118
0.397852	1.696917
0.397949	1.696676
0.398047	1.696604
0.398145	1.696660
0.398242	1.697027
0.398340	1.697674
0.398437	1.698447
0.398535	1.699444
0.398633	1.700676
0.398730	1.701680
0.398828	1.702555
0.398926	1.703078
0.399023	1.703081
0.399121	1.702544
0.399219	1.701584
0.399316	1.700413
0.399414	1.699137
0.399512	1.698064
0.399609	1.696961
0.399707	1.695895
0.399805	1.694926
0.399902	1.693683
0.400000	1.692413
0.400098	1.690867
0.400195	1.689387
0.400293	1.688069
0.400391	1.687034
0.400488	1.686506
0.400586	1.686173
0.400684	1.686188
0.400781	1.686429
0.400879	1.686866
0.400977	1.687402
0.401074	1.688041
0.401172	1.688712
0.401270	1.689336
0.401367	1.689899
0.401465	1.690500
0.401562	1.690773
0.401660	1.690796
0.401758	1.690093
0.401855	1.688983
0.401953	1.687562
0.402051	1.685934
0.402148	1.684466
0.402246	1.683204
0.402344	1.681823
0.402441	1.680488
0.402539	1.678908
0.402637	1.677418
0.402734	1.675688
0.402832	1.674027
0.402930	1.672236
0.403027	1.670700
0.403125	1.669253
0.403223	1.668000
0.403320	1.667000
0.403418	1.666121
0.403516	1.665473
0.403613	1.665132
0.403711	1.665049
0.403809	1.665135
0.403906	1.665202
0.404004	1.665050
0.404102	1.664391
0.404199	1.662678
0.404297	1.660270
0.404395	1.657360
0.404492	1.654723
0.404590	1.652268
0.404687	1.650010
0.404785	1.647956
0.404883	1.645970
0.404980	1.644027
0.405078	1.642211
0.405176	1.640503
0.405273	1.638720
0.405371	1.637214
0.405469	1.635554
0.405566	1.634140
0.405664	1.632953
0.405762	1.631940
0.405859	1.631214
0.405957	1.630742
0.406055	1.630479
0.406152	1.630393
0.406250	1.630542
0.406348	1.630722
0.406445	1.631192
0.406543	1.631517
0.406641	1.632170
0.406738	1.632765
0.406836	1.633355
0.406934	1.634015
0.407031	1.634791
0.407129	1.635838
0.407227	1.636691
0.407324	1.637793
0.407422	1.638980
0.407520	1.640073
0.407617	1.641346
0.407715	1.642556
0.407812	1.643785
0.407910	1.645093
0.408008	1.646263
0.408105	1.647529
0.408203	1.648844
0.408301	1.650265
0.408398	1.651601
0.408496	1.653052
0.408594	1.654468
0.408691	1.655852
0.408789	1.657293
0.408887	1.658632
0.408984	1.660022
0.409082	1.661473
0.409180	1.662843
0.409277	1.664203
0.409375	1.665785
0.409473	1.667396
0.409570	1.668833
0.409668	1.670474
0.409766	1.672014
0.409863	1.673527
0.409961	1.674851
0.410059	1.676049
0.410156	1.677267
0.410254	1.678280
0.410352	1.679321
0.410449	1.680096
0.410547	1.680957
0.410645	1.681730
0.410742	1.682432
0.410840	1.683371
0.410937	1.684129
0.411035	1.684821
0.411133	1.685588
0.411230	1.686278
0.411328	1.687036
0.411426	1.687977
0.411523	1.689065
0.411621	1.690273
0.411719	1.691635
0.411816	1.692961
0.411914	1.694346
0.412012	1.695735
0.412109	1.697135
0.412207	1.698541
0.412305	1.699834
0.412402	1.700884
0.412500	1.701802
0.412598	1.702474
0.412695	1.702989
0.412793	1.703181
0.412891	1.703041
0.412988	1.702777
0.413086	1.702541
0.413184	1.702449
0.413281	1.702678
0.413379	1.703191
0.413477	1.703921
0.413574	1.704627
0.413672	1.705356
0.413770	1.705666
0.413867	1.705688
0.413965	1.705374
0.414062	1.704883
0.414160	1.704322
0.414258	1.703886
0.414355	1.703464
0.414453	1.703047
0.414551	1.702516
0.414648	1.701958
0.414746	1.701168
0.414844	1.700391
0.414941	1.700053
0.415039	1.700174
0.415137	1.700792
0.415234	1.701614
0.415332	1.702451
0.415430	1.703134
0.415527	1.703626
0.415625	1.703787
0.415723	1.703497
0.415820	1.703245
0.415918	1.702849
0.416016	1.702719
0.416113	1.702814
0.416211	1.702741
0.416309	1.702558
0.416406	1.702249
0.416504	1.701543
0.416602	1.698237
0.416699	1.691496
0.416797	1.685658
0.416895	1.680597
0.416992	1.676137
0.417090	1.672312
0.417187	1.668760
0.417285	1.665471
0.417383	1.662875
0.417480	1.660836
0.417578	1.659510
0.417676	1.658407
0.417773	1.657540
0.417871	1.656769
0.417969	1.655912
0.418066	1.655000
0.418164	1.654046
0.418262	1.653039
0.418359	1.652035
0.418457	1.651051
0.418555	1.650079
0.418652	1.649159
0.418750	1.648401
0.418848	1.647671
0.418945	1.646928
0.419043	1.646476
0.419141	1.645975
0.419238	1.645530
0.419336	1.645254
0.419434	1.645055
0.419531	1.644844
0.419629	1.644740
0.419727	1.644683
0.419824	1.644750
0.419922	1.644774
0.420020	1.644967
0.420117	1.645232
0.420215	1.645674
0.420312	1.646034
0.420410	1.646591
0.420508	1.647180
0.420605	1.647789
0.420703	1.648481
0.420801	1.649045
0.420898	1.649896
0.420996	1.650531
0.421094	1.651476
0.421191	1.652399
0.421289	1.653498
0.421387	1.654705
0.421484	1.656092
0.421582	1.657635
0.421680	1.659142
0.421777	1.660803
0.421875	1.662434
0.421973	1.663862
0.422070	1.665119
0.422168	1.666080
0.422266	1.667024
0.422363	1.667893
0.422461	1.668901
0.422559	1.670069
0.422656	1.671413
0.422754	1.672753
0.422852	1.674281
0.422949	1.675841
0.423047	1.677377
0.423145	1.678996
0.423242	1.680241
0.423340	1.681593
0.423437	1.682778
0.423535	1.684119
0.423633	1.685270
0.423730	1.686458
0.423828	1.687570
0.423926	1.688379
0.424023	1.689001
0.424121	1.689324
0.424219	1.689450
0.424316	1.689477
0.424414	1.689427
0.424512	1.689488
0.424609	1.689656
0.424707	1.689973
0.424805	1.690489
0.424902	1.691087
0.425000	1.692030
0.425098	1.693058
0.425195	1.694455
0.425293	1.695984
0.425391	1.697556
0.425488	1.699099
0.425586	1.700426
0.425684	1.701567
0.425781	1.702684
0.425879	1.703425
0.425977	1.703791
0.426074	1.703910
0.426172	1.703890
0.426270	1.704217
0.426367	1.704969
0.426465	1.706167
0.426562	1.707226
0.426660	1.707975
0.426758	1.708382
0.426855	1.708358
0.426953	1.707998
0.427051	1.707427
0.427148	1.707294
0.427246	1.707287
0.427344	1.707737
0.427441	1.708346
0.427539	1.708922
0.427637	1.709580
0.427734	1.710538
0.427832	1.711306
0.427930	1.711960
0.428027	1.712020
0.428125	1.711896
0.428223	1.711498
0.428320	1.710862
0.428418	1.710031
0.428516	1.708292
0.428613	1.706091
0.428711	1.704677
0.428809	1.703696
0.428906	1.703186
0.429004	1.703330
0.429102	1.703849
0.429199	1.704424
0.429297	1.704887
0.429395	1.705481
0.429492	1.705866
0.429590	1.706002
0.429687	1.705599
0.429785	1.704830
0.429883	1.703412
0.429980	1.702030
0.430078	1.700734
0.430176	1.699536
0.430273	1.698397
0.430371	1.697658
0.430469	1.696951
0.430566	1.696217
0.430664	1.695386
0.430762	1.694621
0.430859	1.693613
0.430957	1.692709
0.431055	1.693480
0.431152	1.696144
0.431250	1.695707
0.431348	1.690466
0.431445	1.690716
0.431543	1.694754
0.431641	1.688219
0.431738	1.677324
0.431836	1.671077
0.431934	1.667369
0.432031	1.665119
0.432129	1.663714
0.432227	1.662805
0.432324	1.662071
0.432422	1.661304
0.432520	1.660323
0.432617	1.659281
0.432715	1.658454
0.432812	1.658174
0.432910	1.658167
0.433008	1.658478
0.433105	1.658904
0.433203	1.659429
0.433301	1.659690
0.433398	1.659973
0.433496	1.659715
0.433594	1.658999
0.433691	1.657503
0.433789	1.655842
0.433887	1.654092
0.433984	1.652744
0.434082	1.651371
0.434180	1.650679
0.434277	1.650563
0.434375	1.651659
0.434473	1.651697
0.434570	1.650649
0.434668	1.650544
0.434766	1.654745
0.434863	1.646449
0.434961	1.634059
0.435059	1.630902
0.435156	1.626102
0.435254	1.620874
0.435352	1.615997
0.435449	1.612914
0.435547	1.610976
0.435645	1.610082
0.435742	1.609275
0.435840	1.608595
0.435937	1.607889
0.436035	1.607511
0.436133	1.606958
0.436230	1.606610
0.436328	1.606355
0.436426	1.606302
0.436523	1.606135
0.436621	1.606358
0.436719	1.606638
0.436816	1.606985
0.436914	1.607434
0.437012	1.608075
0.437109	1.608951
0.437207	1.609933
0.437305	1.610992
0.437402	1.612091
0.437500	1.613268
0.437598	1.614618
0.437695	1.616019
0.437793	1.617404
0.437891	1.619047
0.437988	1.620717
0.438086	1.622373
0.438184	1.624258
0.438281	1.625996
0.438379	1.627906
0.438477	1.629747
0.438574	1.631702
0.438672	1.633533
0.438770	1.635484
0.438867	1.637262
0.438965	1.639147
0.439062	1.640927
0.439160	1.642731
0.439258	1.644516
0.439355	1.646289
0.439453	1.647971
0.439551	1.649679
0.439648	1.651322
0.439746	1.653003
0.439844	1.654541
0.439941	1.656219
0.440039	1.657806
0.440137	1.659547
0.440234	1.661229
0.440332	1.662876
0.440430	1.664574
0.440527	1.666187
0.440625	1.667839
0.440723	1.669369
0.440820	1.670906
0.440918	1.672453
0.441016	1.674008
0.441113	1.675548
0.441211	1.677085
0.441309	1.678603
0.441406	1.680182
0.441504	1.681744
0.441602	1.683300
0.441699	1.684795
0.441797	1.686238
0.441895	1.687470
0.441992	1.688690
0.442090	1.689767
0.442187	1.690901
0.442285	1.691861
0.442383	1.692906
0.442480	1.693926
0.442578	1.694959
0.442676	1.695927
0.442773	1.696687
0.442871	1.697500
0.442969	1.697981
0.443066	1.698621
0.443164	1.699143
0.443262	1.699728
0.443359	1.700418
0.443457	1.701251
0.443555	1.702012
0.443652	1.702993
0.443750	1.704105
0.443848	1.705252
0.443945	1.706627
0.444043	1.708275
0.444141	1.709744
0.444238	1.710755
0.444336	1.711274
0.444434	1.711156
0.444531	1.711069
0.444629	1.711363
0.444727	1.712165
0.444824	1.713426
0.444922	1.714062
0.445020	1.713034
0.445117	1.711016
0.445215	1.709658
0.445312	1.709684
0.445410	1.711113
0.445508	1.714316
0.445605	1.716711
0.445703	1.716942
0.445801	1.714472
0.445898	1.709213
0.445996	1.700005
0.446094	1.694739
0.446191	1.689272
0.446289	1.684305
0.446387	1.682028
0.446484	1.682791
0.446582	1.681941
0.446680	1.682314
0.446777	1.680480
0.446875	1.681887
0.446973	1.681048
0.447070	1.684756
0.447168	1.684531
0.447266	1.687897
0.447363	1.678547
0.447461	1.676200
0.447559	1.665225
0.447656	1.680765
0.447754	1.654193
0.447852	1.708305
0.447949	1.701660
0.448047	1.666207
0.448145	1.712158
0.448242	1.661352
0.448340	1.650330
0.448437	1.621356
0.448535	1.615552
0.448633	1.632649
0.448730	1.636137
0.448828	1.634466
0.448926	1.635383
0.449023	1.635809
0.449121	1.637768
0.449219	1.638482
0.449316	1.640051
0.449414	1.640583
0.449512	1.641569
0.449609	1.641838
0.449707	1.642312
0.449805	1.642280
0.449902	1.642230
0.450000	1.641839
0.450098	1.641505
0.450195	1.640797
0.450293	1.640154
0.450391	1.639402
0.450488	1.638522
0.450586	1.637506
0.450684	1.636397
0.450781	1.635095
0.450879	1.633674
0.450977	1.632329
0.451074	1.630911
0.451172	1.629543
0.451270	1.628352
0.451367	1.627378
0.451465	1.626549
0.451562	1.626004
0.451660	1.625620
0.451758	1.625432
0.451855	1.625384
0.451953	1.625359
0.452051	1.625373
0.452148	1.625382
0.452246	1.625368
0.452344	1.625490
0.452441	1.625551
0.452539	1.625697
0.452637	1.625805
0.452734	1.626063
0.452832	1.626313
0.452930	1.626651
0.453027	1.626988
0.453125	1.627538
0.453223	1.628169
0.453320	1.628918
0.453418	1.629659
0.453516	1.630661
0.453613	1.631753
0.453711	1.632946
0.453809	1.634319
0.453906	1.635735
0.454004	1.637323
0.454102	1.638805
0.454199	1.640569
0.454297	1.642490
0.454395	1.644603
0.454492	1.646951
0.454590	1.649435
0.454687	1.652288
0.454785	1.655299
0.454883	1.658541
0.454980	1.661719
0.455078	1.664924
0.455176	1.667851
0.455273	1.670445
0.455371	1.672547
0.455469	1.674185
0.455566	1.675638
0.455664	1.676695
0.455762	1.677522
0.455859	1.678222
0.455957	1.679090
0.456055	1.680356
0.456152	1.681893
0.456250	1.683629
0.456348	1.685483
0.456445	1.687518
0.456543	1.689841
0.456641	1.692790
0.456738	1.695847
0.456836	1.699084
0.456934	1.701825
0.457031	1.703463
0.457129	1.703515
0.457227	1.701447
0.457324	1.699461
0.457422	1.698701
0.457520	1.698803
0.457617	1.699256
0.457715	1.700045
0.457812	1.701002
0.457910	1.702331
0.458008	1.704105
0.458105	1.705983
0.458203	1.707658
0.458301	1.708724
0.458398	1.709021
0.458496	1.708815
0.458594	1.708322
0.458691	1.707975
0.458789	1.707509
0.458887	1.707276
0.458984	1.706614
0.459082	1.706278
0.459180	1.706513
0.459277	1.708224
0.459375	1.710728
0.459473	1.713285
0.459570	1.713059
0.459668	1.709563
0.459766	1.711039
0.459863	1.716160
0.459961	1.701338
0.460059	1.699308
0.460156	1.698046
0.460254	1.695174
0.460352	1.693085
0.460449	1.689954
0.460547	1.688545
0.460645	1.682278
0.460742	1.673837
0.460840	1.673060
0.460937	1.674345
0.461035	1.675333
0.461133	1.676830
0.461230	1.678593
0.461328	1.680698
0.461426	1.682585
0.461523	1.684388
0.461621	1.685785
0.461719	1.686526
0.461816	1.686798
0.461914	1.686920
0.462012	1.686222
0.462109	1.683376
0.462207	1.680048
0.462305	1.677390
0.462402	1.674962
0.462500	1.672856
0.462598	1.670993
0.462695	1.669534
0.462793	1.668462
0.462891	1.667917
0.462988	1.667757
0.463086	1.667733
0.463184	1.667949
0.463281	1.667837
0.463379	1.668011
0.463477	1.667597
0.463574	1.667638
0.463672	1.667292
0.463770	1.667488
0.463867	1.667267
0.463965	1.668216
0.464062	1.668909
0.464160	1.671661
0.464258	1.675409
0.464355	1.684909
0.464453	1.704751
0.464551	1.699936
0.464648	1.650408
0.464746	1.656895
0.464844	1.670765
0.464941	1.642889
0.465039	1.641033
0.465137	1.644764
0.465234	1.646744
0.465332	1.643509
0.465430	1.643561
0.465527	1.641039
0.465625	1.639855
0.465723	1.636896
0.465820	1.631732
0.465918	1.621812
0.466016	1.615870
0.466113	1.612532
0.466211	1.610943
0.466309	1.609478
0.466406	1.609028
0.466504	1.608833
0.466602	1.608983
0.466699	1.609125
0.466797	1.609463
0.466895	1.609701
0.466992	1.610064
0.467090	1.610361
0.467187	1.610914
0.467285	1.611313
0.467383	1.611951
0.467480	1.612421
0.467578	1.613044
0.467676	1.613944
0.467773	1.614844
0.467871	1.615815
0.467969	1.616916
0.468066	1.617990
0.468164	1.619180
0.468262	1.620401
0.468359	1.621675
0.468457	1.622868
0.468555	1.624133
0.468652	1.625453
0.468750	1.626749
0.468848	1.627959
0.468945	1.629235
0.469043	1.630548
0.469141	1.631876
0.469238	1.633301
0.469336	1.634800
0.469434	1.636335
0.469531	1.637972
0.469629	1.639637
0.469727	1.641358
0.469824	1.643147
0.469922	1.644752
0.470020	1.646605
0.470117	1.648134
0.470215	1.649805
0.470312	1.651332
0.470410	1.652800
0.470508	1.654118
0.470605	1.655527
0.470703	1.657097
0.470801	1.658702
0.470898	1.660406
0.470996	1.662113
0.471094	1.664015
0.471191	1.665800
0.471289	1.667554
0.471387	1.669411
0.471484	1.671096
0.471582	1.672937
0.471680	1.674767
0.471777	1.676516
0.471875	1.678326
0.471973	1.680076
0.472070	1.681770
0.472168	1.683502
0.472266	1.685078
0.472363	1.686601
0.472461	1.687844
0.472559	1.689105
0.472656	1.690308
0.472754	1.691410
0.472852	1.692548
0.472949	1.693716
0.473047	1.694805
0.473145	1.695981
0.473242	1.696991
0.473340	1.698024
0.473437	1.698939
0.473535	1.699770
0.473633	1.700491
0.473730	1.701152
0.473828	1.701954
0.473926	1.702943
0.474023	1.704155
0.474121	1.705201
0.474219	1.705868
0.474316	1.706233
0.474414	1.706292
0.474512	1.706157
0.474609	1.706316
0.474707	1.706682
0.474805	1.707517
0.474902	1.709037
0.475000	1.711334
0.475098	1.714072
0.475195	1.716542
0.475293	1.717762
0.475391	1.717235
0.475488	1.715656
0.475586	1.715357
0.475684	1.714237
0.475781	1.712250
0.475879	1.712273
0.475977	1.716454
0.476074	1.720326
0.476172	1.728656
0.476270	1.734136
0.476367	1.718963
0.476465	1.708825
0.476562	1.689000
0.476660	1.687412
0.476758	1.689352
0.476855	1.690742
0.476953	1.691803
0.477051	1.692069
0.477148	1.692273
0.477246	1.691880
0.477344	1.695603
0.477441	1.699524
0.477539	1.708339
0.477637	1.709103
0.477734	1.707708
0.477832	1.699108
0.477930	1.696290
0.478027	1.681865
0.478125	1.647028
0.478223	1.636545
0.478320	1.660747
0.478418	1.664180
0.478516	1.661259
0.478613	1.664671
0.478711	1.663040
0.478809	1.664275
0.478906	1.663007
0.479004	1.663746
0.479102	1.662625
0.479199	1.662658
0.479297	1.661298
0.479395	1.660825
0.479492	1.659771
0.479590	1.659504
0.479687	1.659012
0.479785	1.659122
0.479883	1.659114
0.479980	1.659341
0.480078	1.659070
0.480176	1.658726
0.480273	1.657849
0.480371	1.656730
0.480469	1.655378
0.480566	1.654104
0.480664	1.652703
0.480762	1.651601
0.480859	1.650615
0.480957	1.649808
0.481055	1.649068
0.481152	1.648508
0.481250	1.647980
0.481348	1.647573
0.481445	1.647299
0.481543	1.647078
0.481641	1.646903
0.481738	1.646901
0.481836	1.647122
0.481934	1.647698
0.482031	1.648569
0.482129	1.649571
0.482227	1.650213
0.482324	1.650142
0.482422	1.649365
0.482520	1.648591
0.482617	1.648143
0.482715	1.647905
0.482812	1.647486
0.482910	1.646768
0.483008	1.645602
0.483105	1.643697
0.483203	1.641711
0.483301	1.640057
0.483398	1.639093
0.483496	1.638288
0.483594	1.637755
0.483691	1.637311
0.483789	1.636932
0.483887	1.636760
0.483984	1.636765
0.484082	1.636734
0.484180	1.636940
0.484277	1.637362
0.484375	1.637852
0.484473	1.638640
0.484570	1.639534
0.484668	1.640463
0.484766	1.641678
0.484863	1.642725
0.484961	1.643947
0.485059	1.645149
0.485156	1.646534
0.485254	1.648062
0.485352	1.649539
0.485449	1.651145
0.485547	1.652716
0.485645	1.654323
0.485742	1.655947
0.485840	1.657617
0.485937	1.659140
0.486035	1.660662
0.486133	1.662146
0.486230	1.663648
0.486328	1.665238
0.486426	1.666749
0.486523	1.668322
0.486621	1.669963
0.486719	1.671685
0.486816	1.673348
0.486914	1.675072
0.487012	1.676597
0.487109	1.678274
0.487207	1.679761
0.487305	1.681305
0.487402	1.682751
0.487500	1.684262
0.487598	1.685906
0.487695	1.687803
0.487793	1.689780
0.487891	1.691917
0.487988	1.694093
0.488086	1.696133
0.488184	1.697524
0.488281	1.698170
0.488379	1.698056
0.488477	1.697530
0.488574	1.697321
0.488672	1.697255
0.488770	1.697195
0.488867	1.696944
0.488965	1.696626
0.489062	1.696205
0.489160	1.695842
0.489258	1.695631
0.489355	1.695813
0.489453	1.696315
0.489551	1.696687
0.489648	1.697310
0.489746	1.697767
0.489844	1.698344
0.489941	1.698819
0.490039	1.699040
0.490137	1.699214
0.490234	1.698962
0.490332	1.698710
0.490430	1.698768
0.490527	1.699383
0.490625	1.700444
0.490723	1.701943
0.490820	1.703255
0.490918	1.704766
0.491016	1.705986
0.491113	1.706952
0.491211	1.707438
0.491309	1.707265
0.491406	1.706540
0.491504	1.706025
0.491602	1.705431
0.491699	1.704568
0.491797	1.703827
0.491895	1.703166
0.491992	1.702726
0.492090	1.701797
0.492187	1.700436
0.492285	1.698806
0.492383	1.697529
0.492480	1.696426
0.492578	1.695133
0.492676	1.693132
0.492773	1.690065
0.492871	1.686273
0.492969	1.682545
0.493066	1.679497
0.493164	1.677036
0.493262	1.674834
0.493359	1.673285
0.493457	1.672158
0.493555	1.671519
0.493652	1.671114
0.493750	1.670936
0.493848	1.670806
0.493945	1.670674
0.494043	1.670457
0.494141	1.670177
0.494238	1.669695
0.494336	1.669139
0.494434	1.668466
0.494531	1.667898
0.494629	1.667401
0.494727	1.666999
0.494824	1.666668
0.494922	1.666352
0.495020	1.665784
0.495117	1.664912
0.495215	1.663653
0.495312	1.662305
0.495410	1.660778
0.495508	1.659307
0.495605	1.658016
0.495703	1.656827
0.495801	1.655730
0.495898	1.654917
0.495996	1.654248
0.496094	1.653713
0.496191	1.653447
0.496289	1.653411
0.496387	1.653631
0.496484	1.654159
0.496582	1.654934
0.496680	1.656207
0.496777	1.657677
0.496875	1.659776
0.496973	1.662311
0.497070	1.665460
0.497168	1.669077
0.497266	1.672345
0.497363	1.675245
0.497461	1.676989
0.497559	1.678347
0.497656	1.678847
0.497754	1.677915
0.497852	1.678390
0.497949	1.676283
0.498047	1.675029
0.498145	1.673881
0.498242	1.672500
0.498340	1.669547
0.498437	1.665675
0.498535	1.662570
0.498633	1.660191
0.498730	1.658051
0.498828	1.655798
0.498926	1.653651
0.499023	1.651544
0.499121	1.649944
0.499219	1.648578
0.499316	1.647560
0.499414	1.646582
0.499512	1.645924
0.499609	1.645548
0.499707	1.645513
0.499805	1.645832
0.499902	1.646330
0.500000	1.647154
0.500098	1.648153
0.500195	1.649276
0.500293	1.650496
0.500391	1.651861
0.500488	1.653216
0.500586	1.654776
0.500684	1.656224
0.500781	1.657808
0.500879	1.659362
0.500977	1.660955
0.501074	1.662523
0.501172	1.664213
0.501270	1.665847
0.501367	1.667607
0.501465	1.669329
0.501562	1.671046
0.501660	1.672806
0.501758	1.674607
0.501855	1.676303
0.501953	1.677904
0.502051	1.679583
0.502148	1.681083
0.502246	1.682593
0.502344	1.684016
0.502441	1.685411
0.502539	1.686731
0.502637	1.688033
0.502734	1.689259
0.502832	1.690516
0.502930	1.691726
0.503027	1.692930
0.503125	1.693961
0.503223	1.694741
0.503320	1.695467
0.503418	1.696046
0.503516	1.696555
0.503613	1.697105
0.503711	1.697503
0.503809	1.697774
0.503906	1.697626
0.504004	1.697333
0.504102	1.696831
0.504199	1.696266
0.504297	1.696175
0.504395	1.696307
0.504492	1.696791
0.504590	1.697411
0.504687	1.698214
0.504785	1.698507
0.504883	1.698620
0.504980	1.698115
0.505078	1.697464
0.505176	1.696839
0.505273	1.696373
0.505371	1.696131
0.505469	1.696362
0.505566	1.697032
0.505664	1.698013
0.505762	1.699194
0.505859	1.700675
0.505957	1.702247
0.506055	1.703817
0.506152	1.705226
0.506250	1.706355
0.506348	1.707206
0.506445	1.707902
0.506543	1.708257
0.506641	1.708355
0.506738	1.707681
0.506836	1.706247
0.506934	1.704294
0.507031	1.702148
0.507129	1.700683
0.507227	1.699821
0.507324	1.699419
0.507422	1.699223
0.507520	1.698984
0.507617	1.698577
0.507715	1.697998
0.507812	1.696944
0.507910	1.695332
0.508008	1.693398
0.508105	1.691343
0.508203	1.689164
0.508301	1.687255
0.508398	1.685233
0.508496	1.682806
0.508594	1.680253
0.508691	1.677775
0.508789	1.675689
0.508887	1.674069
0.508984	1.672721
0.509082	1.671661
0.509180	1.670958
0.509277	1.670640
0.509375	1.670696
0.509473	1.670894
0.509570	1.671423
0.509668	1.672150
0.509766	1.673120
0.509863	1.674209
0.509961	1.675584
0.510059	1.676968
0.510156	1.678504
0.510254	1.679738
0.510352	1.680893
0.510449	1.681486
0.510547	1.681657
0.510645	1.681491
0.510742	1.681024
0.510840	1.680384
0.510937	1.679673
0.511035	1.679067
0.511133	1.678307
0.511230	1.677772
0.511328	1.677436
0.511426	1.677025
0.511523	1.676724
0.511621	1.676007
0.511719	1.675089
0.511816	1.674218
0.511914	1.673379
0.512012	1.672792
0.512109	1.672302
0.512207	1.671891
0.512305	1.671376
0.512402	1.670725
0.512500	1.670239
0.512598	1.669695
0.512695	1.669191
0.512793	1.668657
0.512891	1.668187
0.512988	1.667542
0.513086	1.666987
0.513184	1.666310
0.513281	1.665645
0.513379	1.664916
0.513477	1.664293
0.513574	1.663660
0.513672	1.663217
0.513770	1.662914
0.513867	1.662635
0.513965	1.662599
0.514062	1.662648
0.514160	1.662747
0.514258	1.663065
0.514355	1.663538
0.514453	1.664067
0.514551	1.664717
0.514648	1.665471
0.514746	1.666395
0.514844	1.667441
0.514941	1.668647
0.515039	1.669997
0.515137	1.671362
0.515234	1.672544
0.515332	1.673555
0.515430	1.674341
0.515527	1.674884
0.515625	1.675115
0.515723	1.675230
0.515820	1.675019
0.515918	1.674350
0.516016	1.673415
0.516113	1.672580
0.516211	1.671856
0.516309	1.671240
0.516406	1.670794
0.516504	1.670232
0.516602	1.669661
0.516699	1.668914
0.516797	1.668259
0.516895	1.667868
0.516992	1.667604
0.517090	1.667646
0.517187	1.668031
0.517285	1.668352
0.517383	1.668616
0.517480	1.669115
0.517578	1.669527
0.517676	1.670044
0.517773	1.670497
0.517871	1.671154
0.517969	1.671869
0.518066	1.672658
0.518164	1.673580
0.518262	1.674416
0.518359	1.675441
0.518457	1.676326
0.518555	1.677369
0.518652	1.678462
0.518750	1.679852
0.518848	1.681355
0.518945	1.683063
0.519043	1.684996
0.519141	1.686940
0.519238	1.688694
0.519336	1.690267
0.519434	1.691524
0.519531	1.692365
0.519629	1.692875
0.519727	1.692895
0.519824	1.692570
0.519922	1.692030
0.520020	1.691385
0.520117	1.690639
0.520215	1.689894
0.520312	1.689353
0.520410	1.688996
0.520508	1.688800
0.520605	1.688763
0.520703	1.688871
0.520801	1.689190
0.520898	1.689700
0.520996	1.690527
0.521094	1.691571
0.521191	1.693062
0.521289	1.694729
0.521387	1.696504
0.521484	1.698282
0.521582	1.699634
0.521680	1.700493
0.521777	1.701237
0.521875	1.701899
0.521973	1.702741
0.522070	1.703760
0.522168	1.704599
0.522266	1.705161
0.522363	1.705565
0.522461	1.706038
0.522559	1.706684
0.522656	1.707485
0.522754	1.708245
0.522852	1.708374
0.522949	1.708094
0.523047	1.707353
0.523145	1.706143
0.523242	1.704656
0.523340	1.703190
0.523437	1.701588
0.523535	1.700111
0.523633	1.698762
0.523730	1.697468
0.523828	1.696465
0.523926	1.695683
0.524023	1.695145
0.524121	1.694360
0.524219	1.693608
0.524316	1.692741
0.524414	1.691754
0.524512	1.690963
0.524609	1.690152
0.524707	1.689327
0.524805	1.688505
0.524902	1.687767
0.525000	1.686799
0.525098	1.685863
0.525195	1.684824
0.525293	1.683759
0.525391	1.682789
0.525488	1.681734
0.525586	1.680725
0.525684	1.679672
0.525781	1.678501
0.525879	1.677408
0.525977	1.676287
0.526074	1.675190
0.526172	1.674313
0.526270	1.673513
0.526367	1.672918
0.526465	1.672527
0.526562	1.672143
0.526660	1.671857
0.526758	1.671650
0.526855	1.671351
0.526953	1.670889
0.527051	1.670567
0.527148	1.670296
0.527246	1.669894
0.527344	1.669505
0.527441	1.669129
0.527539	1.668677
0.527637	1.668363
0.527734	1.668090
0.527832	1.668007
0.527930	1.668103
0.528027	1.668445
0.528125	1.668973
0.528223	1.669598
0.528320	1.670438
0.528418	1.671353
0.528516	1.672111
0.528613	1.673026
0.528711	1.673811
0.528809	1.674483
0.528906	1.674928
0.529004	1.674525
0.529102	1.673055
0.529199	1.669748
0.529297	1.663908
0.529395	1.658208
0.529492	1.654144
0.529590	1.650983
0.529687	1.648654
0.529785	1.647275
0.529883	1.646413
0.529980	1.646006
0.530078	1.645810
0.530176	1.645629
0.530273	1.645456
0.530371	1.645335
0.530469	1.645113
0.530566	1.644961
0.530664	1.644783
0.530762	1.644656
0.530859	1.644545
0.530957	1.644572
0.531055	1.644608
0.531152	1.644783
0.531250	1.645140
0.531348	1.645520
0.531445	1.646149
0.531543	1.646923
0.531641	1.647663
0.531738	1.648638
0.531836	1.649711
0.531934	1.650781
0.532031	1.651881
0.532129	1.653095
0.532227	1.654298
0.532324	1.655498
0.532422	1.656679
0.532520	1.657841
0.532617	1.658979
0.532715	1.660142
0.532812	1.661286
0.532910	1.662413
0.533008	1.663552
0.533105	1.664696
0.533203	1.665807
0.533301	1.666987
0.533398	1.668209
0.533496	1.669554
0.533594	1.670814
0.533691	1.672339
0.533789	1.673980
0.533887	1.675511
0.533984	1.677046
0.534082	1.678598
0.534180	1.679847
0.534277	1.680823
0.534375	1.681745
0.534473	1.682517
0.534570	1.683400
0.534668	1.684382
0.534766	1.685552
0.534863	1.686940
0.534961	1.688400
0.535059	1.689922
0.535156	1.691267
0.535254	1.692556
0.535352	1.693747
0.535449	1.694851
0.535547	1.696080
0.535645	1.697231
0.535742	1.698626
0.535840	1.700202
0.535937	1.702027
0.536035	1.703811
0.536133	1.705080
0.536230	1.705434
0.536328	1.705374
0.536426	1.704302
0.536523	1.701768
0.536621	1.699381
0.536719	1.698231
0.536816	1.697830
0.536914	1.697808
0.537012	1.698087
0.537109	1.698501
0.537207	1.699245
0.537305	1.699908
0.537402	1.700707
0.537500	1.701600
0.537598	1.702420
0.537695	1.703354
0.537793	1.704125
0.537891	1.704568
0.537988	1.704857
0.538086	1.705232
0.538184	1.705624
0.538281	1.706332
0.538379	1.706888
0.538477	1.707238
0.538574	1.706757
0.538672	1.705891
0.538770	1.704859
0.538867	1.703876
0.538965	1.702708
0.539062	1.701631
0.539160	1.700843
0.539258	1.700065
0.539355	1.698971
0.539453	1.697116
0.539551	1.695152
0.539648	1.693743
0.539746	1.692786
0.539844	1.692266
0.539941	1.691999
0.540039	1.692471
0.540137	1.693308
0.540234	1.694514
0.540332	1.695806
0.540430	1.696517
0.540527	1.696667
0.540625	1.695992
0.540723	1.695183
0.540820	1.694415
0.540918	1.694223
0.541016	1.694740
0.541113	1.695873
0.541211	1.697467
0.541309	1.699113
0.541406	1.699712
0.541504	1.699092
0.541602	1.697305
0.541699	1.695286
0.541797	1.693265
0.541895	1.691411
0.541992	1.690340
0.542090	1.689572
0.542187	1.688602
0.542285	1.688569
0.542383	1.688996
0.542480	1.688098
0.542578	1.685359
0.542676	1.681315
0.542773	1.677607
0.542871	1.674658
0.542969	1.672194
0.543066	1.670431
0.543164	1.668857
0.543262	1.667353
0.543359	1.665742
0.543457	1.664158
0.543555	1.662430
0.543652	1.660523
0.543750	1.658463
0.543848	1.656376
0.543945	1.654182
0.544043	1.652097
0.544141	1.650245
0.544238	1.648490
0.544336	1.647086
0.544434	1.645960
0.544531	1.645123
0.544629	1.644760
0.544727	1.644667
0.544824	1.644918
0.544922	1.645338
0.545020	1.645835
0.545117	1.646402
0.545215	1.647166
0.545312	1.648056
0.545410	1.648772
0.545508	1.649567
0.545605	1.650242
0.545703	1.650694
0.545801	1.650870
0.545898	1.650828
0.545996	1.650893
0.546094	1.650860
0.546191	1.650857
0.546289	1.650970
0.546387	1.651039
0.546484	1.651109
0.546582	1.651069
0.546680	1.651012
0.546777	1.650839
0.546875	1.650627
0.546973	1.650197
0.547070	1.649861
0.547168	1.649558
0.547266	1.649087
0.547363	1.648623
0.547461	1.648041
0.547559	1.647546
0.547656	1.646945
0.547754	1.646420
0.547852	1.645871
0.547949	1.645537
0.548047	1.645206
0.548145	1.645085
0.548242	1.644865
0.548340	1.644845
0.548437	1.644904
0.548535	1.644989
0.548633	1.645128
0.548730	1.645281
0.548828	1.645582
0.548926	1.645822
0.549023	1.646186
0.549121	1.646572
0.549219	1.647125
0.549316	1.647569
0.549414	1.648094
0.549512	1.648780
0.549609	1.649344
0.549707	1.649956
0.549805	1.650519
0.549902	1.651112
0.550000	1.651808
0.550098	1.652597
0.550195	1.653392
0.550293	1.654289
0.550391	1.655386
0.550488	1.656460
0.550586	1.657669
0.550684	1.658918
0.550781	1.660104
0.550879	1.661263
0.550977	1.662452
0.551074	1.663385
0.551172	1.664307
0.551270	1.665283
0.551367	1.666344
0.551465	1.667387
0.551562	1.668427
0.551660	1.669682
0.551758	1.670659
0.551855	1.671902
0.551953	1.673111
0.552051	1.674444
0.552148	1.675891
0.552246	1.677424
0.552344	1.679279
0.552441	1.681046
0.552539	1.682819
0.552637	1.684692
0.552734	1.686529
0.552832	1.688522
0.552930	1.690589
0.553027	1.692407
0.553125	1.694091
0.553223	1.695732
0.553320	1.697530
0.553418	1.699806
0.553516	1.702636
0.553613	1.705352
0.553711	1.706189
0.553809	1.704416
0.553906	1.701829
0.554004	1.699651
0.554102	1.697578
0.554199	1.695824
0.554297	1.695112
0.554395	1.695015
0.554492	1.695746
0.554590	1.697113
0.554687	1.699461
0.554785	1.702495
0.554883	1.706234
0.554980	1.709443
0.555078	1.712059
0.555176	1.714259
0.555273	1.716801
0.555371	1.718662
0.555469	1.717710
0.555566	1.714884
0.555664	1.711708
0.555762	1.709143
0.555859	1.704928
0.555957	1.700556
0.556055	1.697511
0.556152	1.695758
0.556250	1.694901
0.556348	1.694975
0.556445	1.695631
0.556543	1.696757
0.556641	1.698418
0.556738	1.700330
0.556836	1.702434
0.556934	1.704862
0.557031	1.707425
0.557129	1.710703
0.557227	1.711818
0.557324	1.709042
0.557422	1.704547
0.557520	1.700716
0.557617	1.699055
0.557715	1.697263
0.557812	1.695037
0.557910	1.694065
0.558008	1.694086
0.558105	1.695291
0.558203	1.696854
0.558301	1.696766
0.558398	1.695877
0.558496	1.691228
0.558594	1.685705
0.558691	1.683856
0.558789	1.681870
0.558887	1.679552
0.558984	1.677574
0.559082	1.675876
0.559180	1.674665
0.559277	1.673964
0.559375	1.673500
0.559473	1.673122
0.559570	1.672845
0.559668	1.673034
0.559766	1.673577
0.559863	1.674272
0.559961	1.674481
0.560059	1.674391
0.560156	1.673462
0.560254	1.671986
0.560352	1.670415
0.560449	1.669112
0.560547	1.668389
0.560645	1.668074
0.560742	1.668208
0.560840	1.668283
0.560937	1.668785
0.561035	1.669296
0.561133	1.669833
0.561230	1.670336
0.561328	1.670827
0.561426	1.671174
0.561523	1.671625
0.561621	1.672029
0.561719	1.672222
0.561816	1.672452
0.561914	1.672615
0.562012	1.672603
0.562109	1.672701
0.562207	1.672489
0.562305	1.672316
0.562402	1.672080
0.562500	1.671744
0.562598	1.671209
0.562695	1.670452
0.562793	1.669400
0.562891	1.668167
0.562988	1.666904
0.563086	1.665663
0.563184	1.664588
0.563281	1.663429
0.563379	1.662386
0.563477	1.661334
0.563574	1.660353
0.563672	1.659483
0.563770	1.658718
0.563867	1.658055
0.563965	1.657539
0.564062	1.657085
0.564160	1.656655
0.564258	1.656474
0.564355	1.656204
0.564453	1.656047
0.564551	1.655931
0.564648	1.655926
0.564746	1.655984
0.564844	1.656048
0.564941	1.656301
0.565039	1.656543
0.565137	1.657018
0.565234	1.657660
0.565332	1.658345
0.565430	1.659150
0.565527	1.660018
0.565625	1.660810
0.565723	1.661627
0.565820	1.662509
0.565918	1.663240
0.566016	1.664068
0.566113	1.664861
0.566211	1.665846
0.566309	1.666785
0.566406	1.667971
0.566504	1.669066
0.566602	1.670238
0.566699	1.671441
0.566797	1.672445
0.566895	1.673289
0.566992	1.674124
0.567090	1.675008
0.567187	1.676084
0.567285	1.677045
0.567383	1.678171
0.567480	1.679308
0.567578	1.680596
0.567676	1.681931
0.567773	1.683309
0.567871	1.684616
0.567969	1.685782
0.568066	1.686588
0.568164	1.687165
0.568262	1.687395
0.568359	1.687642
0.568457	1.687487
0.568555	1.687174
0.568652	1.686811
0.568750	1.686190
0.568848	1.685974
0.568945	1.686010
0.569043	1.686386
0.569141	1.687141
0.569238	1.688229
0.569336	1.689664
0.569434	1.691322
0.569531	1.693223
0.569629	1.695075
0.569727	1.696813
0.569824	1.698365
0.569922	1.699405
0.570020	1.700030
0.570117	1.700130
0.570215	1.700053
0.570312	1.699749
0.570410	1.699289
0.570508	1.698763
0.570605	1.698206
0.570703	1.697750
0.570801	1.697342
0.570898	1.697033
0.570996	1.696740
0.571094	1.696379
0.571191	1.695971
0.571289	1.695966
0.571387	1.696177
0.571484	1.696813
0.571582	1.697710
0.571680	1.698685
0.571777	1.699522
0.571875	1.700080
0.571973	1.700560
0.572070	1.701032
0.572168	1.701680
0.572266	1.702434
0.572363	1.703174
0.572461	1.703597
0.572559	1.703565
0.572656	1.703449
0.572754	1.703194
0.572852	1.703344
0.572949	1.703783
0.573047	1.704465
0.573145	1.704081
0.573242	1.702273
0.573340	1.700610
0.573437	1.699805
0.573535	1.698837
0.573633	1.698940
0.573730	1.699578
0.573828	1.700769
0.573926	1.700728
0.574023	1.695949
0.574121	1.687460
0.574219	1.679988
0.574316	1.677126
0.574414	1.675841
0.574512	1.675141
0.574609	1.674448
0.574707	1.673487
0.574805	1.672261
0.574902	1.670988
0.575000	1.669506
0.575098	1.668125
0.575195	1.666599
0.575293	1.665203
0.575391	1.663956
0.575488	1.662803
0.575586	1.661842
0.575684	1.661071
0.575781	1.660576
0.575879	1.660252
0.575977	1.659908
0.576074	1.659648
0.576172	1.659264
0.576270	1.658454
0.576367	1.657276
0.576465	1.656188
0.576562	1.654949
0.576660	1.654010
0.576758	1.653087
0.576855	1.652243
0.576953	1.651368
0.577051	1.650439
0.577148	1.649591
0.577246	1.648722
0.577344	1.647834
0.577441	1.646956
0.577539	1.646380
0.577637	1.645713
0.577734	1.645240
0.577832	1.644829
0.577930	1.644594
0.578027	1.644475
0.578125	1.644464
0.578223	1.644564
0.578320	1.644684
0.578418	1.645029
0.578516	1.645483
0.578613	1.645988
0.578711	1.646669
0.578809	1.647472
0.578906	1.648349
0.579004	1.649299
0.579102	1.650389
0.579199	1.651371
0.579297	1.652578
0.579395	1.653819
0.579492	1.655073
0.579590	1.656498
0.579687	1.657985
0.579785	1.659484
0.579883	1.660934
0.579980	1.662396
0.580078	1.663823
0.580176	1.665181
0.580273	1.666618
0.580371	1.668023
0.580469	1.669667
0.580566	1.671196
0.580664	1.672909
0.580762	1.674695
0.580859	1.676440
0.580957	1.678298
0.581055	1.680113
0.581152	1.682016
0.581250	1.683822
0.581348	1.685437
0.581445	1.686864
0.581543	1.687942
0.581641	1.688546
0.581738	1.688828
0.581836	1.688881
0.581934	1.688962
0.582031	1.689359
0.582129	1.690003
0.582227	1.690862
0.582324	1.692082
0.582422	1.693707
0.582520	1.695674
0.582617	1.697945
0.582715	1.700363
0.582812	1.702406
0.582910	1.703893
0.583008	1.704677
0.583105	1.704872
0.583203	1.704745
0.583301	1.704363
0.583398	1.704134
0.583496	1.703611
0.583594	1.703161
0.583691	1.702726
0.583789	1.702783
0.583887	1.703323
0.583984	1.704391
0.584082	1.705948
0.584180	1.707655
0.584277	1.709560
0.584375	1.711206
0.584473	1.712596
0.584570	1.713629
0.584668	1.714713
0.584766	1.715718
0.584863	1.716042
0.584961	1.715079
0.585059	1.712760
0.585156	1.709479
0.585254	1.707007
0.585352	1.705627
0.585449	1.705869
0.585547	1.707276
0.585645	1.710119
0.585742	1.709159
0.585840	1.707243
0.585937	1.708605
0.586035	1.708874
0.586133	1.710226
0.586230	1.712781
0.586328	1.716947
0.586426	1.720114
0.586523	1.718684
0.586621	1.712140
0.586719	1.707439
0.586816	1.704004
0.586914	1.699200
0.587012	1.692536
0.587109	1.687696
0.587207	1.688329
0.587305	1.690829
0.587402	1.693732
0.587500	1.696927
0.587598	1.699810
0.587695	1.701935
0.587793	1.703131
0.587891	1.700784
0.587988	1.697006
0.588086	1.693735
0.588184	1.689666
0.588281	1.681630
0.588379	1.673998
0.588477	1.671131
0.588574	1.670898
0.588672	1.669988
0.588770	1.669342
0.588867	1.669422
0.588965	1.670171
0.589062	1.670941
0.589160	1.671624
0.589258	1.672203
0.589355	1.672537
0.589453	1.672792
0.589551	1.672838
0.589648	1.672657
0.589746	1.672309
0.589844	1.671832
0.589941	1.671230
0.590039	1.670640
0.590137	1.670043
0.590234	1.669598
0.590332	1.669396
0.590430	1.669529
0.590527	1.669614
0.590625	1.669945
0.590723	1.670267
0.590820	1.670576
0.590918	1.670847
0.591016	1.671111
0.591113	1.671377
0.591211	1.671686
0.591309	1.671839
0.591406	1.671215
0.591504	1.669650
0.591602	1.668103
0.591699	1.666802
0.591797	1.665683
0.591895	1.665042
0.591992	1.664560
0.592090	1.664159
0.592187	1.663857
0.592285	1.663569
0.592383	1.663377
0.592480	1.662868
0.592578	1.662404
0.592676	1.662000
0.592773	1.661445
0.592871	1.660945
0.592969	1.660476
0.593066	1.660213
0.593164	1.659879
0.593262	1.659720
0.593359	1.659786
0.593457	1.659807
0.593555	1.660021
0.593652	1.660264
0.593750	1.660612
0.593848	1.660894
0.593945	1.661138
0.594043	1.661429
0.594141	1.661558
0.594238	1.661596
0.594336	1.661540
0.594434	1.661372
0.594531	1.661284
0.594629	1.661127
0.594727	1.660918
0.594824	1.660560
0.594922	1.660109
0.595020	1.659541
0.595117	1.659065
0.595215	1.658816
0.595312	1.658819
0.595410	1.658838
0.595508	1.658949
0.595605	1.659223
0.595703	1.659316
0.595801	1.659465
0.595898	1.659562
0.595996	1.659648
0.596094	1.659763
0.596191	1.659861
0.596289	1.660019
0.596387	1.660285
0.596484	1.660606
0.596582	1.661100
0.596680	1.661718
0.596777	1.662417
0.596875	1.663300
0.596973	1.664119
0.597070	1.665188
0.597168	1.666348
0.597266	1.667567
0.597363	1.668742
0.597461	1.669938
0.597559	1.671101
0.597656	1.672322
0.597754	1.673550
0.597852	1.674972
0.597949	1.676344
0.598047	1.677834
0.598145	1.679373
0.598242	1.681007
0.598340	1.682620
0.598437	1.684358
0.598535	1.686028
0.598633	1.687645
0.598730	1.689204
0.598828	1.690584
0.598926	1.691844
0.599023	1.692551
0.599121	1.693154
0.599219	1.693690
0.599316	1.694228
0.599414	1.694704
0.599512	1.695216
0.599609	1.695786
0.599707	1.696260
0.599805	1.696966
0.599902	1.697560
0.600000	1.698261
0.600098	1.698909
0.600195	1.699612
0.600293	1.700041
0.600391	1.700274
0.600488	1.700216
0.600586	1.699707
0.600684	1.698645
0.600781	1.697467
0.600879	1.695958
0.600977	1.694394
0.601074	1.693057
0.601172	1.691850
0.601270	1.690834
0.601367	1.690168
0.601465	1.689761
0.601562	1.689757
0.601660	1.690252
0.601758	1.690801
0.601855	1.691970
0.601953	1.693226
0.602051	1.695162
0.602148	1.697157
0.602246	1.699764
0.602344	1.701803
0.602441	1.704069
0.602539	1.704170
0.602637	1.703750
0.602734	1.702043
0.602832	1.703544
0.602930	1.706506
0.603027	1.720521
0.603125	1.713731
0.603223	1.694406
0.603320	1.689428
0.603418	1.683824
0.603516	1.683861
0.603613	1.683716
0.603711	1.686012
0.603809	1.687261
0.603906	1.689272
0.604004	1.690357
0.604102	1.691767
0.604199	1.692570
0.604297	1.693446
0.604395	1.693610
0.604492	1.693926
0.604590	1.693852
0.604687	1.694085
0.604785	1.694225
0.604883	1.694827
0.604980	1.695253
0.605078	1.696005
0.605176	1.696245
0.605273	1.696483
0.605371	1.696080
0.605469	1.695377
0.605566	1.694488
0.605664	1.693672
0.605762	1.692676
0.605859	1.691538
0.605957	1.690646
0.606055	1.689456
0.606152	1.688216
0.606250	1.687038
0.606348	1.686649
0.606445	1.687077
0.606543	1.687324
0.606641	1.687523
0.606738	1.687415
0.606836	1.686751
0.606934	1.685351
0.607031	1.682990
0.607129	1.680543
0.607227	1.678827
0.607324	1.678242
0.607422	1.677919
0.607520	1.677385
0.607617	1.676881
0.607715	1.676028
0.607812	1.675101
0.607910	1.674073
0.608008	1.673115
0.608105	1.672626
0.608203	1.672322
0.608301	1.672530
0.608398	1.672863
0.608496	1.673507
0.608594	1.674114
0.608691	1.674789
0.608789	1.675314
0.608887	1.675797
0.608984	1.676200
0.609082	1.676547
0.609180	1.676605
0.609277	1.676728
0.609375	1.676928
0.609473	1.677054
0.609570	1.677127
0.609668	1.676666
0.609766	1.675993
0.609863	1.675087
0.609961	1.674233
0.610059	1.673388
0.610156	1.672766
0.610254	1.672305
0.610352	1.672285
0.610449	1.672438
0.610547	1.672943
0.610645	1.673617
0.610742	1.674554
0.610840	1.675476
0.610937	1.676453
0.611035	1.677363
0.611133	1.678369
0.611230	1.679376
0.611328	1.680335
0.611426	1.681351
0.611523	1.682408
0.611621	1.683417
0.611719	1.684349
0.611816	1.685328
0.611914	1.686296
0.612012	1.687118
0.612109	1.687750
0.612207	1.687961
0.612305	1.687967
0.612402	1.688008
0.612500	1.688076
0.612598	1.688023
0.612695	1.688004
0.612793	1.687950
0.612891	1.688093
0.612988	1.688207
0.613086	1.688291
0.613184	1.688293
0.613281	1.688382
0.613379	1.688588
0.613477	1.688808
0.613574	1.689077
0.613672	1.689290
0.613770	1.689472
0.613867	1.689428
0.613965	1.689354
0.614062	1.688887
0.614160	1.688365
0.614258	1.687747
0.614355	1.687157
0.614453	1.686638
0.614551	1.686452
0.614648	1.686280
0.614746	1.686532
0.614844	1.686925
0.614941	1.687513
0.615039	1.688132
0.615137	1.688702
0.615234	1.689395
0.615332	1.689945
0.615430	1.690497
0.615527	1.690864
0.615625	1.691310
0.615723	1.691619
0.615820	1.691817
0.615918	1.691952
0.616016	1.692051
0.616113	1.691965
0.616211	1.692014
0.616309	1.691852
0.616406	1.691490
0.616504	1.691072
0.616602	1.690483
0.616699	1.689882
0.616797	1.689419
0.616895	1.689124
0.616992	1.689142
0.617090	1.689374
0.617187	1.689927
0.617285	1.690455
0.617383	1.690973
0.617480	1.691228
0.617578	1.691554
0.617676	1.691775
0.617773	1.691965
0.617871	1.691961
0.617969	1.691433
0.618066	1.690469
0.618164	1.689016
0.618262	1.687372
0.618359	1.685596
0.618457	1.683680
0.618555	1.681536
0.618652	1.679546
0.618750	1.677746
0.618848	1.676375
0.618945	1.675198
0.619043	1.674303
0.619141	1.673474
0.619238	1.672845
0.619336	1.672281
0.619434	1.671838
0.619531	1.671616
0.619629	1.671467
0.619727	1.671437
0.619824	1.671411
0.619922	1.671318
0.620020	1.671196
0.620117	1.671076
0.620215	1.670859
0.620312	1.670615
0.620410	1.670355
0.620508	1.670207
0.620605	1.669856
0.620703	1.669650
0.620801	1.669390
0.620898	1.669017
0.620996	1.668636
0.621094	1.668178
0.621191	1.667613
0.621289	1.666904
0.621387	1.666240
0.621484	1.665461
0.621582	1.664861
0.621680	1.664153
0.621777	1.663504
0.621875	1.662965
0.621973	1.662632
0.622070	1.662394
0.622168	1.662409
0.622266	1.662476
0.622363	1.662608
0.622461	1.662879
0.622559	1.663120
0.622656	1.663460
0.622754	1.663785
0.622852	1.664195
0.622949	1.664789
0.623047	1.665490
0.623145	1.666243
0.623242	1.667130
0.623340	1.668225
0.623437	1.669355
0.623535	1.670620
0.623633	1.671787
0.623730	1.672954
0.623828	1.674028
0.623926	1.674964
0.624023	1.676027
0.624121	1.676983
0.624219	1.678156
0.624316	1.679374
0.624414	1.680752
0.624512	1.682034
0.624609	1.683445
0.624707	1.684713
0.624805	1.685848
0.624902	1.686975
0.625000	1.687852
0.625098	1.688511
0.625195	1.689187
0.625293	1.689761
0.625391	1.690486
0.625488	1.691391
0.625586	1.692581
0.625684	1.693883
0.625781	1.695196
0.625879	1.696239
0.625977	1.697162
0.626074	1.697671
0.626172	1.697944
0.626270	1.697947
0.626367	1.698084
0.626465	1.698497
0.626562	1.698918
0.626660	1.699412
0.626758	1.699799
0.626855	1.699992
0.626953	1.700130
0.627051	1.700165
0.627148	1.700531
0.627246	1.700984
0.627344	1.701491
0.627441	1.702123
0.627539	1.702689
0.627637	1.703109
0.627734	1.703453
0.627832	1.703580
0.627930	1.703577
0.628027	1.703308
0.628125	1.702965
0.628223	1.702670
0.628320	1.702736
0.628418	1.703309
0.628516	1.704077
0.628613	1.704715
0.628711	1.705017
0.628809	1.704754
0.628906	1.704014
0.629004	1.703190
0.629102	1.702536
0.629199	1.702002
0.629297	1.701704
0.629395	1.701547
0.629492	1.701428
0.629590	1.701506
0.629687	1.701639
0.629785	1.702094
0.629883	1.702777
0.629980	1.703690
0.630078	1.704728
0.630176	1.705640
0.630273	1.706436
0.630371	1.707139
0.630469	1.707821
0.630566	1.708357
0.630664	1.708562
0.630762	1.708687
0.630859	1.708588
0.630957	1.707560
0.631055	1.705506
0.631152	1.704859
0.631250	1.702719
0.631348	1.695651
0.631445	1.692096
0.631543	1.690936
0.631641	1.688396
0.631738	1.686530
0.631836	1.685842
0.631934	1.685591
0.632031	1.685704
0.632129	1.685945
0.632227	1.686109
0.632324	1.685976
0.632422	1.685516
0.632520	1.684727
0.632617	1.683927
0.632715	1.683410
0.632812	1.683069
0.632910	1.682868
0.633008	1.682515
0.633105	1.682176
0.633203	1.681984
0.633301	1.681820
0.633398	1.681720
0.633496	1.681327
0.633594	1.680411
0.633691	1.679145
0.633789	1.677786
0.633887	1.676659
0.633984	1.675462
0.634082	1.674128
0.634180	1.672523
0.634277	1.670665
0.634375	1.668310
0.634473	1.666194
0.634570	1.664525
0.634668	1.663175
0.634766	1.661996
0.634863	1.660984
0.634961	1.660023
0.635059	1.659303
0.635156	1.658774
0.635254	1.658367
0.635352	1.658090
0.635449	1.657937
0.635547	1.657949
0.635645	1.658002
0.635742	1.657977
0.635840	1.658066
0.635937	1.658190
0.636035	1.658407
0.636133	1.658710
0.636230	1.659062
0.636328	1.659594
0.636426	1.660265
0.636523	1.660838
0.636621	1.661573
0.636719	1.662257
0.636816	1.662724
0.636914	1.663295
0.637012	1.663531
0.637109	1.663925
0.637207	1.664487
0.637305	1.665074
0.637402	1.665874
0.637500	1.667026
0.637598	1.668417
0.637695	1.670091
0.637793	1.672080
0.637891	1.674135
0.637988	1.676370
0.638086	1.678633
0.638184	1.680747
0.638281	1.682623
0.638379	1.684206
0.638477	1.685475
0.638574	1.685877
0.638672	1.685693
0.638770	1.684869
0.638867	1.683530
0.638965	1.681887
0.639062	1.679911
0.639160	1.678329
0.639258	1.676932
0.639355	1.676027
0.639453	1.675651
0.639551	1.675575
0.639648	1.675962
0.639746	1.676711
0.639844	1.677811
0.639941	1.679299
0.640039	1.681162
0.640137	1.683215
0.640234	1.685492
0.640332	1.687554
0.640430	1.689563
0.640527	1.691249
0.640625	1.692642
0.640723	1.693669
0.640820	1.694643
0.640918	1.695562
0.641016	1.696444
0.641113	1.697083
0.641211	1.697664
0.641309	1.698375
0.641406	1.699411
0.641504	1.700927
0.641602	1.702907
0.641699	1.705157
0.641797	1.707642
0.641895	1.710145
0.641992	1.712960
0.642090	1.715933
0.642187	1.717865
0.642285	1.716164
0.642383	1.713064
0.642480	1.711887
0.642578	1.710909
0.642676	1.709878
0.642773	1.708765
0.642871	1.708165
0.642969	1.708015
0.643066	1.708336
0.643164	1.708669
0.643262	1.709179
0.643359	1.709253
0.643457	1.708960
0.643555	1.708242
0.643652	1.707189
0.643750	1.705786
0.643848	1.704142
0.643945	1.702844
0.644043	1.701966
0.644141	1.701737
0.644238	1.702107
0.644336	1.703132
0.644434	1.704472
0.644531	1.706032
0.644629	1.707569
0.644727	1.709030
0.644824	1.710295
0.644922	1.711159
0.645020	1.711460
0.645117	1.711107
0.645215	1.710166
0.645312	1.708848
0.645410	1.707446
0.645508	1.706177
0.645605	1.705213
0.645703	1.704560
0.645801	1.704068
0.645898	1.703678
0.645996	1.703104
0.646094	1.702267
0.646191	1.701153
0.646289	1.699865
0.646387	1.698702
0.646484	1.697716
0.646582	1.697186
0.646680	1.697219
0.646777	1.697226
0.646875	1.697491
0.646973	1.697403
0.647070	1.696285
0.647168	1.694308
0.647266	1.691776
0.647363	1.689308
0.647461	1.687074
0.647559	1.685202
0.647656	1.683396
0.647754	1.681839
0.647852	1.680649
0.647949	1.679946
0.648047	1.679588
0.648145	1.679409
0.648242	1.679096
0.648340	1.678584
0.648437	1.677528
0.648535	1.676096
0.648633	1.674658
0.648730	1.673430
0.648828	1.672339
0.648926	1.671379
0.649023	1.670587
0.649121	1.669792
0.649219	1.668971
0.649316	1.668311
0.649414	1.667533
0.649512	1.666682
0.649609	1.666115
0.649707	1.665331
0.649805	1.664322
0.649902	1.663253
0.650000	1.661949
0.650098	1.660566
0.650195	1.659076
0.650293	1.657583
0.650391	1.655956
0.650488	1.654538
0.650586	1.653198
0.650684	1.651934
0.650781	1.651011
0.650879	1.649995
0.650977	1.649242
0.651074	1.648391
0.651172	1.647646
0.651270	1.646991
0.651367	1.646187
0.651465	1.645532
0.651562	1.644838
0.651660	1.644078
0.651758	1.643449
0.651855	1.642797
0.651953	1.642134
0.652051	1.641433
0.652148	1.640768
0.652246	1.640159
0.652344	1.639534
0.652441	1.638998
0.652539	1.638502
0.652637	1.637889
0.652734	1.637540
0.652832	1.637169
0.652930	1.636854
0.653027	1.636760
0.653125	1.636550
0.653223	1.636589
0.653320	1.636678
0.653418	1.636957
0.653516	1.637284
0.653613	1.637778
0.653711	1.638365
0.653809	1.639063
0.653906	1.639813
0.654004	1.640585
0.654102	1.641375
0.654199	1.642132
0.654297	1.642857
0.654395	1.643692
0.654492	1.644539
0.654590	1.645471
0.654687	1.646364
0.654785	1.647504
0.654883	1.648731
0.654980	1.649972
0.655078	1.651436
0.655176	1.653070
0.655273	1.654788
0.655371	1.656599
0.655469	1.658609
0.655566	1.660532
0.655664	1.662678
0.655762	1.664638
0.655859	1.666504
0.655957	1.668342
0.656055	1.669922
0.656152	1.671398
0.656250	1.672670
0.656348	1.673862
0.656445	1.675028
0.656543	1.676231
0.656641	1.677462
0.656738	1.678891
0.656836	1.680363
0.656934	1.681837
0.657031	1.683482
0.657129	1.685269
0.657227	1.687201
0.657324	1.689068
0.657422	1.691041
0.657520	1.693008
0.657617	1.694857
0.657715	1.696471
0.657812	1.697587
0.657910	1.697789
0.658008	1.697608
0.658105	1.697245
0.658203	1.697304
0.658301	1.698236
0.658398	1.700297
0.658496	1.703584
0.658594	1.707522
0.658691	1.711065
0.658789	1.712733
0.658887	1.713671
0.658984	1.713983
0.659082	1.711520
0.659180	1.709159
0.659277	1.707868
0.659375	1.710604
0.659473	1.712874
0.659570	1.704614
0.659668	1.699598
0.659766	1.699250
0.659863	1.699663
0.659961	1.701278
0.660059	1.703644
0.660156	1.706423
0.660254	1.708675
0.660352	1.710853
0.660449	1.710713
0.660547	1.707391
0.660645	1.705501
0.660742	1.704466
0.660840	1.702603
0.660937	1.699933
0.661035	1.697943
0.661133	1.697047
0.661230	1.697174
0.661328	1.697969
0.661426	1.698861
0.661523	1.699550
0.661621	1.700200
0.661719	1.701343
0.661816	1.703002
0.661914	1.704854
0.662012	1.705960
0.662109	1.706116
0.662207	1.706029
0.662305	1.705899
0.662402	1.705553
0.662500	1.706615
0.662598	1.706789
0.662695	1.705653
0.662793	1.702315
0.662891	1.695812
0.662988	1.691651
0.663086	1.692158
0.663184	1.694676
0.663281	1.691188
0.663379	1.684763
0.663477	1.682601
0.663574	1.683502
0.663672	1.685430
0.663770	1.686826
0.663867	1.679500
0.663965	1.669670
0.664062	1.663529
0.664160	1.659431
0.664258	1.657493
0.664355	1.655831
0.664453	1.654737
0.664551	1.653792
0.664648	1.653305
0.664746	1.652867
0.664844	1.652827
0.664941	1.652950
0.665039	1.653264
0.665137	1.653912
0.665234	1.654716
0.665332	1.655555
0.665430	1.656303
0.665527	1.656686
0.665625	1.656521
0.665723	1.655795
0.665820	1.655048
0.665918	1.654355
0.666016	1.653701
0.666113	1.653193
0.666211	1.652610
0.666309	1.651842
0.666406	1.651011
0.666504	1.650255
0.666602	1.649468
0.666699	1.648694
0.666797	1.647817
0.666895	1.646782
0.666992	1.645632
0.667090	1.644513
0.667187	1.643492
0.667285	1.642450
0.667383	1.641649
0.667480	1.640948
0.667578	1.640484
0.667676	1.640115
0.667773	1.639720
0.667871	1.639410
0.667969	1.639008
0.668066	1.638775
0.668164	1.638502
0.668262	1.638412
0.668359	1.638403
0.668457	1.638560
0.668555	1.638709
0.668652	1.639044
0.668750	1.639334
0.668848	1.639824
0.668945	1.640356
0.669043	1.640912
0.669141	1.641510
0.669238	1.642155
0.669336	1.642779
0.669434	1.643449
0.669531	1.644149
0.669629	1.644919
0.669727	1.645644
0.669824	1.646500
0.669922	1.647311
0.670020	1.648147
0.670117	1.649002
0.670215	1.649942
0.670312	1.650912
0.670410	1.651928
0.670508	1.653149
0.670605	1.654319
0.670703	1.655531
0.670801	1.656786
0.670898	1.658072
0.670996	1.659382
0.671094	1.660656
0.671191	1.661933
0.671289	1.663167
0.671387	1.664528
0.671484	1.665759
0.671582	1.667026
0.671680	1.668375
0.671777	1.669673
0.671875	1.671068
0.671973	1.672394
0.672070	1.673873
0.672168	1.675420
0.672266	1.676952
0.672363	1.678630
0.672461	1.680245
0.672559	1.681807
0.672656	1.683118
0.672754	1.684328
0.672852	1.685403
0.672949	1.686292
0.673047	1.687282
0.673145	1.688161
0.673242	1.689012
0.673340	1.690026
0.673437	1.691181
0.673535	1.692538
0.673633	1.694394
0.673730	1.696372
0.673828	1.698874
0.673926	1.701399
0.674023	1.703982
0.674121	1.705826
0.674219	1.706010
0.674316	1.705387
0.674414	1.704569
0.674512	1.703995
0.674609	1.703853
0.674707	1.704757
0.674805	1.706360
0.674902	1.708386
0.675000	1.709920
0.675098	1.709759
0.675195	1.707478
0.675293	1.704933
0.675391	1.703192
0.675488	1.701587
0.675586	1.699942
0.675684	1.698876
0.675781	1.698250
0.675879	1.698230
0.675977	1.698469
0.676074	1.699316
0.676172	1.700451
0.676270	1.702127
0.676367	1.704126
0.676465	1.706373
0.676562	1.708792
0.676660	1.710891
0.676758	1.712004
0.676855	1.711580
0.676953	1.708151
0.677051	1.704916
0.677148	1.703175
0.677246	1.701020
0.677344	1.698096
0.677441	1.694846
0.677539	1.691951
0.677637	1.688949
0.677734	1.685484
0.677832	1.682249
0.677930	1.679749
0.678027	1.677897
0.678125	1.676541
0.678223	1.675159
0.678320	1.673847
0.678418	1.672344
0.678516	1.671130
0.678613	1.670074
0.678711	1.669314
0.678809	1.668893
0.678906	1.668554
0.679004	1.668519
0.679102	1.668316
0.679199	1.668311
0.679297	1.668198
0.679395	1.668004
0.679492	1.667758
0.679590	1.667499
0.679687	1.667261
0.679785	1.667174
0.679883	1.667180
0.679980	1.667395
0.680078	1.667647
0.680176	1.668023
0.680273	1.668331
0.680371	1.668609
0.680469	1.668864
0.680566	1.668977
0.680664	1.669023
0.680762	1.668698
0.680859	1.668228
0.680957	1.667469
0.681055	1.666343
0.681152	1.665088
0.681250	1.663735
0.681348	1.662164
0.681445	1.660631
0.681543	1.659017
0.681641	1.657547
0.681738	1.656088
0.681836	1.654564
0.681934	1.652975
0.682031	1.651247
0.682129	1.649478
0.682227	1.647578
0.682324	1.645688
0.682422	1.643941
0.682520	1.642130
0.682617	1.640785
0.682715	1.639512
0.682812	1.638537
0.682910	1.637708
0.683008	1.637158
0.683105	1.636791
0.683203	1.636618
0.683301	1.636588
0.683398	1.636860
0.683496	1.637266
0.683594	1.637940
0.683691	1.638713
0.683789	1.639651
0.683887	1.640735
0.683984	1.642026
0.684082	1.643383
0.684180	1.644800
0.684277	1.646317
0.684375	1.647834
0.684473	1.649312
0.684570	1.650779
0.684668	1.652341
0.684766	1.653793
0.684863	1.655361
0.684961	1.656967
0.685059	1.658672
0.685156	1.660275
0.685254	1.661919
0.685352	1.663392
0.685449	1.664780
0.685547	1.666173
0.685645	1.667568
0.685742	1.669008
0.685840	1.670707
0.685937	1.672355
0.686035	1.674118
0.686133	1.675824
0.686230	1.677569
0.686328	1.679327
0.686426	1.680820
0.686523	1.682377
0.686621	1.683684
0.686719	1.684757
0.686816	1.685506
0.686914	1.686054
0.687012	1.686130
0.687109	1.686223
0.687207	1.686396
0.687305	1.686505
0.687402	1.686718
0.687500	1.686833
0.687598	1.686785
0.687695	1.686627
0.687793	1.686521
0.687891	1.686428
0.687988	1.686286
0.688086	1.686234
0.688184	1.686087
0.688281	1.685957
0.688379	1.685893
0.688477	1.686009
0.688574	1.686190
0.688672	1.686565
0.688770	1.687100
0.688867	1.687776
0.688965	1.688604
0.689062	1.689486
0.689160	1.690565
0.689258	1.691640
0.689355	1.692933
0.689453	1.694035
0.689551	1.695221
0.689648	1.696539
0.689746	1.697825
0.689844	1.699144
0.689941	1.700522
0.690039	1.701830
0.690137	1.703117
0.690234	1.704291
0.690332	1.705209
0.690430	1.706011
0.690527	1.706628
0.690625	1.707109
0.690723	1.707404
0.690820	1.707225
0.690918	1.705893
0.691016	1.703416
0.691113	1.700304
0.691211	1.697781
0.691309	1.695956
0.691406	1.694004
0.691504	1.691860
0.691602	1.689409
0.691699	1.687039
0.691797	1.685049
0.691895	1.683536
0.691992	1.682497
0.692090	1.681980
0.692187	1.681800
0.692285	1.681918
0.692383	1.682157
0.692480	1.682604
0.692578	1.682673
0.692676	1.682722
0.692773	1.682319
0.692871	1.681701
0.692969	1.680680
0.693066	1.679478
0.693164	1.677869
0.693262	1.676059
0.693359	1.674061
0.693457	1.671938
0.693555	1.669690
0.693652	1.667447
0.693750	1.665150
0.693848	1.662815
0.693945	1.660624
0.694043	1.658392
0.694141	1.656490
0.694238	1.654668
0.694336	1.653245
0.694434	1.651956
0.694531	1.651044
0.694629	1.650095
0.694727	1.649292
0.694824	1.648704
0.694922	1.648084
0.695020	1.647478
0.695117	1.646953
0.695215	1.646539
0.695312	1.646017
0.695410	1.645685
0.695508	1.645245
0.695605	1.644801
0.695703	1.644262
0.695801	1.643758
0.695898	1.643321
0.695996	1.642787
0.696094	1.642252
0.696191	1.641884
0.696289	1.641440
0.696387	1.641162
0.696484	1.641018
0.696582	1.640815
0.696680	1.640898
0.696777	1.641021
0.696875	1.641183
0.696973	1.641466
0.697070	1.641893
0.697168	1.642581
0.697266	1.643230
0.697363	1.644053
0.697461	1.645021
0.697559	1.646095
0.697656	1.647206
0.697754	1.648680
0.697852	1.650082
0.697949	1.651592
0.698047	1.653163
0.698145	1.654718
0.698242	1.656426
0.698340	1.657885
0.698437	1.659511
0.698535	1.660985
0.698633	1.662429
0.698730	1.663912
0.698828	1.665275
0.698926	1.666668
0.699023	1.668067
0.699121	1.669665
0.699219	1.671313
0.699316	1.673093
0.699414	1.674957
0.699512	1.676751
0.699609	1.678679
0.699707	1.680345
0.699805	1.682120
0.699902	1.683817
0.700000	1.685474
0.700098	1.687167
0.700195	1.688830
0.700293	1.690535
0.700391	1.692180
0.700488	1.693624
0.700586	1.694915
0.700684	1.695822
0.700781	1.696629
0.700879	1.697238
0.700977	1.698090
0.701074	1.698789
0.701172	1.699522
0.701270	1.700145
0.701367	1.700563
0.701465	1.701141
0.701562	1.702013
0.701660	1.703210
0.701758	1.704740
0.701855	1.706477
0.701953	1.708263
0.702051	1.709607
0.702148	1.710487
0.702246	1.710898
0.702344	1.711334
0.702441	1.712001
0.702539	1.713720
0.702637	1.715948
0.702734	1.718647
0.702832	1.719869
0.702930	1.719747
0.703027	1.719155
0.703125	1.718470
0.703223	1.716414
0.703320	1.715429
0.703418	1.714448
0.703516	1.715237
0.703613	1.715986
0.703711	1.719161
0.703809	1.721768
0.703906	1.726998
0.704004	1.728947
0.704102	1.731041
0.704199	1.725684
0.704297	1.732497
0.704395	1.733423
0.704492	1.749191
0.704590	1.736141
0.704687	1.727958
0.704785	1.718762
0.704883	1.708499
0.704980	1.713953
0.705078	1.678491
0.705176	1.684644
0.705273	1.677219
0.705371	1.671220
0.705469	1.660883
0.705566	1.654496
0.705664	1.648954
0.705762	1.648698
0.705859	1.647708
0.705957	1.648567
0.706055	1.648175
0.706152	1.649402
0.706250	1.650232
0.706348	1.652412
0.706445	1.654463
0.706543	1.656891
0.706641	1.659155
0.706738	1.661538
0.706836	1.663553
0.706934	1.665445
0.707031	1.666865
0.707129	1.668286
0.707227	1.669339
0.707324	1.670240
0.707422	1.670983
0.707520	1.671447
0.707617	1.671924
0.707715	1.672259
0.707812	1.672601
0.707910	1.672932
0.708008	1.673315
0.708105	1.673691
0.708203	1.674207
0.708301	1.674764
0.708398	1.675309
0.708496	1.676009
0.708594	1.676809
0.708691	1.677644
0.708789	1.678681
0.708887	1.679717
0.708984	1.681098
0.709082	1.682472
0.709180	1.684362
0.709277	1.686676
0.709375	1.688991
0.709473	1.689123
0.709570	1.687394
0.709668	1.685093
0.709766	1.682966
0.709863	1.680859
0.709961	1.682412
0.710059	1.683558
0.710156	1.683061
0.710254	1.686146
0.710352	1.669945
0.710449	1.654905
0.710547	1.631565
0.710645	1.626535
0.710742	1.629819
0.710840	1.627802
0.710937	1.627284
0.711035	1.626459
0.711133	1.625546
0.711230	1.624401
0.711328	1.623439
0.711426	1.622522
0.711523	1.621799
0.711621	1.621277
0.711719	1.620905
0.711816	1.620553
0.711914	1.620571
0.712012	1.620494
0.712109	1.620587
0.712207	1.620867
0.712305	1.621114
0.712402	1.621728
0.712500	1.622404
0.712598	1.623223
0.712695	1.624252
0.712793	1.625361
0.712891	1.626570
0.712988	1.627916
0.713086	1.629297
0.713184	1.630684
0.713281	1.632150
0.713379	1.633576
0.713477	1.634986
0.713574	1.636367
0.713672	1.637836
0.713770	1.639255
0.713867	1.640624
0.713965	1.642144
0.714062	1.643719
0.714160	1.645385
0.714258	1.647313
0.714355	1.649201
0.714453	1.651209
0.714551	1.653174
0.714648	1.655015
0.714746	1.656626
0.714844	1.658123
0.714941	1.659572
0.715039	1.661018
0.715137	1.662733
0.715234	1.664526
0.715332	1.666386
0.715430	1.668385
0.715527	1.670486
0.715625	1.672453
0.715723	1.674404
0.715820	1.676301
0.715918	1.677805
0.716016	1.679223
0.716113	1.680277
0.716211	1.681115
0.716309	1.682152
0.716406	1.683251
0.716504	1.684388
0.716602	1.685769
0.716699	1.687235
0.716797	1.688744
0.716895	1.690371
0.716992	1.692258
0.717090	1.694037
0.717187	1.696078
0.717285	1.697474
0.717383	1.698466
0.717480	1.698798
0.717578	1.698595
0.717676	1.698319
0.717773	1.698092
0.717871	1.698086
0.717969	1.698225
0.718066	1.698690
0.718164	1.699492
0.718262	1.700305
0.718359	1.701227
0.718457	1.702315
0.718555	1.703522
0.718652	1.704967
0.718750	1.706794
0.718848	1.708782
0.718945	1.710453
0.719043	1.711113
0.719141	1.710743
0.719238	1.709981
0.719336	1.708940
0.719434	1.707596
0.719531	1.706324
0.719629	1.706248
0.719727	1.707330
0.719824	1.708171
0.719922	1.706824
0.720020	1.704728
0.720117	1.703478
0.720215	1.702712
0.720312	1.702530
0.720410	1.702915
0.720508	1.704648
0.720605	1.706774
0.720703	1.708723
0.720801	1.707564
0.720898	1.700569
0.720996	1.696191
0.721094	1.694704
0.721191	1.693756
0.721289	1.693566
0.721387	1.693005
0.721484	1.693340
0.721582	1.693032
0.721680	1.693949
0.721777	1.693595
0.721875	1.694345
0.721973	1.692854
0.722070	1.693190
0.722168	1.690782
0.722266	1.689625
0.722363	1.681100
0.722461	1.676873
0.722559	1.667841
0.722656	1.678559
0.722754	1.664299
0.722852	1.652165
0.722949	1.657551
0.723047	1.653382
0.723145	1.655037
0.723242	1.652894
0.723340	1.654372
0.723437	1.654105
0.723535	1.655835
0.723633	1.656175
0.723730	1.657963
0.723828	1.659463
0.723926	1.660585
0.724023	1.660491
0.724121	1.661589
0.724219	1.662489
0.724316	1.657096
0.724414	1.646879
0.724512	1.644135
0.724609	1.641390
0.724707	1.640465
0.724805	1.639123
0.724902	1.638339
0.725000	1.636909
0.725098	1.635893
0.725195	1.634481
0.725293	1.633477
0.725391	1.632329
0.725488	1.631356
0.725586	1.630523
0.725684	1.629840
0.725781	1.629333
0.725879	1.628954
0.725977	1.628652
0.726074	1.628582
0.726172	1.628439
0.726270	1.628520
0.726367	1.628642
0.726465	1.628774
0.726562	1.628984
0.726660	1.629314
0.726758	1.629626
0.726855	1.630110
0.726953	1.630608
0.727051	1.631095
0.727148	1.631956
0.727246	1.632802
0.727344	1.633707
0.727441	1.634699
0.727539	1.635766
0.727637	1.636970
0.727734	1.638236
0.727832	1.639536
0.727930	1.641100
0.728027	1.642566
0.728125	1.644212
0.728223	1.645699
0.728320	1.647370
0.728418	1.649005
0.728516	1.650746
0.728613	1.652492
0.728711	1.654244
0.728809	1.656094
0.728906	1.657929
0.729004	1.659897
0.729102	1.661706
0.729199	1.663498
0.729297	1.665099
0.729395	1.666613
0.729492	1.668010
0.729590	1.669454
0.729687	1.670847
0.729785	1.672604
0.729883	1.674483
0.729980	1.676674
0.730078	1.678941
0.730176	1.681262
0.730273	1.683509
0.730371	1.685398
0.730469	1.687167
0.730566	1.688397
0.730664	1.689223
0.730762	1.690167
0.730859	1.691627
0.730957	1.693847
0.731055	1.697073
0.731152	1.700075
0.731250	1.702563
0.731348	1.704280
0.731445	1.704463
0.731543	1.703987
0.731641	1.702900
0.731738	1.701466
0.731836	1.699605
0.731934	1.697781
0.732031	1.696816
0.732129	1.696575
0.732227	1.696943
0.732324	1.697769
0.732422	1.699133
0.732520	1.700974
0.732617	1.703536
0.732715	1.706999
0.732812	1.711068
0.732910	1.715657
0.733008	1.719705
0.733105	1.720229
0.733203	1.715517
0.733301	1.709853
0.733398	1.705665
0.733496	1.704693
0.733594	1.704571
0.733691	1.705628
0.733789	1.705932
0.733887	1.707702
0.733984	1.709244
0.734082	1.713512
0.734180	1.717169
0.734277	1.723112
0.734375	1.720482
0.734473	1.705543
0.734570	1.697490
0.734668	1.707791
0.734766	1.696159
0.734863	1.684133
0.734961	1.692262
0.735059	1.690524
0.735156	1.694457
0.735254	1.695084
0.735352	1.697719
0.735449	1.697838
0.735547	1.698885
0.735645	1.698262
0.735742	1.698677
0.735840	1.698337
0.735937	1.698774
0.736035	1.698041
0.736133	1.696488
0.736230	1.693635
0.736328	1.691564
0.736426	1.690187
0.736523	1.689496
0.736621	1.688811
0.736719	1.688036
0.736816	1.686937
0.736914	1.685275
0.737012	1.683177
0.737109	1.681111
0.737207	1.678967
0.737305	1.676940
0.737402	1.675029
0.737500	1.673349
0.737598	1.672139
0.737695	1.671064
0.737793	1.670079
0.737891	1.668958
0.737988	1.667809
0.738086	1.666268
0.738184	1.664640
0.738281	1.662642
0.738379	1.660723
0.738477	1.658674
0.738574	1.656745
0.738672	1.654859
0.738770	1.653002
0.738867	1.651367
0.738965	1.649627
0.739062	1.648111
0.739160	1.646683
0.739258	1.645383
0.739355	1.644229
0.739453	1.643186
0.739551	1.642311
0.739648	1.641572
0.739746	1.640841
0.739844	1.640248
0.739941	1.639732
0.740039	1.639388
0.740137	1.639163
0.740234	1.638800
0.740332	1.638659
0.740430	1.638553
0.740527	1.638482
0.740625	1.638532
0.740723	1.638658
0.740820	1.638791
0.740918	1.638897
0.741016	1.639243
0.741113	1.639470
0.741211	1.639849
0.741309	1.640217
0.741406	1.640442
0.741504	1.640901
0.741602	1.641218
0.741699	1.641436
0.741797	1.641773
0.741895	1.642078
0.741992	1.642248
0.742090	1.642544
0.742187	1.642785
0.742285	1.643186
0.742383	1.643478
0.742480	1.644018
0.742578	1.644574
0.742676	1.645168
0.742773	1.645970
0.742871	1.646855
0.742969	1.647831
0.743066	1.648869
0.743164	1.650032
0.743262	1.651142
0.743359	1.652365
0.743457	1.653533
0.743555	1.654723
0.743652	1.655698
0.743750	1.656732
0.743848	1.657924
0.743945	1.658918
0.744043	1.659943
0.744141	1.661072
0.744238	1.662151
0.744336	1.663247
0.744434	1.664472
0.744531	1.665877
0.744629	1.667281
0.744727	1.668791
0.744824	1.670376
0.744922	1.671965
0.745020	1.673545
0.745117	1.675191
0.745215	1.676978
0.745312	1.678932
0.745410	1.681037
0.745508	1.683250
0.745605	1.685397
0.745703	1.687537
0.745801	1.689439
0.745898	1.691043
0.745996	1.692448
0.746094	1.693483
0.746191	1.694445
0.746289	1.695269
0.746387	1.696069
0.746484	1.696833
0.746582	1.697690
0.746680	1.698389
0.746777	1.699070
0.746875	1.699563
0.746973	1.699853
0.747070	1.700053
0.747168	1.700374
0.747266	1.700414
0.747363	1.700249
0.747461	1.700093
0.747559	1.699861
0.747656	1.699871
0.747754	1.699850
0.747852	1.700172
0.747949	1.700268
0.748047	1.700475
0.748145	1.700599
0.748242	1.700774
0.748340	1.701293
0.748437	1.701825
0.748535	1.702774
0.748633	1.703866
0.748730	1.705377
0.748828	1.706986
0.748926	1.708398
0.749023	1.709325
0.749121	1.709527
0.749219	1.709027
0.749316	1.708256
0.749414	1.707603
0.749512	1.707324
0.749609	1.706962
0.749707	1.706484
0.749805	1.705582
0.749902	1.704351
0.750000	1.702712
0.750098	1.700769
0.750195	1.698451
0.750293	1.696274
0.750391	1.694680
0.750488	1.693548
0.750586	1.693184
0.750684	1.693332
0.750781	1.693867
0.750879	1.694771
0.750977	1.695877
0.751074	1.697226
0.751172	1.698732
0.751270	1.700233
0.751367	1.701601
0.751465	1.702952
0.751562	1.703801
0.751660	1.704103
0.751758	1.703496
0.751855	1.701963
0.751953	1.700145
0.752051	1.698926
0.752148	1.697838
0.752246	1.696587
0.752344	1.694541
0.752441	1.692237
0.752539	1.689693
0.752637	1.687454
0.752734	1.685300
0.752832	1.683341
0.752930	1.681585
0.753027	1.679751
0.753125	1.678253
0.753223	1.676938
0.753320	1.675957
0.753418	1.675296
0.753516	1.675067
0.753613	1.675177
0.753711	1.675589
0.753809	1.676461
0.753906	1.677368
0.754004	1.678488
0.754102	1.679481
0.754199	1.680222
0.754297	1.680683
0.754395	1.680596
0.754492	1.680171
0.754590	1.679534
0.754687	1.678838
0.754785	1.678153
0.754883	1.677537
0.754980	1.676904
0.755078	1.675887
0.755176	1.674595
0.755273	1.672843
0.755371	1.670893
0.755469	1.668641
0.755566	1.666354
0.755664	1.664083
0.755762	1.661943
0.755859	1.660092
0.755957	1.658520
0.756055	1.657159
0.756152	1.655972
0.756250	1.655001
0.756348	1.654126
0.756445	1.653393
0.756543	1.652703
0.756641	1.652171
0.756738	1.651496
0.756836	1.650955
0.756934	1.650450
0.757031	1.649862
0.757129	1.649583
0.757227	1.649374
0.757324	1.649138
0.757422	1.649022
0.757520	1.648847
0.757617	1.648843
0.757715	1.648888
0.757812	1.649021
0.757910	1.649236
0.758008	1.649524
0.758105	1.649899
0.758203	1.650356
0.758301	1.650773
0.758398	1.651314
0.758496	1.652006
0.758594	1.652587
0.758691	1.653359
0.758789	1.654049
0.758887	1.654959
0.758984	1.655890
0.759082	1.656823
0.759180	1.657787
0.759277	1.658820
0.759375	1.659951
0.759473	1.661104
0.759570	1.662166
0.759668	1.663272
0.759766	1.664319
0.759863	1.665315
0.759961	1.666408
0.760059	1.667391
0.760156	1.668424
0.760254	1.669655
0.760352	1.670945
0.760449	1.672336
0.760547	1.673852
0.760645	1.675325
0.760742	1.676686
0.760840	1.677976
0.760937	1.679140
0.761035	1.680198
0.761133	1.681130
0.761230	1.681954
0.761328	1.682817
0.761426	1.683803
0.761523	1.684857
0.761621	1.686377
0.761719	1.687958
0.761816	1.689963
0.761914	1.692169
0.762012	1.694605
0.762109	1.697252
0.762207	1.699638
0.762305	1.701467
0.762402	1.702398
0.762500	1.702429
0.762598	1.701839
0.762695	1.700849
0.762793	1.699663
0.762891	1.698358
0.762988	1.697309
0.763086	1.696868
0.763184	1.696576
0.763281	1.696773
0.763379	1.697169
0.763477	1.697874
0.763574	1.698976
0.763672	1.700394
0.763770	1.702185
0.763867	1.704427
0.763965	1.706875
0.764062	1.709493
0.764160	1.711839
0.764258	1.713824
0.764355	1.714595
0.764453	1.714067
0.764551	1.711591
0.764648	1.708277
0.764746	1.705114
0.764844	1.702343
0.764941	1.700210
0.765039	1.698589
0.765137	1.697054
0.765234	1.695645
0.765332	1.694339
0.765430	1.693307
0.765527	1.692774
0.765625	1.692804
0.765723	1.693253
0.765820	1.694131
0.765918	1.695253
0.766016	1.696611
0.766113	1.698259
0.766211	1.699870
0.766309	1.701328
0.766406	1.702445
0.766504	1.703118
0.766602	1.703220
0.766699	1.702735
0.766797	1.701842
0.766895	1.700632
0.766992	1.699292
0.767090	1.697947
0.767187	1.696734
0.767285	1.695731
0.767383	1.695105
0.767480	1.694913
0.767578	1.694943
0.767676	1.695294
0.767773	1.695905
0.767871	1.696712
0.767969	1.697421
0.768066	1.697952
0.768164	1.698217
0.768262	1.697877
0.768359	1.697063
0.768457	1.695542
0.768555	1.693622
0.768652	1.691459
0.768750	1.689279
0.768848	1.686860
0.768945	1.684208
0.769043	1.681572
0.769141	1.679112
0.769238	1.676790
0.769336	1.674761
0.769434	1.673215
0.769531	1.671993
0.769629	1.671019
0.769727	1.670237
0.769824	1.669822
0.769922	1.669432
0.770020	1.669166
0.770117	1.669003
0.770215	1.668828
0.770312	1.668681
0.770410	1.668457
0.770508	1.667964
0.770605	1.667281
0.770703	1.666334
0.770801	1.665208
0.770898	1.663812
0.770996	1.662122
0.771094	1.660536
0.771191	1.658895
0.771289	1.657231
0.771387	1.655828
0.771484	1.654442
0.771582	1.653317
0.771680	1.652240
0.771777	1.651338
0.771875	1.650582
0.771973	1.649791
0.772070	1.649293
0.772168	1.648723
0.772266	1.648239
0.772363	1.647858
0.772461	1.647473
0.772559	1.647194
0.772656	1.646964
0.772754	1.646704
0.772852	1.646577
0.772949	1.646502
0.773047	1.646440
0.773145	1.646546
0.773242	1.646588
0.773340	1.646766
0.773437	1.646984
0.773535	1.647187
0.773633	1.647609
0.773730	1.647964
0.773828	1.648527
0.773926	1.649053
0.774023	1.649615
0.774121	1.650363
0.774219	1.650982
0.774316	1.651652
0.774414	1.652520
0.774512	1.653306
0.774609	1.654145
0.774707	1.655049
0.774805	1.656008
0.774902	1.656891
0.775000	1.657935
0.775098	1.658920
0.775195	1.660085
0.775293	1.661302
0.775391	1.662696
0.775488	1.664175
0.775586	1.665814
0.775684	1.667445
0.775781	1.669149
0.775879	1.670990
0.775977	1.672762
0.776074	1.674409
0.776172	1.675851
0.776270	1.677171
0.776367	1.678328
0.776465	1.679475
0.776562	1.680676
0.776660	1.681909
0.776758	1.683380
0.776855	1.684877
0.776953	1.686448
0.777051	1.687942
0.777148	1.689427
0.777246	1.690835
0.777344	1.692226
0.777441	1.693773
0.777539	1.695452
0.777637	1.697381
0.777734	1.699270
0.777832	1.700967
0.777930	1.702497
0.778027	1.703470
0.778125	1.704155
0.778223	1.704540
0.778320	1.704959
0.778418	1.705745
0.778516	1.706986
0.778613	1.708531
0.778711	1.710081
0.778809	1.711412
0.778906	1.711963
0.779004	1.711888
0.779102	1.711283
0.779199	1.710208
0.779297	1.709028
0.779395	1.708630
0.779492	1.708980
0.779590	1.709736
0.779687	1.710728
0.779785	1.711810
0.779883	1.713053
0.779980	1.713920
0.780078	1.713715
0.780176	1.713040
0.780273	1.712866
0.780371	1.712957
0.780469	1.713231
0.780566	1.713138
0.780664	1.713161
0.780762	1.713150
0.780859	1.712172
0.780957	1.709899
0.781055	1.707211
0.781152	1.705105
0.781250	1.703637
0.781348	1.702713
0.781445	1.702074
0.781543	1.702137
0.781641	1.701717
0.781738	1.700925
0.781836	1.699104
0.781934	1.697076
0.782031	1.694373
0.782129	1.692301
0.782227	1.690426
0.782324	1.690872
0.782422	1.691562
0.782520	1.693808
0.782617	1.694666
0.782715	1.698261
0.782812	1.701861
0.782910	1.704756
0.783008	1.694751
0.783105	1.692469
0.783203	1.692354
0.783301	1.681308
0.783398	1.678852
0.783496	1.678069
0.783594	1.679172
0.783691	1.679526
0.783789	1.682062
0.783887	1.684159
0.783984	1.687475
0.784082	1.688837
0.784180	1.691704
0.784277	1.691149
0.784375	1.687443
0.784473	1.680925
0.784570	1.672010
0.784668	1.670176
0.784766	1.666933
0.784863	1.664147
0.784961	1.660813
0.785059	1.658153
0.785156	1.655557
0.785254	1.653736
0.785352	1.652044
0.785449	1.651001
0.785547	1.649996
0.785645	1.649484
0.785742	1.649095
0.785840	1.648990
0.785937	1.648924
0.786035	1.649071
0.786133	1.649202
0.786230	1.649453
0.786328	1.649580
0.786426	1.649823
0.786523	1.649834
0.786621	1.649900
0.786719	1.649862
0.786816	1.649743
0.786914	1.649779
0.787012	1.649582
0.787109	1.649402
0.787207	1.649178
0.787305	1.648785
0.787402	1.648192
0.787500	1.647578
0.787598	1.646885
0.787695	1.646438
0.787793	1.645702
0.787891	1.644910
0.787988	1.644046
0.788086	1.643130
0.788184	1.642100
0.788281	1.641318
0.788379	1.640484
0.788477	1.639864
0.788574	1.639275
0.788672	1.638786
0.788770	1.638418
0.788867	1.638231
0.788965	1.638201
0.789062	1.638290
0.789160	1.638583
0.789258	1.639053
0.789355	1.639715
0.789453	1.640397
0.789551	1.641358
0.789648	1.642326
0.789746	1.643397
0.789844	1.644464
0.789941	1.645592
0.790039	1.646750
0.790137	1.648010
0.790234	1.649265
0.790332	1.650477
0.790430	1.651747
0.790527	1.653166
0.790625	1.654533
0.790723	1.655908
0.790820	1.657279
0.790918	1.658746
0.791016	1.660227
0.791113	1.661660
0.791211	1.663073
0.791309	1.664491
0.791406	1.665999
0.791504	1.667416
0.791602	1.668978
0.791699	1.670334
0.791797	1.671715
0.791895	1.673037
0.791992	1.674246
0.792090	1.675436
0.792187	1.676652
0.792285	1.677800
0.792383	1.679070
0.792480	1.680238
0.792578	1.681244
0.792676	1.682255
0.792773	1.683268
0.792871	1.684118
0.792969	1.684960
0.793066	1.685883
0.793164	1.686895
0.793262	1.687910
0.793359	1.688887
0.793457	1.689808
0.793555	1.690649
0.793652	1.691437
0.793750	1.692243
0.793848	1.693059
0.793945	1.693929
0.794043	1.694827
0.794141	1.695534
0.794238	1.696077
0.794336	1.696470
0.794434	1.696892
0.794531	1.697225
0.794629	1.697620
0.794727	1.698015
0.794824	1.698359
0.794922	1.698660
0.795020	1.698987
0.795117	1.699284
0.795215	1.699610
0.795312	1.700030
0.795410	1.700360
0.795508	1.700648
0.795605	1.700893
0.795703	1.701168
0.795801	1.701269
0.795898	1.701365
0.795996	1.701459
0.796094	1.701480
0.796191	1.701514
0.796289	1.701567
0.796387	1.701667
0.796484	1.702015
0.796582	1.702419
0.796680	1.703228
0.796777	1.703973
0.796875	1.705276
0.796973	1.706193
0.797070	1.707549
0.797168	1.708428
0.797266	1.709761
0.797363	1.709740
0.797461	1.709591
0.797559	1.707307
0.797656	1.706380
0.797754	1.704305
0.797852	1.706691
0.797949	1.709277
0.798047	1.721007
0.798145	1.723156
0.798242	1.723276
0.798340	1.706279
0.798437	1.667693
0.798535	1.669263
0.798633	1.669875
0.798730	1.671198
0.798828	1.669606
0.798926	1.670044
0.799023	1.669886
0.799121	1.666855
0.799219	1.659200
0.799316	1.653040
0.799414	1.646922
0.799512	1.645002
0.799609	1.643387
0.799707	1.643376
0.799805	1.643615
0.799902	1.644425
0.800000	1.645195
0.800098	1.646414
0.800195	1.647539
0.800293	1.648931
0.800391	1.650068
0.800488	1.651490
0.800586	1.652835
0.800684	1.654428
0.800781	1.656003
0.800879	1.657755
0.800977	1.659364
0.801074	1.660850
0.801172	1.662103
0.801270	1.662945
0.801367	1.663705
0.801465	1.664238
0.801562	1.664663
0.801660	1.664903
0.801758	1.664829
0.801855	1.664510
0.801953	1.663907
0.802051	1.663167
0.802148	1.662414
0.802246	1.661532
0.802344	1.660699
0.802441	1.660054
0.802539	1.659413
0.802637	1.659089
0.802734	1.658902
0.802832	1.658905
0.802930	1.659006
0.803027	1.659312
0.803125	1.659680
0.803223	1.660151
0.803320	1.660820
0.803418	1.661635
0.803516	1.662589
0.803613	1.663737
0.803711	1.664941
0.803809	1.666038
0.803906	1.667392
0.804004	1.668571
0.804102	1.669635
0.804199	1.670596
0.804297	1.671259
0.804395	1.671924
0.804492	1.672428
0.804590	1.672945
0.804687	1.673330
0.804785	1.673693
0.804883	1.674064
0.804980	1.674514
0.805078	1.674974
0.805176	1.675663
0.805273	1.676431
0.805371	1.677355
0.805469	1.678420
0.805566	1.679704
0.805664	1.681141
0.805762	1.682750
0.805859	1.684341
0.805957	1.685962
0.806055	1.687462
0.806152	1.688801
0.806250	1.689992
0.806348	1.690786
0.806445	1.691503
0.806543	1.692175
0.806641	1.692843
0.806738	1.693468
0.806836	1.694168
0.806934	1.695007
0.807031	1.696007
0.807129	1.697254
0.807227	1.698738
0.807324	1.700512
0.807422	1.702267
0.807520	1.704192
0.807617	1.705994
0.807715	1.707727
0.807812	1.709094
0.807910	1.710103
0.808008	1.710835
0.808105	1.711089
0.808203	1.711239
0.808301	1.711749
0.808398	1.712417
0.808496	1.712964
0.808594	1.713214
0.808691	1.712716
0.808789	1.711943
0.808887	1.710471
0.808984	1.707746
0.809082	1.704310
0.809180	1.701235
0.809277	1.699288
0.809375	1.698093
0.809473	1.697030
0.809570	1.695798
0.809668	1.693952
0.809766	1.692021
0.809863	1.689918
0.809961	1.687950
0.810059	1.686203
0.810156	1.684872
0.810254	1.683704
0.810352	1.682998
0.810449	1.682610
0.810547	1.682465
0.810645	1.682554
0.810742	1.682760
0.810840	1.682969
0.810937	1.683125
0.811035	1.683397
0.811133	1.683720
0.811230	1.684015
0.811328	1.684283
0.811426	1.684681
0.811523	1.684938
0.811621	1.685046
0.811719	1.685123
0.811816	1.685128
0.811914	1.685004
0.812012	1.684919
0.812109	1.684741
0.812207	1.684688
0.812305	1.684606
0.812402	1.684467
0.812500	1.684337
0.812598	1.684006
0.812695	1.683777
0.812793	1.683370
0.812891	1.682933
0.812988	1.682500
0.813086	1.681900
0.813184	1.681463
0.813281	1.680921
0.813379	1.680553
0.813477	1.680205
0.813574	1.679885
0.813672	1.679733
0.813770	1.679518
0.813867	1.679323
0.813965	1.678967
0.814062	1.678533
0.814160	1.677796
0.814258	1.676646
0.814355	1.675382
0.814453	1.673895
0.814551	1.672394
0.814648	1.670791
0.814746	1.669315
0.814844	1.667693
0.814941	1.666078
0.815039	1.664606
0.815137	1.663115
0.815234	1.661681
0.815332	1.660394
0.815430	1.659190
0.815527	1.658108
0.815625	1.657198
0.815723	1.656301
0.815820	1.655632
0.815918	1.655209
0.816016	1.654845
0.816113	1.654658
0.816211	1.654597
0.816309	1.654671
0.816406	1.654904
0.816504	1.655232
0.816602	1.655702
0.816699	1.656169
0.816797	1.656755
0.816895	1.657600
0.816992	1.658364
0.817090	1.659255
0.817187	1.660397
0.817285	1.661611
0.817383	1.662796
0.817480	1.663767
0.817578	1.664715
0.817676	1.665539
0.817773	1.666367
0.817871	1.667013
0.817969	1.667588
0.818066	1.668138
0.818164	1.668680
0.818262	1.669308
0.818359	1.669892
0.818457	1.670614
0.818555	1.671472
0.818652	1.672361
0.818750	1.673326
0.818848	1.674413
0.818945	1.675735
0.819043	1.676921
0.819141	1.677962
0.819238	1.678798
0.819336	1.679351
0.819434	1.679672
0.819531	1.679961
0.819629	1.680149
0.819727	1.680401
0.819824	1.680771
0.819922	1.681261
0.820020	1.681980
0.820117	1.682762
0.820215	1.683620
0.820312	1.684385
0.820410	1.685276
0.820508	1.686134
0.820605	1.687033
0.820703	1.688154
0.820801	1.689146
0.820898	1.689985
0.820996	1.690344
0.821094	1.690273
0.821191	1.689780
0.821289	1.689219
0.821387	1.688752
0.821484	1.688588
0.821582	1.688890
0.821680	1.689302
0.821777	1.690054
0.821875	1.690831
0.821973	1.691677
0.822070	1.692241
0.822168	1.692408
0.822266	1.692594
0.822363	1.692467
0.822461	1.692376
0.822559	1.692382
0.822656	1.692418
0.822754	1.692480
0.822852	1.692664
0.822949	1.693065
0.823047	1.693592
0.823145	1.694569
0.823242	1.695485
0.823340	1.696343
0.823437	1.697207
0.823535	1.697928
0.823633	1.698701
0.823730	1.699162
0.823828	1.699319
0.823926	1.699037
0.824023	1.698362
0.824121	1.697697
0.824219	1.696754
0.824316	1.695352
0.824414	1.693636
0.824512	1.691826
0.824609	1.690257
0.824707	1.689190
0.824805	1.688377
0.824902	1.688028
0.825000	1.687969
0.825098	1.688096
0.825195	1.688352
0.825293	1.688569
0.825391	1.688636
0.825488	1.688722
0.825586	1.688698
0.825684	1.688352
0.825781	1.687870
0.825879	1.686866
0.825977	1.685425
0.826074	1.683988
0.826172	1.682698
0.826270	1.681682
0.826367	1.681072
0.826465	1.680720
0.826562	1.680613
0.826660	1.680570
0.826758	1.680623
0.826855	1.680824
0.826953	1.681146
0.827051	1.681582
0.827148	1.682258
0.827246	1.683110
0.827344	1.684093
0.827441	1.684993
0.827539	1.685737
0.827637	1.686265
0.827734	1.686410
0.827832	1.686296
0.827930	1.685928
0.828027	1.685470
0.828125	1.684541
0.828223	1.683119
0.828320	1.681395
0.828418	1.679583
0.828516	1.678097
0.828613	1.676757
0.828711	1.675585
0.828809	1.674593
0.828906	1.673887
0.829004	1.673390
0.829102	1.672989
0.829199	1.672715
0.829297	1.672651
0.829395	1.672073
0.829492	1.671508
0.829590	1.670506
0.829687	1.669273
0.829785	1.667859
0.829883	1.666587
0.829980	1.665276
0.830078	1.664219
0.830176	1.663273
0.830273	1.662421
0.830371	1.661727
0.830469	1.660927
0.830566	1.660205
0.830664	1.659450
0.830762	1.658755
0.830859	1.657911
0.830957	1.657536
0.831055	1.657004
0.831152	1.656556
0.831250	1.656385
0.831348	1.656138
0.831445	1.656038
0.831543	1.656087
0.831641	1.656072
0.831738	1.656041
0.831836	1.656163
0.831934	1.656126
0.832031	1.656307
0.832129	1.656477
0.832227	1.656899
0.832324	1.657377
0.832422	1.658066
0.832520	1.658762
0.832617	1.659558
0.832715	1.660247
0.832812	1.660985
0.832910	1.661424
0.833008	1.661697
0.833105	1.661862
0.833203	1.661889
0.833301	1.662012
0.833398	1.662060
0.833496	1.662207
0.833594	1.662487
0.833691	1.662947
0.833789	1.663534
0.833887	1.664128
0.833984	1.664855
0.834082	1.665563
0.834180	1.666170
0.834277	1.666948
0.834375	1.667852
0.834473	1.668731
0.834570	1.669804
0.834668	1.670944
0.834766	1.672170
0.834863	1.673673
0.834961	1.675127
0.835059	1.676834
0.835156	1.678401
0.835254	1.680063
0.835352	1.681594
0.835449	1.682969
0.835547	1.684054
0.835645	1.684970
0.835742	1.685556
0.835840	1.686158
0.835937	1.686588
0.836035	1.687088
0.836133	1.687767
0.836230	1.688786
0.836328	1.690130
0.836426	1.691595
0.836523	1.693245
0.836621	1.694710
0.836719	1.695919
0.836816	1.696877
0.836914	1.697507
0.837012	1.698181
0.837109	1.698798
0.837207	1.699822
0.837305	1.700961
0.837402	1.702314
0.837500	1.703483
0.837598	1.704570
0.837695	1.705415
0.837793	1.705802
0.837891	1.705597
0.837988	1.704439
0.838086	1.702730
0.838184	1.700872
0.838281	1.699534
0.838379	1.698704
0.838477	1.698340
0.838574	1.698377
0.838672	1.698495
0.838770	1.698093
0.838867	1.697082
0.838965	1.695707
0.839062	1.694311
0.839160	1.693080
0.839258	1.692132
0.839355	1.691623
0.839453	1.691502
0.839551	1.691761
0.839648	1.692399
0.839746	1.693295
0.839844	1.694923
0.839941	1.696853
0.840039	1.699435
0.840137	1.702362
0.840234	1.705346
0.840332	1.707015
0.840430	1.706663
0.840527	1.704338
0.840625	1.700961
0.840723	1.697605
0.840820	1.693152
0.840918	1.688894
0.841016	1.685249
0.841113	1.682071
0.841211	1.679766
0.841309	1.678214
0.841406	1.676840
0.841504	1.675560
0.841602	1.674434
0.841699	1.673698
0.841797	1.673293
0.841895	1.673199
0.841992	1.673421
0.842090	1.673628
0.842187	1.674026
0.842285	1.674438
0.842383	1.674974
0.842480	1.675629
0.842578	1.676241
0.842676	1.676992
0.842773	1.677710
0.842871	1.678425
0.842969	1.679115
0.843066	1.679621
0.843164	1.679867
0.843262	1.679680
0.843359	1.679264
0.843457	1.678903
0.843555	1.678737
0.843652	1.678379
0.843750	1.677548
0.843848	1.675969
0.843945	1.673340
0.844043	1.670356
0.844141	1.667450
0.844238	1.664649
0.844336	1.662271
0.844434	1.660099
0.844531	1.658006
0.844629	1.655935
0.844727	1.654154
0.844824	1.652436
0.844922	1.650966
0.845020	1.649527
0.845117	1.648234
0.845215	1.647064
0.845312	1.645923
0.845410	1.644641
0.845508	1.643484
0.845605	1.642307
0.845703	1.641446
0.845801	1.640478
0.845898	1.639667
0.845996	1.639085
0.846094	1.638328
0.846191	1.637762
0.846289	1.637194
0.846387	1.636774
0.846484	1.636356
0.846582	1.635956
0.846680	1.635605
0.846777	1.635243
0.846875	1.634830
0.846973	1.634544
0.847070	1.634147
0.847168	1.634202
0.847266	1.634242
0.847363	1.634466
0.847461	1.634800
0.847559	1.635253
0.847656	1.635824
0.847754	1.636474
0.847852	1.637083
0.847949	1.637912
0.848047	1.638775
0.848145	1.639601
0.848242	1.640588
0.848340	1.641531
0.848437	1.642611
0.848535	1.643549
0.848633	1.644595
0.848730	1.645569
0.848828	1.646562
0.848926	1.647482
0.849023	1.648527
0.849121	1.649467
0.849219	1.650444
0.849316	1.651585
0.849414	1.652770
0.849512	1.653991
0.849609	1.655380
0.849707	1.656718
0.849805	1.658171
0.849902	1.659551
0.850000	1.660978
0.850098	1.662393
0.850195	1.663702
0.850293	1.665265
0.850391	1.666592
0.850488	1.667945
0.850586	1.669361
0.850684	1.670694
0.850781	1.672037
0.850879	1.673238
0.850977	1.674454
0.851074	1.675485
0.851172	1.676525
0.851270	1.677411
0.851367	1.678265
0.851465	1.679282
0.851562	1.680227
0.851660	1.681447
0.851758	1.682725
0.851855	1.684033
0.851953	1.685402
0.852051	1.686838
0.852148	1.688248
0.852246	1.689715
0.852344	1.690928
0.852441	1.692086
0.852539	1.693064
0.852637	1.693973
0.852734	1.694930
0.852832	1.695778
0.852930	1.696772
0.853027	1.697719
0.853125	1.698525
0.853223	1.699191
0.853320	1.699851
0.853418	1.700526
0.853516	1.701511
0.853613	1.702484
0.853711	1.703341
0.853809	1.703644
0.853906	1.703173
0.854004	1.702209
0.854102	1.701426
0.854199	1.700938
0.854297	1.701003
0.854395	1.701467
0.854492	1.702107
0.854590	1.703139
0.854687	1.704036
0.854785	1.704689
0.854883	1.705059
0.854980	1.705040
0.855078	1.704735
0.855176	1.704435
0.855273	1.704666
0.855371	1.705412
0.855469	1.707120
0.855566	1.709841
0.855664	1.714355
0.855762	1.715703
0.855859	1.707062
0.855957	1.701927
0.856055	1.701728
0.856152	1.700448
0.856250	1.699217
0.856348	1.698265
0.856445	1.697709
0.856543	1.697816
0.856641	1.698517
0.856738	1.699385
0.856836	1.700513
0.856934	1.701476
0.857031	1.702381
0.857129	1.702984
0.857227	1.703289
0.857324	1.702237
0.857422	1.700232
0.857520	1.697736
0.857617	1.695563
0.857715	1.693593
0.857812	1.692065
0.857910	1.690324
0.858008	1.690309
0.858105	1.690633
0.858203	1.692243
0.858301	1.679569
0.858398	1.677060
0.858496	1.677249
0.858594	1.678471
0.858691	1.677058
0.858789	1.671765
0.858887	1.667514
0.858984	1.657484
0.859082	1.653669
0.859180	1.650825
0.859277	1.642443
0.859375	1.640949
0.859473	1.638487
0.859570	1.633864
0.859668	1.630475
0.859766	1.629109
0.859863	1.629530
0.859961	1.630841
0.860059	1.632243
0.860156	1.633503
0.860254	1.634567
0.860352	1.635428
0.860449	1.635995
0.860547	1.636428
0.860645	1.636813
0.860742	1.637134
0.860840	1.637454
0.860937	1.637565
0.861035	1.637627
0.861133	1.637821
0.861230	1.637787
0.861328	1.637868
0.861426	1.637883
0.861523	1.637792
0.861621	1.637771
0.861719	1.637766
0.861816	1.637789
0.861914	1.637729
0.862012	1.637701
0.862109	1.637855
0.862207	1.637845
0.862305	1.638055
0.862402	1.638213
0.862500	1.638610
0.862598	1.639034
0.862695	1.639519
0.862793	1.640062
0.862891	1.640868
0.862988	1.641457
0.863086	1.642224
0.863184	1.643108
0.863281	1.644022
0.863379	1.645115
0.863477	1.646184
0.863574	1.647354
0.863672	1.648706
0.863770	1.650170
0.863867	1.651601
0.863965	1.653176
0.864062	1.654823
0.864160	1.656463
0.864258	1.658146
0.864355	1.660026
0.864453	1.661711
0.864551	1.663670
0.864648	1.665467
0.864746	1.667286
0.864844	1.669109
0.864941	1.670874
0.865039	1.672871
0.865137	1.674974
0.865234	1.677173
0.865332	1.679539
0.865430	1.681584
0.865527	1.683460
0.865625	1.684691
0.865723	1.685333
0.865820	1.685885
0.865918	1.686210
0.866016	1.686649
0.866113	1.687197
0.866211	1.688142
0.866309	1.689212
0.866406	1.690485
0.866504	1.691754
0.866602	1.693025
0.866699	1.694385
0.866797	1.695679
0.866895	1.696919
0.866992	1.697648
0.867090	1.697848
0.867187	1.697249
0.867285	1.695707
0.867383	1.693784
0.867480	1.692166
0.867578	1.691184
0.867676	1.690851
0.867773	1.690982
0.867871	1.691473
0.867969	1.692217
0.868066	1.693217
0.868164	1.694263
0.868262	1.695459
0.868359	1.696754
0.868457	1.697915
0.868555	1.699103
0.868652	1.700009
0.868750	1.700732
0.868848	1.701133
0.868945	1.701498
0.869043	1.701637
0.869141	1.701631
0.869238	1.701702
0.869336	1.701788
0.869434	1.702131
0.869531	1.702451
0.869629	1.703007
0.869727	1.703393
0.869824	1.703667
0.869922	1.704044
0.870020	1.704017
0.870117	1.704055
0.870215	1.703815
0.870312	1.703455
0.870410	1.702913
0.870508	1.702206
0.870605	1.701739
0.870703	1.701335
0.870801	1.701627
0.870898	1.702300
0.870996	1.703352
0.871094	1.704094
0.871191	1.703752
0.871289	1.701428
0.871387	1.697913
0.871484	1.694609
0.871582	1.692008
0.871680	1.689678
0.871777	1.687291
0.871875	1.684561
0.871973	1.681693
0.872070	1.679158
0.872168	1.676785
0.872266	1.674733
0.872363	1.672756
0.872461	1.670804
0.872559	1.668914
0.872656	1.667071
0.872754	1.665448
0.872852	1.664021
0.872949	1.662813
0.873047	1.661810
0.873145	1.661013
0.873242	1.660476
0.873340	1.660169
0.873437	1.660044
0.873535	1.660253
0.873633	1.660521
0.873730	1.661062
0.873828	1.661673
0.873926	1.662493
0.874023	1.663478
0.874121	1.664498
0.874219	1.665624
0.874316	1.666890
0.874414	1.668092
0.874512	1.669297
0.874609	1.670406
0.874707	1.671481
0.874805	1.672554
0.874902	1.673706
0.875000	1.674930
0.875098	1.676445
0.875195	1.677922
0.875293	1.679520
0.875391	1.680761
0.875488	1.681582
0.875586	1.682094
0.875684	1.682117
0.875781	1.681966
0.875879	1.681300
0.875977	1.680718
0.876074	1.679823
0.876172	1.679196
0.876270	1.678386
0.876367	1.677858
0.876465	1.677272
0.876562	1.676935
0.876660	1.676604
0.876758	1.676619
0.876855	1.676810
0.876953	1.677162
0.877051	1.677822
0.877148	1.678829
0.877246	1.680220
0.877344	1.681895
0.877441	1.683891
0.877539	1.686288
0.877637	1.688946
0.877734	1.691537
0.877832	1.693919
0.877930	1.695817
0.878027	1.697122
0.878125	1.697365
0.878223	1.696305
0.878320	1.695089
0.878418	1.693655
0.878516	1.692381
0.878613	1.691313
0.878711	1.689594
0.878809	1.687082
0.878906	1.684008
0.879004	1.681017
0.879102	1.678313
0.879199	1.675653
0.879297	1.673341
0.879395	1.671417
0.879492	1.669970
0.879590	1.668915
0.879687	1.668377
0.879785	1.668211
0.879883	1.668439
0.879980	1.668900
0.880078	1.669495
0.880176	1.670376
0.880273	1.671347
0.880371	1.672453
0.880469	1.673820
0.880566	1.675308
0.880664	1.676904
0.880762	1.678768
0.880859	1.680794
0.880957	1.682670
0.881055	1.684606
0.881152	1.686189
0.881250	1.687286
0.881348	1.688005
0.881445	1.688611
0.881543	1.689032
0.881641	1.689564
0.881738	1.689977
0.881836	1.690303
0.881934	1.690543
0.882031	1.690641
0.882129	1.690735
0.882227	1.690949
0.882324	1.691095
0.882422	1.691405
0.882520	1.691751
0.882617	1.692034
0.882715	1.692235
0.882812	1.691847
0.882910	1.691243
0.883008	1.690204
0.883105	1.689073
0.883203	1.687776
0.883301	1.686603
0.883398	1.685535
0.883496	1.684870
0.883594	1.684161
0.883691	1.683835
0.883789	1.683289
0.883887	1.682874
0.883984	1.682203
0.884082	1.681544
0.884180	1.680683
0.884277	1.679935
0.884375	1.679219
0.884473	1.678518
0.884570	1.678099
0.884668	1.677633
0.884766	1.677222
0.884863	1.676808
0.884961	1.676495
0.885059	1.676160
0.885156	1.675879
0.885254	1.675555
0.885352	1.675091
0.885449	1.674575
0.885547	1.673963
0.885645	1.673594
0.885742	1.673137
0.885840	1.672629
0.885937	1.672124
0.886035	1.671264
0.886133	1.670388
0.886230	1.669454
0.886328	1.668568
0.886426	1.667871
0.886523	1.667147
0.886621	1.666766
0.886719	1.666234
0.886816	1.665851
0.886914	1.665503
0.887012	1.665215
0.887109	1.664979
0.887207	1.664870
0.887305	1.664797
0.887402	1.664776
0.887500	1.664725
0.887598	1.664712
0.887695	1.664695
0.887793	1.664657
0.887891	1.664465
0.887988	1.664226
0.888086	1.664051
0.888184	1.663443
0.888281	1.663118
0.888379	1.662550
0.888477	1.662205
0.888574	1.661816
0.888672	1.661474
0.888770	1.661179
0.888867	1.660950
0.888965	1.660812
0.889062	1.660710
0.889160	1.660660
0.889258	1.660710
0.889355	1.660754
0.889453	1.660784
0.889551	1.660974
0.889648	1.661108
0.889746	1.661265
0.889844	1.661503
0.889941	1.661827
0.890039	1.662063
0.890137	1.662433
0.890234	1.662689
0.890332	1.663140
0.890430	1.663564
0.890527	1.664155
0.890625	1.664784
0.890723	1.665571
0.890820	1.666305
0.890918	1.667145
0.891016	1.667810
0.891113	1.668521
0.891211	1.669158
0.891309	1.669662
0.891406	1.670214
0.891504	1.670638
0.891602	1.671028
0.891699	1.671653
0.891797	1.672116
0.891895	1.672677
0.891992	1.673385
0.892090	1.674138
0.892187	1.675047
0.892285	1.676088
0.892383	1.677298
0.892480	1.678617
0.892578	1.679947
0.892676	1.681253
0.892773	1.682561
0.892871	1.683629
0.892969	1.684731
0.893066	1.685581
0.893164	1.686461
0.893262	1.687217
0.893359	1.687703
0.893457	1.688282
0.893555	1.688852
0.893652	1.689590
0.893750	1.690504
0.893848	1.691609
0.893945	1.692835
0.894043	1.694047
0.894141	1.694931
0.894238	1.695326
0.894336	1.695440
0.894434	1.695311
0.894531	1.695160
0.894629	1.695319
0.894727	1.695482
0.894824	1.695840
0.894922	1.696280
0.895020	1.696844
0.895117	1.697504
0.895215	1.698225
0.895312	1.698697
0.895410	1.699115
0.895508	1.699440
0.895605	1.699577
0.895703	1.699544
0.895801	1.699532
0.895898	1.699801
0.895996	1.700097
0.896094	1.700574
0.896191	1.700891
0.896289	1.701163
0.896387	1.701162
0.896484	1.701209
0.896582	1.701108
0.896680	1.701238
0.896777	1.701239
0.896875	1.701647
0.896973	1.702077
0.897070	1.702904
0.897168	1.703805
0.897266	1.705294
0.897363	1.706050
0.897461	1.707610
0.897559	1.708639
0.897656	1.710971
0.897754	1.712139
0.897852	1.714703
0.897949	1.712428
0.898047	1.712310
0.898145	1.709701
0.898242	1.713035
0.898340	1.700966
0.898437	1.691977
0.898535	1.694767
0.898633	1.691739
0.898730	1.691393
0.898828	1.690457
0.898926	1.691791
0.899023	1.692805
0.899121	1.695064
0.899219	1.696798
0.899316	1.699269
0.899414	1.701277
0.899512	1.703709
0.899609	1.704931
0.899707	1.704137
0.899805	1.702066
0.899902	1.700551
0.900000	1.698741
0.900098	1.697015
0.900195	1.695480
0.900293	1.694284
0.900391	1.692948
0.900488	1.691079
0.900586	1.688342
0.900684	1.684678
0.900781	1.680845
0.900879	1.677696
0.900977	1.675923
0.901074	1.675322
0.901172	1.675752
0.901270	1.676444
0.901367	1.676925
0.901465	1.677043
0.901562	1.676533
0.901660	1.675651
0.901758	1.674165
0.901855	1.672454
0.901953	1.670846
0.902051	1.669488
0.902148	1.668252
0.902246	1.667123
0.902344	1.665830
0.902441	1.664595
0.902539	1.663455
0.902637	1.662398
0.902734	1.661331
0.902832	1.660279
0.902930	1.659249
0.903027	1.658265
0.903125	1.657309
0.903223	1.656321
0.903320	1.655350
0.903418	1.654508
0.903516	1.653644
0.903613	1.652961
0.903711	1.652407
0.903809	1.652055
0.903906	1.651758
0.904004	1.651738
0.904102	1.651768
0.904199	1.651845
0.904297	1.651969
0.904395	1.652089
0.904492	1.652194
0.904590	1.652405
0.904687	1.652463
0.904785	1.652617
0.904883	1.652756
0.904980	1.652784
0.905078	1.653058
0.905176	1.653279
0.905273	1.653517
0.905371	1.653904
0.905469	1.654331
0.905566	1.654736
0.905664	1.655272
0.905762	1.655981
0.905859	1.656715
0.905957	1.657675
0.906055	1.658639
0.906152	1.659711
0.906250	1.660836
0.906348	1.662027
0.906445	1.663208
0.906543	1.664341
0.906641	1.665769
0.906738	1.667022
0.906836	1.668529
0.906934	1.670100
0.907031	1.671767
0.907129	1.673446
0.907227	1.675312
0.907324	1.677259
0.907422	1.679358
0.907520	1.681291
0.907617	1.683117
0.907715	1.684844
0.907812	1.686326
0.907910	1.687762
0.908008	1.689154
0.908105	1.690500
0.908203	1.691678
0.908301	1.692666
0.908398	1.693514
0.908496	1.694182
0.908594	1.694788
0.908691	1.695721
0.908789	1.696764
0.908887	1.698265
0.908984	1.700119
0.909082	1.702442
0.909180	1.705130
0.909277	1.708466
0.909375	1.711784
0.909473	1.713989
0.909570	1.713502
0.909668	1.708457
0.909766	1.703696
0.909863	1.700756
0.909961	1.699426
0.910059	1.699464
0.910156	1.699920
0.910254	1.700387
0.910352	1.700753
0.910449	1.701088
0.910547	1.701246
0.910645	1.701264
0.910742	1.701085
0.910840	1.701075
0.910937	1.701201
0.911035	1.701399
0.911133	1.701395
0.911230	1.701159
0.911328	1.700769
0.911426	1.700663
0.911523	1.700175
0.911621	1.699335
0.911719	1.698166
0.911816	1.696890
0.911914	1.695585
0.912012	1.693970
0.912109	1.692454
0.912207	1.690714
0.912305	1.689171
0.912402	1.688014
0.912500	1.687194
0.912598	1.686725
0.912695	1.686438
0.912793	1.686289
0.912891	1.686148
0.912988	1.686111
0.913086	1.685866
0.913184	1.685529
0.913281	1.685170
0.913379	1.684793
0.913477	1.684409
0.913574	1.683944
0.913672	1.683306
0.913770	1.682746
0.913867	1.681637
0.913965	1.680111
0.914062	1.678173
0.914160	1.676082
0.914258	1.673963
0.914355	1.672125
0.914453	1.670632
0.914551	1.669359
0.914648	1.668292
0.914746	1.667373
0.914844	1.666791
0.914941	1.666057
0.915039	1.665471
0.915137	1.664632
0.915234	1.663766
0.915332	1.662854
0.915430	1.662323
0.915527	1.661845
0.915625	1.661573
0.915723	1.661364
0.915820	1.661408
0.915918	1.661681
0.916016	1.662274
0.916113	1.663099
0.916211	1.664125
0.916309	1.665452
0.916406	1.666971
0.916504	1.668517
0.916602	1.670216
0.916699	1.671753
0.916797	1.673166
0.916895	1.674510
0.916992	1.675727
0.917090	1.676798
0.917187	1.678085
0.917285	1.679291
0.917383	1.680586
0.917480	1.681851
0.917578	1.683083
0.917676	1.684267
0.917773	1.685464
0.917871	1.686526
0.917969	1.687585
0.918066	1.688177
0.918164	1.688262
0.918262	1.688119
0.918359	1.688034
0.918457	1.688180
0.918555	1.688478
0.918652	1.688586
0.918750	1.688440
0.918848	1.688039
0.918945	1.687279
0.919043	1.686231
0.919141	1.684759
0.919238	1.683078
0.919336	1.681306
0.919434	1.679406
0.919531	1.677791
0.919629	1.676624
0.919727	1.675922
0.919824	1.675605
0.919922	1.675469
0.920020	1.675564
0.920117	1.675905
0.920215	1.676301
0.920312	1.676973
0.920410	1.677690
0.920508	1.678612
0.920605	1.679694
0.920703	1.680913
0.920801	1.682089
0.920898	1.683077
0.920996	1.683814
0.921094	1.684373
0.921191	1.684781
0.921289	1.684777
0.921387	1.684558
0.921484	1.684065
0.921582	1.683355
0.921680	1.682682
0.921777	1.681781
0.921875	1.680884
0.921973	1.679963
0.922070	1.679027
0.922168	1.678263
0.922266	1.677473
0.922363	1.676952
0.922461	1.676437
0.922559	1.675955
0.922656	1.675539
0.922754	1.675004
0.922852	1.674531
0.922949	1.673918
0.923047	1.673390
0.923145	1.672923
0.923242	1.672569
0.923340	1.672446
0.923437	1.672309
0.923535	1.672416
0.923633	1.672618
0.923730	1.672845
0.923828	1.673202
0.923926	1.673442
0.924023	1.673659
0.924121	1.673740
0.924219	1.673678
0.924316	1.673654
0.924414	1.673681
0.924512	1.673765
0.924609	1.674033
0.924707	1.674313
0.924805	1.674816
0.924902	1.675458
0.925000	1.675903
0.925098	1.676550
0.925195	1.677065
0.925293	1.677645
0.925391	1.678194
0.925488	1.678594
0.925586	1.678725
0.925684	1.678764
0.925781	1.678652
0.925879	1.678435
0.925977	1.678284
0.926074	1.677880
0.926172	1.677496
0.926270	1.677075
0.926367	1.676704
0.926465	1.676367
0.926562	1.676124
0.926660	1.676060
0.926758	1.675980
0.926855	1.675984
0.926953	1.676179
0.927051	1.676381
0.927148	1.676733
0.927246	1.677349
0.927344	1.678029
0.927441	1.678669
0.927539	1.679457
0.927637	1.680215
0.927734	1.681123
0.927832	1.682006
0.927930	1.682990
0.928027	1.683901
0.928125	1.684904
0.928223	1.685656
0.928320	1.686141
0.928418	1.686288
0.928516	1.686291
0.928613	1.686319
0.928711	1.686519
0.928809	1.686709
0.928906	1.687248
0.929004	1.687922
0.929102	1.688977
0.929199	1.690018
0.929297	1.691253
0.929395	1.692421
0.929492	1.693594
0.929590	1.694537
0.929687	1.695137
0.929785	1.695297
0.929883	1.694981
0.929980	1.694358
0.930078	1.693493
0.930176	1.692577
0.930273	1.691537
0.930371	1.690723
0.930469	1.690230
0.930566	1.689942
0.930664	1.689935
0.930762	1.690100
0.930859	1.690478
0.930957	1.691119
0.931055	1.691876
0.931152	1.692692
0.931250	1.693613
0.931348	1.694546
0.931445	1.695199
0.931543	1.695621
0.931641	1.695803
0.931738	1.695771
0.931836	1.695272
0.931934	1.694735
0.932031	1.694003
0.932129	1.693373
0.932227	1.692578
0.932324	1.691892
0.932422	1.691240
0.932520	1.690655
0.932617	1.690167
0.932715	1.689636
0.932812	1.689118
0.932910	1.688484
0.933008	1.687778
0.933105	1.686973
0.933203	1.686127
0.933301	1.685203
0.933398	1.684207
0.933496	1.683244
0.933594	1.682248
0.933691	1.681428
0.933789	1.680624
0.933887	1.679924
0.933984	1.679448
0.934082	1.679021
0.934180	1.678560
0.934277	1.678255
0.934375	1.677942
0.934473	1.677726
0.934570	1.677720
0.934668	1.677819
0.934766	1.678094
0.934863	1.678537
0.934961	1.679104
0.935059	1.679742
0.935156	1.680576
0.935254	1.681504
0.935352	1.682563
0.935449	1.683514
0.935547	1.684124
0.935645	1.684476
0.935742	1.684579
0.935840	1.684715
0.935937	1.684956
0.936035	1.685118
0.936133	1.684904
0.936230	1.684372
0.936328	1.684071
0.936426	1.683908
0.936523	1.683721
0.936621	1.683567
0.936719	1.683452
0.936816	1.683079
0.936914	1.682954
0.937012	1.682535
0.937109	1.682112
0.937207	1.681968
0.937305	1.681655
0.937402	1.681437
0.937500	1.681201
0.937598	1.681140
0.937695	1.681143
0.937793	1.681259
0.937891	1.681261
0.937988	1.681410
0.938086	1.681527
0.938184	1.681773
0.938281	1.681969
0.938379	1.682327
0.938477	1.682745
0.938574	1.683407
0.938672	1.684205
0.938770	1.685156
0.938867	1.685945
0.938965	1.686748
0.939062	1.687114
0.939160	1.687385
0.939258	1.687391
0.939355	1.687058
0.939453	1.686635
0.939551	1.685865
0.939648	1.685043
0.939746	1.684093
0.939844	1.683251
0.939941	1.682461
0.940039	1.681781
0.940137	1.681367
0.940234	1.680974
0.940332	1.680826
0.940430	1.680944
0.940527	1.681251
0.940625	1.681721
0.940723	1.682253
0.940820	1.682862
0.940918	1.683582
0.941016	1.684326
0.941113	1.684746
0.941211	1.684844
0.941309	1.684622
0.941406	1.684081
0.941504	1.683503
0.941602	1.682623
0.941699	1.681525
0.941797	1.680236
0.941895	1.678665
0.941992	1.677145
0.942090	1.676154
0.942187	1.675537
0.942285	1.675152
0.942383	1.674793
0.942480	1.674644
0.942578	1.674611
0.942676	1.674580
0.942773	1.674660
0.942871	1.674808
0.942969	1.675081
0.943066	1.675345
0.943164	1.675635
0.943262	1.676099
0.943359	1.676268
0.943457	1.676683
0.943555	1.676997
0.943652	1.677383
0.943750	1.677715
0.943848	1.678200
0.943945	1.678648
0.944043	1.679147
0.944141	1.679567
0.944238	1.679993
0.944336	1.680395
0.944434	1.680715
0.944531	1.681135
0.944629	1.681413
0.944727	1.681713
0.944824	1.682006
0.944922	1.682357
0.945020	1.682767
0.945117	1.683351
0.945215	1.683921
0.945312	1.684688
0.945410	1.685477
0.945508	1.686241
0.945605	1.687064
0.945703	1.687847
0.945801	1.688772
0.945898	1.689680
0.945996	1.690666
0.946094	1.691484
0.946191	1.692282
0.946289	1.692916
0.946387	1.693419
0.946484	1.693909
0.946582	1.694340
0.946680	1.695004
0.946777	1.695750
0.946875	1.696648
0.946973	1.697653
0.947070	1.698925
0.947168	1.700467
0.947266	1.702159
0.947363	1.703482
0.947461	1.704643
0.947559	1.705252
0.947656	1.705657
0.947754	1.705909
0.947852	1.706018
0.947949	1.705784
0.948047	1.705270
0.948145	1.704226
0.948242	1.702773
0.948340	1.701049
0.948437	1.699284
0.948535	1.697747
0.948633	1.696328
0.948730	1.694921
0.948828	1.693802
0.948926	1.692769
0.949023	1.691867
0.949121	1.691069
0.949219	1.690518
0.949316	1.689969
0.949414	1.689352
0.949512	1.688545
0.949609	1.687587
0.949707	1.686705
0.949805	1.686103
0.949902	1.685959
0.950000	1.686205
0.950098	1.686651
0.950195	1.687105
0.950293	1.687409
0.950391	1.687523
0.950488	1.687242
0.950586	1.686634
0.950684	1.685662
0.950781	1.684269
0.950879	1.682906
0.950977	1.681328
0.951074	1.680015
0.951172	1.679048
0.951270	1.678313
0.951367	1.677821
0.951465	1.677497
0.951562	1.677274
0.951660	1.676990
0.951758	1.676539
0.951855	1.676073
0.951953	1.675388
0.952051	1.674621
0.952148	1.673797
0.952246	1.673001
0.952344	1.672272
0.952441	1.671633
0.952539	1.671146
0.952637	1.670625
0.952734	1.670428
0.952832	1.670260
0.952930	1.670297
0.953027	1.670469
0.953125	1.670689
0.953223	1.671063
0.953320	1.671469
0.953418	1.671963
0.953516	1.672471
0.953613	1.673157
0.953711	1.673890
0.953809	1.674687
0.953906	1.675488
0.954004	1.676158
0.954102	1.676943
0.954199	1.677460
0.954297	1.677939
0.954395	1.678255
0.954492	1.678576
0.954590	1.678792
0.954687	1.679013
0.954785	1.678966
0.954883	1.678855
0.954980	1.678341
0.955078	1.677815
0.955176	1.677198
0.955273	1.676692
0.955371	1.676347
0.955469	1.676218
0.955566	1.676204
0.955664	1.676528
0.955762	1.676911
0.955859	1.677439
0.955957	1.678099
0.956055	1.678781
0.956152	1.679321
0.956250	1.679727
0.956348	1.680114
0.956445	1.680384
0.956543	1.680783
0.956641	1.681054
0.956738	1.681477
0.956836	1.682144
0.956934	1.682887
0.957031	1.683692
0.957129	1.684888
0.957227	1.686245
0.957324	1.687593
0.957422	1.689020
0.957520	1.690284
0.957617	1.691439
0.957715	1.692208
0.957812	1.692445
0.957910	1.692473
0.958008	1.692625
0.958105	1.692501
0.958203	1.692121
0.958301	1.691454
0.958398	1.690931
0.958496	1.690706
0.958594	1.690680
0.958691	1.690849
0.958789	1.691030
0.958887	1.691118
0.958984	1.691299
0.959082	1.691354
0.959180	1.691679
0.959277	1.692340
0.959375	1.693333
0.959473	1.694734
0.959570	1.696452
0.959668	1.698515
0.959766	1.700627
0.959863	1.702764
0.959961	1.704842
0.960059	1.706709
0.960156	1.708547
0.960254	1.710569
0.960352	1.711453
0.960449	1.711041
0.960547	1.709803
0.960645	1.707776
0.960742	1.706789
0.960840	1.706735
0.960937	1.704695
0.961035	1.702104
0.961133	1.701599
0.961230	1.702542
0.961328	1.702895
0.961426	1.702472
0.961523	1.701905
0.961621	1.701424
0.961719	1.701902
0.961816	1.701835
0.961914	1.701371
0.962012	1.701205
0.962109	1.700083
0.962207	1.698136
0.962305	1.695383
0.962402	1.693256
0.962500	1.692232
0.962598	1.694142
0.962695	1.700109
0.962793	1.702251
0.962891	1.706536
0.962988	1.711657
0.963086	1.711391
0.963184	1.710585
0.963281	1.709839
0.963379	1.711489
0.963477	1.708541
0.963574	1.712484
0.963672	1.699756
0.963770	1.700985
0.963867	1.695609
0.963965	1.691459
0.964062	1.687744
0.964160	1.684405
0.964258	1.681522
0.964355	1.678875
0.964453	1.677814
0.964551	1.676730
0.964648	1.676824
0.964746	1.677909
0.964844	1.679851
0.964941	1.681892
0.965039	1.683700
0.965137	1.685317
0.965234	1.686705
0.965332	1.687880
0.965430	1.688478
0.965527	1.687906
0.965625	1.686410
0.965723	1.684967
0.965820	1.683525
0.965918	1.681877
0.966016	1.680061
0.966113	1.678271
0.966211	1.676762
0.966309	1.675462
0.966406	1.674487
0.966504	1.673754
0.966602	1.673239
0.966699	1.672985
0.966797	1.672923
0.966895	1.673184
0.966992	1.673466
0.967090	1.673873
0.967187	1.674487
0.967285	1.675177
0.967383	1.675724
0.967480	1.675881
0.967578	1.675539
0.967676	1.674997
0.967773	1.674507
0.967871	1.674670
0.967969	1.675877
0.968066	1.678236
0.968164	1.681412
0.968262	1.683304
0.968359	1.681851
0.968457	1.677066
0.968555	1.670034
0.968652	1.664070
0.968750	1.659468
0.968848	1.655321
0.968945	1.651817
0.969043	1.649254
0.969141	1.647396
0.969238	1.645799
0.969336	1.644688
0.969434	1.643613
0.969531	1.642954
0.969629	1.642485
0.969727	1.642228
0.969824	1.642226
0.969922	1.642285
0.970020	1.642538
0.970117	1.642721
0.970215	1.643133
0.970312	1.643526
0.970410	1.644055
0.970508	1.644599
0.970605	1.645245
0.970703	1.646158
0.970801	1.646966
0.970898	1.647861
0.970996	1.648770
0.971094	1.649774
0.971191	1.650569
0.971289	1.651518
0.971387	1.652325
0.971484	1.653109
0.971582	1.653937
0.971680	1.654749
0.971777	1.655632
0.971875	1.656622
0.971973	1.657566
0.972070	1.658541
0.972168	1.659507
0.972266	1.660360
0.972363	1.661231
0.972461	1.662181
0.972559	1.663038
0.972656	1.664048
0.972754	1.665149
0.972852	1.666350
0.972949	1.667638
0.973047	1.668994
0.973145	1.670245
0.973242	1.671570
0.973340	1.672594
0.973437	1.673773
0.973535	1.674570
0.973633	1.675501
0.973730	1.676370
0.973828	1.677292
0.973926	1.678236
0.974023	1.679328
0.974121	1.680475
0.974219	1.681620
0.974316	1.682879
0.974414	1.684209
0.974512	1.685564
0.974609	1.686976
0.974707	1.688310
0.974805	1.689776
0.974902	1.690962
0.975000	1.692090
0.975098	1.692858
0.975195	1.693562
0.975293	1.694155
0.975391	1.694828
0.975488	1.695757
0.975586	1.696834
0.975684	1.698070
0.975781	1.699142
0.975879	1.699852
0.975977	1.700261
0.976074	1.700188
0.976172	1.700066
0.976270	1.700200
0.976367	1.700644
0.976465	1.701360

