LabVIEW Measurement	
Writer_Version	2
Reader_Version	2
Separator	Tab
Decimal_Separator	.
Multi_Headings	Yes
X_Columns	One
Time_Pref	Absolute
Operator	W-Tunnel
Date	1904/01/01
Time	01:00:00
***End_of_Header***	
	
Channels	1	
Samples	10000	
Date	2024/05/17	
Time	18:26:58.8730213562495603578	
Y_Unit_Label	Volts	
X_Dimension	Time	
X0	0.0000000000000000E+0	
Delta_X	9.765625E-5	
***End_of_Header***		
X_Value	Voltage	Comment
0.000000	1.614684
9.765625E-5	1.616337
0.000195	1.617813
0.000293	1.621245
0.000391	1.626630
0.000488	1.635420
0.000586	1.644649
0.000684	1.646080
0.000781	1.638053
0.000879	1.616332
0.000977	1.605911
0.001074	1.618462
0.001172	1.620983
0.001270	1.620072
0.001367	1.618917
0.001465	1.620592
0.001562	1.623508
0.001660	1.628071
0.001758	1.633321
0.001855	1.639249
0.001953	1.642845
0.002051	1.644678
0.002148	1.641829
0.002246	1.631888
0.002344	1.628036
0.002441	1.623757
0.002539	1.618978
0.002637	1.620337
0.002734	1.623014
0.002832	1.625981
0.002930	1.628497
0.003027	1.632659
0.003125	1.637717
0.003223	1.633778
0.003320	1.627814
0.003418	1.626791
0.003516	1.627810
0.003613	1.633870
0.003711	1.642646
0.003809	1.643041
0.003906	1.638757
0.004004	1.637036
0.004102	1.628923
0.004199	1.630174
0.004297	1.630167
0.004395	1.629017
0.004492	1.625362
0.004590	1.624485
0.004687	1.608199
0.004785	1.586301
0.004883	1.600563
0.004980	1.608611
0.005078	1.615425
0.005176	1.619585
0.005273	1.625734
0.005371	1.632298
0.005469	1.642274
0.005566	1.651297
0.005664	1.648655
0.005762	1.638569
0.005859	1.632038
0.005957	1.626879
0.006055	1.625222
0.006152	1.625460
0.006250	1.626417
0.006348	1.628165
0.006445	1.633084
0.006543	1.637856
0.006641	1.638054
0.006738	1.635231
0.006836	1.632189
0.006934	1.630337
0.007031	1.629595
0.007129	1.629941
0.007227	1.631274
0.007324	1.633642
0.007422	1.634809
0.007520	1.632805
0.007617	1.630129
0.007715	1.628063
0.007812	1.626644
0.007910	1.626364
0.008008	1.627526
0.008105	1.630785
0.008203	1.635573
0.008301	1.640333
0.008398	1.642130
0.008496	1.639695
0.008594	1.633851
0.008691	1.628477
0.008789	1.625095
0.008887	1.624667
0.008984	1.627001
0.009082	1.637378
0.009180	1.645662
0.009277	1.638950
0.009375	1.633264
0.009473	1.636836
0.009570	1.643379
0.009668	1.635318
0.009766	1.627771
0.009863	1.631489
0.009961	1.639434
0.010059	1.643309
0.010156	1.637427
0.010254	1.631309
0.010352	1.627243
0.010449	1.620358
0.010547	1.595406
0.010645	1.603780
0.010742	1.624151
0.010840	1.622865
0.010937	1.620225
0.011035	1.621190
0.011133	1.623834
0.011230	1.626598
0.011328	1.630254
0.011426	1.632679
0.011523	1.635708
0.011621	1.636513
0.011719	1.636518
0.011816	1.632616
0.011914	1.630179
0.012012	1.624750
0.012109	1.625083
0.012207	1.609378
0.012305	1.597379
0.012402	1.617044
0.012500	1.618258
0.012598	1.619129
0.012695	1.614654
0.012793	1.617958
0.012891	1.623328
0.012988	1.628213
0.013086	1.630102
0.013184	1.631781
0.013281	1.633426
0.013379	1.635357
0.013477	1.634344
0.013574	1.630136
0.013672	1.625811
0.013770	1.624774
0.013867	1.626615
0.013965	1.630329
0.014062	1.632048
0.014160	1.631383
0.014258	1.629628
0.014355	1.628874
0.014453	1.629652
0.014551	1.635115
0.014648	1.644068
0.014746	1.649958
0.014844	1.639810
0.014941	1.629142
0.015039	1.622219
0.015137	1.622089
0.015234	1.626057
0.015332	1.635878
0.015430	1.630110
0.015527	1.618076
0.015625	1.615166
0.015723	1.621187
0.015820	1.623192
0.015918	1.618616
0.016016	1.620266
0.016113	1.622784
0.016211	1.630714
0.016309	1.638731
0.016406	1.638499
0.016504	1.638183
0.016602	1.639789
0.016699	1.622486
0.016797	1.602651
0.016895	1.611258
0.016992	1.620308
0.017090	1.618058
0.017187	1.617998
0.017285	1.619161
0.017383	1.623672
0.017480	1.629947
0.017578	1.638432
0.017676	1.641749
0.017773	1.638562
0.017871	1.632189
0.017969	1.628237
0.018066	1.625802
0.018164	1.626005
0.018262	1.630226
0.018359	1.636047
0.018457	1.639760
0.018555	1.639025
0.018652	1.636654
0.018750	1.636486
0.018848	1.634744
0.018945	1.628529
0.019043	1.624357
0.019141	1.623201
0.019238	1.624322
0.019336	1.626972
0.019434	1.630550
0.019531	1.633784
0.019629	1.635230
0.019727	1.635632
0.019824	1.634790
0.019922	1.633657
0.020020	1.632616
0.020117	1.632317
0.020215	1.631747
0.020312	1.632339
0.020410	1.632742
0.020508	1.633915
0.020605	1.633451
0.020703	1.634548
0.020801	1.633147
0.020898	1.633544
0.020996	1.629836
0.021094	1.628470
0.021191	1.621768
0.021289	1.621905
0.021387	1.603960
0.021484	1.592114
0.021582	1.605396
0.021680	1.609782
0.021777	1.618365
0.021875	1.620331
0.021973	1.625240
0.022070	1.629087
0.022168	1.633926
0.022266	1.634889
0.022363	1.631276
0.022461	1.634428
0.022559	1.639706
0.022656	1.621192
0.022754	1.614858
0.022852	1.624375
0.022949	1.626249
0.023047	1.618855
0.023145	1.620277
0.023242	1.623358
0.023340	1.629982
0.023437	1.637525
0.023535	1.642574
0.023633	1.641728
0.023730	1.638416
0.023828	1.633298
0.023926	1.629346
0.024023	1.626276
0.024121	1.624700
0.024219	1.624128
0.024316	1.624476
0.024414	1.625707
0.024512	1.627649
0.024609	1.630006
0.024707	1.632234
0.024805	1.633904
0.024902	1.635384
0.025000	1.639612
0.025098	1.644730
0.025195	1.652603
0.025293	1.637402
0.025391	1.607390
0.025488	1.606331
0.025586	1.619627
0.025684	1.622909
0.025781	1.622255
0.025879	1.621329
0.025977	1.622788
0.026074	1.626574
0.026172	1.630809
0.026270	1.634315
0.026367	1.634200
0.026465	1.633614
0.026562	1.632935
0.026660	1.634904
0.026758	1.629511
0.026855	1.625709
0.026953	1.623635
0.027051	1.615151
0.027148	1.607301
0.027246	1.608824
0.027344	1.616197
0.027441	1.613732
0.027539	1.616949
0.027637	1.622739
0.027734	1.629491
0.027832	1.630391
0.027930	1.627660
0.028027	1.625930
0.028125	1.625263
0.028223	1.625409
0.028320	1.626292
0.028418	1.628983
0.028516	1.632414
0.028613	1.637206
0.028711	1.639581
0.028809	1.640304
0.028906	1.636288
0.029004	1.633341
0.029102	1.618072
0.029199	1.592397
0.029297	1.598057
0.029395	1.614641
0.029492	1.619894
0.029590	1.620696
0.029687	1.628627
0.029785	1.639083
0.029883	1.645541
0.029980	1.643656
0.030078	1.635494
0.030176	1.626431
0.030273	1.623286
0.030371	1.622085
0.030469	1.622423
0.030566	1.624112
0.030664	1.627809
0.030762	1.634040
0.030859	1.640139
0.030957	1.640956
0.031055	1.637662
0.031152	1.634113
0.031250	1.629963
0.031348	1.627499
0.031445	1.626803
0.031543	1.629613
0.031641	1.634676
0.031738	1.632150
0.031836	1.612687
0.031934	1.616250
0.032031	1.628112
0.032129	1.613678
0.032227	1.617915
0.032324	1.615625
0.032422	1.618164
0.032520	1.619058
0.032617	1.623916
0.032715	1.628671
0.032812	1.639287
0.032910	1.633877
0.033008	1.627425
0.033105	1.629268
0.033203	1.625944
0.033301	1.626618
0.033398	1.630636
0.033496	1.632313
0.033594	1.630207
0.033691	1.626588
0.033789	1.624864
0.033887	1.625288
0.033984	1.627767
0.034082	1.630507
0.034180	1.633537
0.034277	1.634920
0.034375	1.635838
0.034473	1.634921
0.034570	1.637097
0.034668	1.639122
0.034766	1.644622
0.034863	1.633663
0.034961	1.621121
0.035059	1.626745
0.035156	1.622380
0.035254	1.620579
0.035352	1.619972
0.035449	1.620897
0.035547	1.621449
0.035645	1.625600
0.035742	1.631488
0.035840	1.640515
0.035937	1.637215
0.036035	1.633890
0.036133	1.637184
0.036230	1.633239
0.036328	1.632352
0.036426	1.631035
0.036523	1.629501
0.036621	1.627283
0.036719	1.626330
0.036816	1.626320
0.036914	1.629063
0.037012	1.633682
0.037109	1.644846
0.037207	1.646032
0.037305	1.626307
0.037402	1.612839
0.037500	1.610929
0.037598	1.618318
0.037695	1.622682
0.037793	1.621708
0.037891	1.621753
0.037988	1.623388
0.038086	1.628726
0.038184	1.635090
0.038281	1.636859
0.038379	1.632204
0.038477	1.628263
0.038574	1.626387
0.038672	1.628403
0.038770	1.632675
0.038867	1.641214
0.038965	1.646477
0.039062	1.648505
0.039160	1.634770
0.039258	1.620977
0.039355	1.618970
0.039453	1.619323
0.039551	1.615473
0.039648	1.621915
0.039746	1.624568
0.039844	1.618585
0.039941	1.620745
0.040039	1.622171
0.040137	1.626845
0.040234	1.630112
0.040332	1.631763
0.040430	1.631370
0.040527	1.633721
0.040625	1.637272
0.040723	1.638892
0.040820	1.638592
0.040918	1.639664
0.041016	1.636878
0.041113	1.636166
0.041211	1.636450
0.041309	1.632002
0.041406	1.632954
0.041504	1.638011
0.041602	1.640270
0.041699	1.632432
0.041797	1.624355
0.041895	1.624751
0.041992	1.621705
0.042090	1.619319
0.042187	1.620275
0.042285	1.622257
0.042383	1.625146
0.042480	1.628200
0.042578	1.630830
0.042676	1.632209
0.042773	1.632216
0.042871	1.631749
0.042969	1.632153
0.043066	1.633458
0.043164	1.635027
0.043262	1.636708
0.043359	1.640437
0.043457	1.646612
0.043555	1.649279
0.043652	1.644979
0.043750	1.636552
0.043848	1.628635
0.043945	1.623701
0.044043	1.629449
0.044141	1.645560
0.044238	1.638881
0.044336	1.632573
0.044434	1.634723
0.044531	1.635155
0.044629	1.622196
0.044727	1.619652
0.044824	1.620054
0.044922	1.620891
0.045020	1.623460
0.045117	1.636335
0.045215	1.645104
0.045312	1.629830
0.045410	1.626694
0.045508	1.627200
0.045605	1.629344
0.045703	1.629994
0.045801	1.630952
0.045898	1.631131
0.045996	1.632096
0.046094	1.632366
0.046191	1.631845
0.046289	1.630125
0.046387	1.630872
0.046484	1.634385
0.046582	1.641086
0.046680	1.646754
0.046777	1.640616
0.046875	1.630275
0.046973	1.624310
0.047070	1.625441
0.047168	1.636672
0.047266	1.642281
0.047363	1.637398
0.047461	1.629825
0.047559	1.639698
0.047656	1.627610
0.047754	1.618836
0.047852	1.621777
0.047949	1.626520
0.048047	1.627846
0.048145	1.632242
0.048242	1.629207
0.048340	1.607803
0.048437	1.610102
0.048535	1.617883
0.048633	1.621838
0.048730	1.621485
0.048828	1.623726
0.048926	1.626088
0.049023	1.630136
0.049121	1.634841
0.049219	1.638105
0.049316	1.635184
0.049414	1.632432
0.049512	1.629279
0.049609	1.627389
0.049707	1.627687
0.049805	1.631481
0.049902	1.637239
0.050000	1.642474
0.050098	1.640674
0.050195	1.635645
0.050293	1.631708
0.050391	1.628410
0.050488	1.626433
0.050586	1.627744
0.050684	1.633111
0.050781	1.638529
0.050879	1.639815
0.050977	1.637524
0.051074	1.634312
0.051172	1.632328
0.051270	1.630780
0.051367	1.627289
0.051465	1.624858
0.051562	1.624355
0.051660	1.626270
0.051758	1.627835
0.051855	1.628567
0.051953	1.628804
0.052051	1.634044
0.052148	1.645374
0.052246	1.647629
0.052344	1.625818
0.052441	1.617717
0.052539	1.611600
0.052637	1.615454
0.052734	1.629810
0.052832	1.621804
0.052930	1.618192
0.053027	1.617742
0.053125	1.621219
0.053223	1.625056
0.053320	1.628633
0.053418	1.629291
0.053516	1.628140
0.053613	1.626482
0.053711	1.627198
0.053809	1.630658
0.053906	1.636943
0.054004	1.641934
0.054102	1.646667
0.054199	1.643657
0.054297	1.637502
0.054395	1.633123
0.054492	1.627215
0.054590	1.626868
0.054687	1.631228
0.054785	1.634316
0.054883	1.638824
0.054980	1.634277
0.055078	1.623493
0.055176	1.622650
0.055273	1.627628
0.055371	1.634559
0.055469	1.630196
0.055566	1.628266
0.055664	1.630496
0.055762	1.629098
0.055859	1.628942
0.055957	1.627515
0.056055	1.626894
0.056152	1.627896
0.056250	1.637698
0.056348	1.638452
0.056445	1.632691
0.056543	1.621473
0.056641	1.621712
0.056738	1.628480
0.056836	1.619394
0.056934	1.623450
0.057031	1.627088
0.057129	1.626229
0.057227	1.627437
0.057324	1.629601
0.057422	1.631757
0.057520	1.631763
0.057617	1.631026
0.057715	1.630180
0.057812	1.629415
0.057910	1.629919
0.058008	1.631049
0.058105	1.634393
0.058203	1.638750
0.058301	1.641514
0.058398	1.635465
0.058496	1.632772
0.058594	1.622117
0.058691	1.616574
0.058789	1.621110
0.058887	1.621661
0.058984	1.627006
0.059082	1.624244
0.059180	1.620963
0.059277	1.617775
0.059375	1.617603
0.059473	1.617717
0.059570	1.620170
0.059668	1.623594
0.059766	1.628765
0.059863	1.633596
0.059961	1.639358
0.060059	1.641720
0.060156	1.640379
0.060254	1.636760
0.060352	1.631782
0.060449	1.629154
0.060547	1.628875
0.060645	1.632502
0.060742	1.639039
0.060840	1.642658
0.060937	1.636569
0.061035	1.630525
0.061133	1.626859
0.061230	1.626509
0.061328	1.617450
0.061426	1.596666
0.061523	1.589474
0.061621	1.600899
0.061719	1.606352
0.061816	1.609500
0.061914	1.616017
0.062012	1.619245
0.062109	1.621487
0.062207	1.621958
0.062305	1.623597
0.062402	1.625340
0.062500	1.628984
0.062598	1.633081
0.062695	1.641194
0.062793	1.646150
0.062891	1.642881
0.062988	1.634675
0.063086	1.630512
0.063184	1.627550
0.063281	1.635959
0.063379	1.635911
0.063477	1.631675
0.063574	1.627439
0.063672	1.622657
0.063770	1.622159
0.063867	1.621669
0.063965	1.626110
0.064062	1.631319
0.064160	1.634748
0.064258	1.638850
0.064355	1.640544
0.064453	1.641557
0.064551	1.638932
0.064648	1.637463
0.064746	1.608863
0.064844	1.599202
0.064941	1.605300
0.065039	1.611138
0.065137	1.623497
0.065234	1.627871
0.065332	1.631534
0.065430	1.629133
0.065527	1.627897
0.065625	1.626022
0.065723	1.627275
0.065820	1.630468
0.065918	1.640197
0.066016	1.649081
0.066113	1.644059
0.066211	1.630747
0.066309	1.622278
0.066406	1.620638
0.066504	1.623418
0.066602	1.632480
0.066699	1.641306
0.066797	1.633063
0.066895	1.614018
0.066992	1.593080
0.067090	1.588799
0.067187	1.603602
0.067285	1.612957
0.067383	1.621649
0.067480	1.626425
0.067578	1.630145
0.067676	1.630984
0.067773	1.629645
0.067871	1.627014
0.067969	1.625109
0.068066	1.623244
0.068164	1.624633
0.068262	1.628392
0.068359	1.644588
0.068457	1.648265
0.068555	1.631969
0.068652	1.632967
0.068750	1.630608
0.068848	1.625106
0.068945	1.623595
0.069043	1.622289
0.069141	1.636033
0.069238	1.642169
0.069336	1.644962
0.069434	1.640831
0.069531	1.628366
0.069629	1.625592
0.069727	1.624828
0.069824	1.625446
0.069922	1.626922
0.070020	1.631335
0.070117	1.634923
0.070215	1.635260
0.070312	1.630920
0.070410	1.628370
0.070508	1.629352
0.070605	1.629504
0.070703	1.627544
0.070801	1.628950
0.070898	1.632629
0.070996	1.635166
0.071094	1.634299
0.071191	1.631746
0.071289	1.629125
0.071387	1.628455
0.071484	1.629130
0.071582	1.630749
0.071680	1.632847
0.071777	1.635407
0.071875	1.637097
0.071973	1.638744
0.072070	1.640334
0.072168	1.644210
0.072266	1.645842
0.072363	1.644542
0.072461	1.632810
0.072559	1.629736
0.072656	1.628483
0.072754	1.623728
0.072852	1.622254
0.072949	1.619643
0.073047	1.618786
0.073145	1.617843
0.073242	1.618937
0.073340	1.621237
0.073437	1.624997
0.073535	1.627610
0.073633	1.629781
0.073730	1.632047
0.073828	1.633985
0.073926	1.634325
0.074023	1.633687
0.074121	1.632494
0.074219	1.631094
0.074316	1.630057
0.074414	1.630181
0.074512	1.632031
0.074609	1.634907
0.074707	1.637746
0.074805	1.639106
0.074902	1.640807
0.075000	1.642778
0.075098	1.643534
0.075195	1.642142
0.075293	1.638366
0.075391	1.632461
0.075488	1.632335
0.075586	1.630777
0.075684	1.625189
0.075781	1.627512
0.075879	1.632157
0.075977	1.633343
0.076074	1.631455
0.076172	1.631943
0.076270	1.635794
0.076367	1.636424
0.076465	1.633231
0.076562	1.631151
0.076660	1.631425
0.076758	1.632241
0.076855	1.633484
0.076953	1.634944
0.077051	1.633311
0.077148	1.631304
0.077246	1.631226
0.077344	1.632973
0.077441	1.635675
0.077539	1.637852
0.077637	1.638383
0.077734	1.636574
0.077832	1.634270
0.077930	1.633814
0.078027	1.632484
0.078125	1.629338
0.078223	1.631304
0.078320	1.645136
0.078418	1.637919
0.078516	1.627657
0.078613	1.625268
0.078711	1.625493
0.078809	1.630659
0.078906	1.639069
0.079004	1.641856
0.079102	1.639644
0.079199	1.634057
0.079297	1.622628
0.079395	1.617534
0.079492	1.616226
0.079590	1.617723
0.079687	1.620924
0.079785	1.626138
0.079883	1.631483
0.079980	1.635313
0.080078	1.635465
0.080176	1.633105
0.080273	1.630353
0.080371	1.629199
0.080469	1.630797
0.080566	1.638368
0.080664	1.647875
0.080762	1.649203
0.080859	1.631590
0.080957	1.625899
0.081055	1.627473
0.081152	1.629355
0.081250	1.630495
0.081348	1.629386
0.081445	1.628253
0.081543	1.628030
0.081641	1.628880
0.081738	1.630172
0.081836	1.631649
0.081934	1.631935
0.082031	1.630967
0.082129	1.628763
0.082227	1.626636
0.082324	1.627586
0.082422	1.633961
0.082520	1.640271
0.082617	1.637568
0.082715	1.632270
0.082812	1.631080
0.082910	1.633094
0.083008	1.634077
0.083105	1.634653
0.083203	1.633565
0.083301	1.632702
0.083398	1.630829
0.083496	1.630727
0.083594	1.630908
0.083691	1.635940
0.083789	1.646742
0.083887	1.664292
0.083984	1.637167
0.084082	1.628716
0.084180	1.634091
0.084277	1.628758
0.084375	1.626653
0.084473	1.623731
0.084570	1.623947
0.084668	1.623529
0.084766	1.625528
0.084863	1.627965
0.084961	1.633269
0.085059	1.636849
0.085156	1.637029
0.085254	1.637187
0.085352	1.637108
0.085449	1.637609
0.085547	1.639357
0.085645	1.639780
0.085742	1.635014
0.085840	1.625095
0.085937	1.622065
0.086035	1.623456
0.086133	1.626100
0.086230	1.628718
0.086328	1.632165
0.086426	1.636311
0.086523	1.639366
0.086621	1.638890
0.086719	1.635089
0.086816	1.628581
0.086914	1.623166
0.087012	1.622146
0.087109	1.626757
0.087207	1.634359
0.087305	1.639356
0.087402	1.640603
0.087500	1.641022
0.087598	1.635008
0.087695	1.626009
0.087793	1.622559
0.087891	1.621810
0.087988	1.621950
0.088086	1.624219
0.088184	1.626683
0.088281	1.622283
0.088379	1.624549
0.088477	1.625992
0.088574	1.622868
0.088672	1.628381
0.088770	1.633279
0.088867	1.624355
0.088965	1.621506
0.089062	1.620931
0.089160	1.622992
0.089258	1.625942
0.089355	1.630684
0.089453	1.635928
0.089551	1.641716
0.089648	1.645564
0.089746	1.645464
0.089844	1.641243
0.089941	1.634575
0.090039	1.632466
0.090137	1.628864
0.090234	1.625856
0.090332	1.624715
0.090430	1.624795
0.090527	1.624638
0.090625	1.626838
0.090723	1.632100
0.090820	1.641746
0.090918	1.639335
0.091016	1.633396
0.091113	1.633101
0.091211	1.629086
0.091309	1.625833
0.091406	1.625291
0.091504	1.627281
0.091602	1.632827
0.091699	1.636091
0.091797	1.638386
0.091895	1.620686
0.091992	1.603916
0.092090	1.626700
0.092187	1.615602
0.092285	1.619875
0.092383	1.626548
0.092480	1.624739
0.092578	1.622698
0.092676	1.621669
0.092773	1.624184
0.092871	1.627364
0.092969	1.632546
0.093066	1.637287
0.093164	1.632154
0.093262	1.628468
0.093359	1.622813
0.093457	1.618165
0.093555	1.618213
0.093652	1.620636
0.093750	1.625211
0.093848	1.631666
0.093945	1.640368
0.094043	1.648977
0.094141	1.648874
0.094238	1.641472
0.094336	1.636807
0.094434	1.633455
0.094531	1.630277
0.094629	1.627326
0.094727	1.626765
0.094824	1.626684
0.094922	1.627954
0.095020	1.629184
0.095117	1.632028
0.095215	1.634421
0.095312	1.642631
0.095410	1.643763
0.095508	1.637301
0.095605	1.637219
0.095703	1.627539
0.095801	1.620956
0.095898	1.621213
0.095996	1.621565
0.096094	1.622545
0.096191	1.624748
0.096289	1.626744
0.096387	1.628136
0.096484	1.629394
0.096582	1.631224
0.096680	1.635601
0.096777	1.643180
0.096875	1.652640
0.096973	1.647780
0.097070	1.633162
0.097168	1.626835
0.097266	1.620651
0.097363	1.616474
0.097461	1.615034
0.097559	1.615921
0.097656	1.618342
0.097754	1.622832
0.097852	1.629153
0.097949	1.636811
0.098047	1.642571
0.098145	1.643022
0.098242	1.638668
0.098340	1.632218
0.098437	1.626000
0.098535	1.621691
0.098633	1.625180
0.098730	1.634990
0.098828	1.629153
0.098926	1.615351
0.099023	1.619464
0.099121	1.614467
0.099219	1.614286
0.099316	1.619535
0.099414	1.626207
0.099512	1.632039
0.099609	1.632142
0.099707	1.627950
0.099805	1.624416
0.099902	1.623349
0.100000	1.624746
0.100098	1.628493
0.100195	1.633656
0.100293	1.638873
0.100391	1.642618
0.100488	1.642466
0.100586	1.636265
0.100684	1.630041
0.100781	1.626607
0.100879	1.625859
0.100977	1.626011
0.101074	1.626774
0.101172	1.626896
0.101270	1.627574
0.101367	1.628060
0.101465	1.629562
0.101562	1.629612
0.101660	1.629598
0.101758	1.627614
0.101855	1.627527
0.101953	1.627154
0.102051	1.634762
0.102148	1.632856
0.102246	1.634662
0.102344	1.627135
0.102441	1.620110
0.102539	1.614068
0.102637	1.615983
0.102734	1.616767
0.102832	1.617090
0.102930	1.622328
0.103027	1.629093
0.103125	1.637632
0.103223	1.642771
0.103320	1.644381
0.103418	1.640950
0.103516	1.636298
0.103613	1.633081
0.103711	1.631220
0.103809	1.628704
0.103906	1.629272
0.104004	1.632577
0.104102	1.639020
0.104199	1.636785
0.104297	1.631978
0.104395	1.627993
0.104492	1.617627
0.104590	1.613159
0.104687	1.613326
0.104785	1.615073
0.104883	1.618472
0.104980	1.622167
0.105078	1.626193
0.105176	1.630060
0.105273	1.632869
0.105371	1.634136
0.105469	1.633166
0.105566	1.631506
0.105664	1.630725
0.105762	1.633481
0.105859	1.638874
0.105957	1.646865
0.106055	1.642677
0.106152	1.632127
0.106250	1.631841
0.106348	1.627910
0.106445	1.623351
0.106543	1.618245
0.106641	1.616525
0.106738	1.617251
0.106836	1.620150
0.106934	1.624601
0.107031	1.632333
0.107129	1.639982
0.107227	1.639614
0.107324	1.635115
0.107422	1.634637
0.107520	1.631922
0.107617	1.632923
0.107715	1.632109
0.107812	1.627909
0.107910	1.625889
0.108008	1.624205
0.108105	1.625573
0.108203	1.632006
0.108301	1.640347
0.108398	1.639291
0.108496	1.636170
0.108594	1.631822
0.108691	1.628143
0.108789	1.626109
0.108887	1.626136
0.108984	1.627060
0.109082	1.629150
0.109180	1.631272
0.109277	1.632810
0.109375	1.634598
0.109473	1.641408
0.109570	1.647452
0.109668	1.646199
0.109766	1.642156
0.109863	1.635316
0.109961	1.629903
0.110059	1.625719
0.110156	1.624800
0.110254	1.626362
0.110352	1.628005
0.110449	1.628874
0.110547	1.630570
0.110645	1.635718
0.110742	1.639111
0.110840	1.634983
0.110937	1.633191
0.111035	1.635789
0.111133	1.640045
0.111230	1.640691
0.111328	1.634723
0.111426	1.629920
0.111523	1.630000
0.111621	1.631056
0.111719	1.632335
0.111816	1.631579
0.111914	1.626148
0.112012	1.623707
0.112109	1.625862
0.112207	1.630823
0.112305	1.633223
0.112402	1.633068
0.112500	1.632032
0.112598	1.631140
0.112695	1.628973
0.112793	1.628953
0.112891	1.634403
0.112988	1.651784
0.113086	1.652160
0.113184	1.624022
0.113281	1.621797
0.113379	1.626458
0.113477	1.628435
0.113574	1.628524
0.113672	1.627888
0.113770	1.626539
0.113867	1.627668
0.113965	1.629916
0.114062	1.638053
0.114160	1.641582
0.114258	1.638233
0.114355	1.631204
0.114453	1.628178
0.114551	1.628162
0.114648	1.640941
0.114746	1.645904
0.114844	1.632846
0.114941	1.627328
0.115039	1.623084
0.115137	1.624273
0.115234	1.624905
0.115332	1.630819
0.115430	1.636904
0.115527	1.640019
0.115625	1.624060
0.115723	1.610639
0.115820	1.617347
0.115918	1.626040
0.116016	1.635903
0.116113	1.639539
0.116211	1.638534
0.116309	1.634638
0.116406	1.630180
0.116504	1.626959
0.116602	1.624634
0.116699	1.622528
0.116797	1.627095
0.116895	1.638790
0.116992	1.636705
0.117090	1.637441
0.117187	1.628807
0.117285	1.622857
0.117383	1.632923
0.117480	1.640961
0.117578	1.637584
0.117676	1.632250
0.117773	1.629451
0.117871	1.627147
0.117969	1.625187
0.118066	1.623668
0.118164	1.623239
0.118262	1.624510
0.118359	1.628081
0.118457	1.634688
0.118555	1.641554
0.118652	1.644510
0.118750	1.644677
0.118848	1.642942
0.118945	1.637898
0.119043	1.633632
0.119141	1.631223
0.119238	1.631973
0.119336	1.633721
0.119434	1.639575
0.119531	1.640863
0.119629	1.632984
0.119727	1.625313
0.119824	1.623322
0.119922	1.624217
0.120020	1.634686
0.120117	1.627195
0.120215	1.617768
0.120312	1.621673
0.120410	1.622606
0.120508	1.626399
0.120605	1.629186
0.120703	1.633420
0.120801	1.635196
0.120898	1.639050
0.120996	1.643026
0.121094	1.635143
0.121191	1.631950
0.121289	1.632653
0.121387	1.634107
0.121484	1.634383
0.121582	1.632640
0.121680	1.631162
0.121777	1.631098
0.121875	1.632576
0.121973	1.634119
0.122070	1.636547
0.122168	1.638089
0.122266	1.636743
0.122363	1.634354
0.122461	1.632477
0.122559	1.636757
0.122656	1.640493
0.122754	1.636826
0.122852	1.632406
0.122949	1.629901
0.123047	1.629516
0.123145	1.629178
0.123242	1.627636
0.123340	1.622934
0.123437	1.620509
0.123535	1.618502
0.123633	1.618891
0.123730	1.615834
0.123828	1.610876
0.123926	1.606659
0.124023	1.608573
0.124121	1.618175
0.124219	1.622532
0.124316	1.619712
0.124414	1.606149
0.124512	1.610595
0.124609	1.617201
0.124707	1.621219
0.124805	1.628156
0.124902	1.634673
0.125000	1.634737
0.125098	1.634024
0.125195	1.634224
0.125293	1.633465
0.125391	1.632821
0.125488	1.631201
0.125586	1.630738
0.125684	1.627588
0.125781	1.627669
0.125879	1.626576
0.125977	1.618088
0.126074	1.621645
0.126172	1.617096
0.126270	1.621033
0.126367	1.619462
0.126465	1.619653
0.126562	1.620601
0.126660	1.624238
0.126758	1.628818
0.126855	1.634965
0.126953	1.637179
0.127051	1.634977
0.127148	1.627370
0.127246	1.627403
0.127344	1.626171
0.127441	1.624395
0.127539	1.627470
0.127637	1.632280
0.127734	1.640177
0.127832	1.643182
0.127930	1.644995
0.128027	1.638026
0.128125	1.637421
0.128223	1.636149
0.128320	1.629996
0.128418	1.627134
0.128516	1.630642
0.128613	1.629354
0.128711	1.611047
0.128809	1.599259
0.128906	1.594553
0.129004	1.598053
0.129102	1.592449
0.129199	1.597547
0.129297	1.605096
0.129395	1.611011
0.129492	1.616296
0.129590	1.623001
0.129687	1.629617
0.129785	1.634794
0.129883	1.635310
0.129980	1.631230
0.130078	1.627882
0.130176	1.626678
0.130273	1.628118
0.130371	1.630992
0.130469	1.635023
0.130566	1.637551
0.130664	1.640184
0.130762	1.638637
0.130859	1.630569
0.130957	1.626146
0.131055	1.624051
0.131152	1.625128
0.131250	1.629772
0.131348	1.639381
0.131445	1.647272
0.131543	1.642072
0.131641	1.634031
0.131738	1.631150
0.131836	1.629728
0.131934	1.631283
0.132031	1.635154
0.132129	1.639930
0.132227	1.640818
0.132324	1.636456
0.132422	1.630899
0.132520	1.627474
0.132617	1.625080
0.132715	1.625854
0.132812	1.634084
0.132910	1.639008
0.133008	1.631226
0.133105	1.624969
0.133203	1.626820
0.133301	1.635748
0.133398	1.646610
0.133496	1.647185
0.133594	1.639138
0.133691	1.630475
0.133789	1.627702
0.133887	1.627056
0.133984	1.626510
0.134082	1.625732
0.134180	1.627169
0.134277	1.628442
0.134375	1.631690
0.134473	1.637032
0.134570	1.636741
0.134668	1.636713
0.134766	1.631428
0.134863	1.626278
0.134961	1.626280
0.135059	1.633994
0.135156	1.642261
0.135254	1.641588
0.135352	1.628033
0.135449	1.626739
0.135547	1.624166
0.135645	1.623959
0.135742	1.624741
0.135840	1.626224
0.135937	1.628159
0.136035	1.631990
0.136133	1.639126
0.136230	1.647313
0.136328	1.643018
0.136426	1.636039
0.136523	1.631492
0.136621	1.628549
0.136719	1.628490
0.136816	1.632173
0.136914	1.633714
0.137012	1.629883
0.137109	1.627311
0.137207	1.627602
0.137305	1.631115
0.137402	1.637452
0.137500	1.639480
0.137598	1.632204
0.137695	1.630587
0.137793	1.627352
0.137891	1.622833
0.137988	1.622548
0.138086	1.626189
0.138184	1.633073
0.138281	1.640126
0.138379	1.637883
0.138477	1.633197
0.138574	1.633923
0.138672	1.640276
0.138770	1.643157
0.138867	1.628857
0.138965	1.620992
0.139062	1.623493
0.139160	1.618153
0.139258	1.621186
0.139355	1.624322
0.139453	1.627934
0.139551	1.633296
0.139648	1.641241
0.139746	1.641070
0.139844	1.633986
0.139941	1.631476
0.140039	1.628880
0.140137	1.627513
0.140234	1.627285
0.140332	1.631730
0.140430	1.639617
0.140527	1.653506
0.140625	1.648308
0.140723	1.626293
0.140820	1.621858
0.140918	1.621853
0.141016	1.624865
0.141113	1.624505
0.141211	1.628039
0.141309	1.630614
0.141406	1.639869
0.141504	1.639753
0.141602	1.632641
0.141699	1.631170
0.141797	1.626223
0.141895	1.625216
0.141992	1.626083
0.142090	1.630857
0.142187	1.640188
0.142285	1.648105
0.142383	1.646117
0.142480	1.641813
0.142578	1.637108
0.142676	1.633966
0.142773	1.633297
0.142871	1.634198
0.142969	1.636294
0.143066	1.634753
0.143164	1.628696
0.143262	1.622349
0.143359	1.620491
0.143457	1.620629
0.143555	1.629077
0.143652	1.639354
0.143750	1.639619
0.143848	1.633204
0.143945	1.629122
0.144043	1.629577
0.144141	1.642293
0.144238	1.648836
0.144336	1.639901
0.144434	1.622437
0.144531	1.623086
0.144629	1.623218
0.144727	1.617816
0.144824	1.618418
0.144922	1.618271
0.145020	1.620531
0.145117	1.621543
0.145215	1.623132
0.145312	1.623613
0.145410	1.624937
0.145508	1.627729
0.145605	1.635160
0.145703	1.646981
0.145801	1.653231
0.145898	1.647363
0.145996	1.634864
0.146094	1.624123
0.146191	1.620329
0.146289	1.622217
0.146387	1.625132
0.146484	1.627335
0.146582	1.630885
0.146680	1.633397
0.146777	1.632117
0.146875	1.628051
0.146973	1.625412
0.147070	1.624525
0.147168	1.625097
0.147266	1.627117
0.147363	1.631415
0.147461	1.640341
0.147559	1.645656
0.147656	1.643107
0.147754	1.636898
0.147852	1.632934
0.147949	1.632776
0.148047	1.634154
0.148145	1.631193
0.148242	1.625363
0.148340	1.622226
0.148437	1.623423
0.148535	1.626447
0.148633	1.630213
0.148730	1.631683
0.148828	1.630349
0.148926	1.629064
0.149023	1.629947
0.149121	1.633443
0.149219	1.636250
0.149316	1.635865
0.149414	1.634720
0.149512	1.634222
0.149609	1.632955
0.149707	1.635022
0.149805	1.640132
0.149902	1.640038
0.150000	1.639785
0.150098	1.636342
0.150195	1.631841
0.150293	1.629629
0.150391	1.631194
0.150488	1.634074
0.150586	1.634868
0.150684	1.635075
0.150781	1.630191
0.150879	1.627466
0.150977	1.631375
0.151074	1.626337
0.151172	1.624208
0.151270	1.624611
0.151367	1.627304
0.151465	1.632708
0.151562	1.638415
0.151660	1.642130
0.151758	1.644348
0.151855	1.640949
0.151953	1.636042
0.152051	1.631775
0.152148	1.628929
0.152246	1.627108
0.152344	1.626108
0.152441	1.626486
0.152539	1.629199
0.152637	1.637352
0.152734	1.643466
0.152832	1.644923
0.152930	1.644176
0.153027	1.638205
0.153125	1.631904
0.153223	1.627374
0.153320	1.625020
0.153418	1.625160
0.153516	1.629181
0.153613	1.639008
0.153711	1.636096
0.153809	1.628006
0.153906	1.622655
0.154004	1.618280
0.154102	1.619909
0.154199	1.622937
0.154297	1.626585
0.154395	1.629412
0.154492	1.633022
0.154590	1.636701
0.154687	1.637093
0.154785	1.635252
0.154883	1.630875
0.154980	1.626483
0.155078	1.623381
0.155176	1.622773
0.155273	1.623716
0.155371	1.627674
0.155469	1.634881
0.155566	1.646890
0.155664	1.643865
0.155762	1.641006
0.155859	1.621021
0.155957	1.617302
0.156055	1.619570
0.156152	1.618607
0.156250	1.621325
0.156348	1.629120
0.156445	1.638263
0.156543	1.640405
0.156641	1.637723
0.156738	1.627353
0.156836	1.631359
0.156934	1.631434
0.157031	1.621867
0.157129	1.618381
0.157227	1.622563
0.157324	1.626506
0.157422	1.627478
0.157520	1.626237
0.157617	1.626594
0.157715	1.628042
0.157812	1.631060
0.157910	1.633721
0.158008	1.637204
0.158105	1.639705
0.158203	1.641766
0.158301	1.632565
0.158398	1.626159
0.158496	1.626736
0.158594	1.626381
0.158691	1.628926
0.158789	1.631145
0.158887	1.633665
0.158984	1.635937
0.159082	1.638626
0.159180	1.639522
0.159277	1.636948
0.159375	1.633147
0.159473	1.632682
0.159570	1.638158
0.159668	1.626576
0.159766	1.623488
0.159863	1.639439
0.159961	1.640309
0.160059	1.622196
0.160156	1.618795
0.160254	1.623317
0.160352	1.630012
0.160449	1.634321
0.160547	1.631410
0.160645	1.628039
0.160742	1.626393
0.160840	1.627107
0.160937	1.629861
0.161035	1.634781
0.161133	1.639827
0.161230	1.641840
0.161328	1.640138
0.161426	1.636380
0.161523	1.633021
0.161621	1.629950
0.161719	1.627951
0.161816	1.626634
0.161914	1.626934
0.162012	1.630411
0.162109	1.636423
0.162207	1.638226
0.162305	1.635936
0.162402	1.631766
0.162500	1.627645
0.162598	1.625546
0.162695	1.625882
0.162793	1.628394
0.162891	1.634126
0.162988	1.642181
0.163086	1.650967
0.163184	1.650042
0.163281	1.640224
0.163379	1.632216
0.163477	1.628430
0.163574	1.627526
0.163672	1.624946
0.163770	1.624928
0.163867	1.626820
0.163965	1.632483
0.164062	1.636762
0.164160	1.640740
0.164258	1.644639
0.164355	1.628046
0.164453	1.621755
0.164551	1.622646
0.164648	1.625449
0.164746	1.627079
0.164844	1.629714
0.164941	1.630075
0.165039	1.638019
0.165137	1.646142
0.165234	1.642767
0.165332	1.626637
0.165430	1.624207
0.165527	1.634639
0.165625	1.634678
0.165723	1.632493
0.165820	1.626979
0.165918	1.623580
0.166016	1.623172
0.166113	1.624551
0.166211	1.624520
0.166309	1.624600
0.166406	1.625124
0.166504	1.626121
0.166602	1.626333
0.166699	1.626122
0.166797	1.628540
0.166895	1.633923
0.166992	1.644055
0.167090	1.640818
0.167187	1.630062
0.167285	1.624887
0.167383	1.625411
0.167480	1.628926
0.167578	1.632358
0.167676	1.635822
0.167773	1.638295
0.167871	1.639716
0.167969	1.639642
0.168066	1.640927
0.168164	1.644027
0.168262	1.644438
0.168359	1.638945
0.168457	1.632475
0.168555	1.628252
0.168652	1.627713
0.168750	1.630857
0.168848	1.633058
0.168945	1.631408
0.169043	1.628539
0.169141	1.626864
0.169238	1.627549
0.169336	1.627791
0.169434	1.627002
0.169531	1.625504
0.169629	1.626982
0.169727	1.632388
0.169824	1.638701
0.169922	1.638202
0.170020	1.639310
0.170117	1.634321
0.170215	1.628558
0.170312	1.624450
0.170410	1.634268
0.170508	1.644767
0.170605	1.636153
0.170703	1.636460
0.170801	1.632200
0.170898	1.630352
0.170996	1.628230
0.171094	1.627616
0.171191	1.625529
0.171289	1.625111
0.171387	1.625182
0.171484	1.626946
0.171582	1.628603
0.171680	1.631410
0.171777	1.634763
0.171875	1.642883
0.171973	1.647612
0.172070	1.638512
0.172168	1.634186
0.172266	1.628020
0.172363	1.624964
0.172461	1.626957
0.172559	1.628309
0.172656	1.630642
0.172754	1.636245
0.172852	1.644760
0.172949	1.638991
0.173047	1.630857
0.173145	1.628463
0.173242	1.628880
0.173340	1.631309
0.173437	1.628650
0.173535	1.626252
0.173633	1.624133
0.173730	1.623409
0.173828	1.623029
0.173926	1.625994
0.174023	1.633806
0.174121	1.644669
0.174219	1.630995
0.174316	1.616559
0.174414	1.613526
0.174512	1.606924
0.174609	1.587866
0.174707	1.596634
0.174805	1.616110
0.174902	1.614400
0.175000	1.616654
0.175098	1.616926
0.175195	1.620949
0.175293	1.625988
0.175391	1.639058
0.175488	1.646688
0.175586	1.646068
0.175684	1.641805
0.175781	1.636901
0.175879	1.634066
0.175977	1.629826
0.176074	1.622939
0.176172	1.622703
0.176270	1.621450
0.176367	1.626490
0.176465	1.621338
0.176562	1.623452
0.176660	1.616668
0.176758	1.611257
0.176855	1.616203
0.176953	1.618801
0.177051	1.624250
0.177148	1.629345
0.177246	1.639635
0.177344	1.651375
0.177441	1.646123
0.177539	1.634703
0.177637	1.634488
0.177734	1.632716
0.177832	1.627622
0.177930	1.622123
0.178027	1.618016
0.178125	1.615886
0.178223	1.616192
0.178320	1.619026
0.178418	1.623599
0.178516	1.629730
0.178613	1.631146
0.178711	1.628915
0.178809	1.629248
0.178906	1.628674
0.179004	1.628662
0.179102	1.629392
0.179199	1.631677
0.179297	1.634872
0.179395	1.637449
0.179492	1.638598
0.179590	1.638072
0.179687	1.636684
0.179785	1.635212
0.179883	1.636476
0.179980	1.638485
0.180078	1.638986
0.180176	1.637892
0.180273	1.635930
0.180371	1.625568
0.180469	1.613685
0.180566	1.617264
0.180664	1.619266
0.180762	1.617405
0.180859	1.621557
0.180957	1.630393
0.181055	1.630393
0.181152	1.613817
0.181250	1.611174
0.181348	1.621611
0.181445	1.627175
0.181543	1.626902
0.181641	1.624396
0.181738	1.624355
0.181836	1.625652
0.181934	1.628471
0.182031	1.631881
0.182129	1.635400
0.182227	1.639000
0.182324	1.639302
0.182422	1.633156
0.182520	1.628216
0.182617	1.626533
0.182715	1.628021
0.182812	1.631702
0.182910	1.636031
0.183008	1.636261
0.183105	1.632480
0.183203	1.629527
0.183301	1.628698
0.183398	1.629131
0.183496	1.630266
0.183594	1.631712
0.183691	1.634403
0.183789	1.639483
0.183887	1.646876
0.183984	1.651030
0.184082	1.647900
0.184180	1.641458
0.184277	1.633287
0.184375	1.626849
0.184473	1.623770
0.184570	1.622289
0.184668	1.623768
0.184766	1.627484
0.184863	1.634529
0.184961	1.639641
0.185059	1.640715
0.185156	1.635234
0.185254	1.633784
0.185352	1.631894
0.185449	1.636515
0.185547	1.633675
0.185645	1.631898
0.185742	1.633898
0.185840	1.607131
0.185937	1.597745
0.186035	1.621464
0.186133	1.591852
0.186230	1.599217
0.186328	1.613844
0.186426	1.612562
0.186523	1.620296
0.186621	1.622560
0.186719	1.629225
0.186816	1.631752
0.186914	1.639533
0.187012	1.642601
0.187109	1.625485
0.187207	1.623824
0.187305	1.625962
0.187402	1.631298
0.187500	1.636721
0.187598	1.638265
0.187695	1.633973
0.187793	1.629833
0.187891	1.631260
0.187988	1.635547
0.188086	1.636742
0.188184	1.634515
0.188281	1.628593
0.188379	1.629089
0.188477	1.629408
0.188574	1.617926
0.188672	1.615868
0.188770	1.617586
0.188867	1.620374
0.188965	1.622226
0.189062	1.624336
0.189160	1.626351
0.189258	1.629288
0.189355	1.632897
0.189453	1.636701
0.189551	1.637313
0.189648	1.635211
0.189746	1.632550
0.189844	1.630902
0.189941	1.631309
0.190039	1.633566
0.190137	1.635959
0.190234	1.635724
0.190332	1.632753
0.190430	1.629003
0.190527	1.628109
0.190625	1.634007
0.190723	1.644867
0.190820	1.638523
0.190918	1.632274
0.191016	1.627647
0.191113	1.623516
0.191211	1.622184
0.191309	1.622757
0.191406	1.624267
0.191504	1.627981
0.191602	1.631381
0.191699	1.634876
0.191797	1.626373
0.191895	1.607472
0.191992	1.611866
0.192090	1.623554
0.192187	1.626030
0.192285	1.621102
0.192383	1.617937
0.192480	1.616481
0.192578	1.620525
0.192676	1.624546
0.192773	1.631418
0.192871	1.635385
0.192969	1.634411
0.193066	1.633352
0.193164	1.633923
0.193262	1.634977
0.193359	1.638350
0.193457	1.642070
0.193555	1.644588
0.193652	1.638110
0.193750	1.629529
0.193848	1.625962
0.193945	1.624841
0.194043	1.625958
0.194141	1.628691
0.194238	1.631945
0.194336	1.634093
0.194434	1.635761
0.194531	1.634677
0.194629	1.631777
0.194727	1.629894
0.194824	1.629579
0.194922	1.632562
0.195020	1.637358
0.195117	1.642101
0.195215	1.640108
0.195312	1.631518
0.195410	1.625922
0.195508	1.624078
0.195605	1.625137
0.195703	1.626857
0.195801	1.627938
0.195898	1.630594
0.195996	1.635869
0.196094	1.639689
0.196191	1.636511
0.196289	1.632026
0.196387	1.630964
0.196484	1.631691
0.196582	1.631253
0.196680	1.630837
0.196777	1.631023
0.196875	1.632922
0.196973	1.634301
0.197070	1.633230
0.197168	1.615612
0.197266	1.598177
0.197363	1.590816
0.197461	1.591803
0.197559	1.599393
0.197656	1.601685
0.197754	1.606811
0.197852	1.610220
0.197949	1.615036
0.198047	1.619724
0.198145	1.625767
0.198242	1.632816
0.198340	1.640232
0.198437	1.643118
0.198535	1.638992
0.198633	1.631976
0.198730	1.627967
0.198828	1.625385
0.198926	1.625946
0.199023	1.629260
0.199121	1.633773
0.199219	1.633174
0.199316	1.637096
0.199414	1.641812
0.199512	1.639538
0.199609	1.640940
0.199707	1.639310
0.199805	1.637090
0.199902	1.633907
0.200000	1.631210
0.200098	1.628923
0.200195	1.628347
0.200293	1.629633
0.200391	1.633973
0.200488	1.639213
0.200586	1.639666
0.200684	1.635405
0.200781	1.630800
0.200879	1.627232
0.200977	1.625471
0.201074	1.624830
0.201172	1.624423
0.201270	1.623910
0.201367	1.623680
0.201465	1.625285
0.201562	1.629543
0.201660	1.636656
0.201758	1.642859
0.201855	1.642869
0.201953	1.638263
0.202051	1.633438
0.202148	1.628042
0.202246	1.626065
0.202344	1.636015
0.202441	1.642602
0.202539	1.628072
0.202637	1.622201
0.202734	1.625343
0.202832	1.629249
0.202930	1.629658
0.203027	1.637034
0.203125	1.624368
0.203223	1.618120
0.203320	1.621039
0.203418	1.623823
0.203516	1.630329
0.203613	1.638778
0.203711	1.644134
0.203809	1.640060
0.203906	1.633367
0.204004	1.627472
0.204102	1.622937
0.204199	1.621670
0.204297	1.623461
0.204395	1.628759
0.204492	1.639869
0.204590	1.648603
0.204687	1.646995
0.204785	1.640752
0.204883	1.621109
0.204980	1.618528
0.205078	1.574347
0.205176	1.565959
0.205273	1.613638
0.205371	1.614161
0.205469	1.619715
0.205566	1.621170
0.205664	1.629062
0.205762	1.632752
0.205859	1.639688
0.205957	1.639918
0.206055	1.652683
0.206152	1.645805
0.206250	1.628933
0.206348	1.621971
0.206445	1.616850
0.206543	1.619552
0.206641	1.627116
0.206738	1.641272
0.206836	1.638182
0.206934	1.629284
0.207031	1.626353
0.207129	1.624531
0.207227	1.625794
0.207324	1.628726
0.207422	1.632775
0.207520	1.638848
0.207617	1.637128
0.207715	1.629523
0.207812	1.627749
0.207910	1.629444
0.208008	1.633451
0.208105	1.636790
0.208203	1.640988
0.208301	1.644569
0.208398	1.642174
0.208496	1.632452
0.208594	1.624901
0.208691	1.620646
0.208789	1.619450
0.208887	1.621309
0.208984	1.626777
0.209082	1.632545
0.209180	1.632535
0.209277	1.630396
0.209375	1.628604
0.209473	1.626772
0.209570	1.627096
0.209668	1.629525
0.209766	1.638717
0.209863	1.651915
0.209961	1.654308
0.210059	1.640160
0.210156	1.624457
0.210254	1.622562
0.210352	1.622363
0.210449	1.623118
0.210547	1.620347
0.210645	1.620295
0.210742	1.630910
0.210840	1.641184
0.210937	1.629366
0.211035	1.621546
0.211133	1.621717
0.211230	1.625304
0.211328	1.630969
0.211426	1.638576
0.211523	1.644777
0.211621	1.641412
0.211719	1.634097
0.211816	1.629457
0.211914	1.627734
0.212012	1.628056
0.212109	1.632358
0.212207	1.635574
0.212305	1.637093
0.212402	1.633617
0.212500	1.633571
0.212598	1.631452
0.212695	1.618314
0.212793	1.609376
0.212891	1.617230
0.212988	1.623007
0.213086	1.623632
0.213184	1.628773
0.213281	1.634415
0.213379	1.641810
0.213477	1.641562
0.213574	1.637704
0.213672	1.633590
0.213770	1.630462
0.213867	1.627484
0.213965	1.626554
0.214062	1.625846
0.214160	1.625808
0.214258	1.626141
0.214355	1.626921
0.214453	1.628068
0.214551	1.630181
0.214648	1.632306
0.214746	1.634755
0.214844	1.635702
0.214941	1.633288
0.215039	1.616379
0.215137	1.586045
0.215234	1.599052
0.215332	1.608318
0.215430	1.613578
0.215527	1.619701
0.215625	1.626357
0.215723	1.632468
0.215820	1.627350
0.215918	1.626017
0.216016	1.629307
0.216113	1.632118
0.216211	1.626812
0.216309	1.621821
0.216406	1.621478
0.216504	1.623216
0.216602	1.625555
0.216699	1.626924
0.216797	1.627707
0.216895	1.629214
0.216992	1.632162
0.217090	1.637526
0.217187	1.641653
0.217285	1.638447
0.217383	1.633789
0.217480	1.630767
0.217578	1.628200
0.217676	1.628428
0.217773	1.632128
0.217871	1.638795
0.217969	1.643872
0.218066	1.642471
0.218164	1.639279
0.218262	1.638092
0.218359	1.637776
0.218457	1.635101
0.218555	1.630064
0.218652	1.622610
0.218750	1.619995
0.218848	1.627878
0.218945	1.619967
0.219043	1.602949
0.219141	1.598335
0.219238	1.614416
0.219336	1.619374
0.219434	1.620831
0.219531	1.626245
0.219629	1.638123
0.219727	1.639088
0.219824	1.638108
0.219922	1.636092
0.220020	1.626400
0.220117	1.623071
0.220215	1.621121
0.220312	1.620897
0.220410	1.622408
0.220508	1.626305
0.220605	1.630590
0.220703	1.633327
0.220801	1.633264
0.220898	1.632336
0.220996	1.631505
0.221094	1.630672
0.221191	1.630884
0.221289	1.633726
0.221387	1.635808
0.221484	1.634191
0.221582	1.633291
0.221680	1.633955
0.221777	1.634293
0.221875	1.633675
0.221973	1.633568
0.222070	1.634077
0.222168	1.634762
0.222266	1.635566
0.222363	1.636045
0.222461	1.634794
0.222559	1.632991
0.222656	1.631023
0.222754	1.629457
0.222852	1.627810
0.222949	1.628325
0.223047	1.630428
0.223145	1.638868
0.223242	1.643694
0.223340	1.640353
0.223437	1.637485
0.223535	1.633217
0.223633	1.631158
0.223730	1.629529
0.223828	1.628543
0.223926	1.626489
0.224023	1.625912
0.224121	1.626038
0.224219	1.628419
0.224316	1.634420
0.224414	1.644426
0.224512	1.643285
0.224609	1.637605
0.224707	1.634105
0.224805	1.630340
0.224902	1.630487
0.225000	1.635093
0.225098	1.640941
0.225195	1.644337
0.225293	1.642621
0.225391	1.635556
0.225488	1.628176
0.225586	1.625216
0.225684	1.626692
0.225781	1.628765
0.225879	1.631232
0.225977	1.634053
0.226074	1.636862
0.226172	1.637577
0.226270	1.633449
0.226367	1.629686
0.226465	1.630145
0.226562	1.632489
0.226660	1.631764
0.226758	1.629100
0.226855	1.629550
0.226953	1.635362
0.227051	1.639754
0.227148	1.638424
0.227246	1.632297
0.227344	1.629542
0.227441	1.628494
0.227539	1.628945
0.227637	1.627226
0.227734	1.630976
0.227832	1.627518
0.227930	1.621157
0.228027	1.585766
0.228125	1.569305
0.228223	1.598106
0.228320	1.610370
0.228418	1.612428
0.228516	1.614495
0.228613	1.620184
0.228711	1.627873
0.228809	1.637837
0.228906	1.649863
0.229004	1.648288
0.229102	1.637566
0.229199	1.632253
0.229297	1.624343
0.229395	1.624116
0.229492	1.623961
0.229590	1.629072
0.229687	1.635237
0.229785	1.635102
0.229883	1.629956
0.229980	1.627468
0.230078	1.627283
0.230176	1.629048
0.230273	1.630985
0.230371	1.632805
0.230469	1.633908
0.230566	1.636225
0.230664	1.642991
0.230762	1.642839
0.230859	1.638008
0.230957	1.634922
0.231055	1.632715
0.231152	1.630664
0.231250	1.628134
0.231348	1.626645
0.231445	1.627007
0.231543	1.630233
0.231641	1.636185
0.231738	1.641186
0.231836	1.640682
0.231934	1.636067
0.232031	1.632754
0.232129	1.631924
0.232227	1.632163
0.232324	1.631632
0.232422	1.631735
0.232520	1.631437
0.232617	1.630725
0.232715	1.627139
0.232812	1.624947
0.232910	1.606396
0.233008	1.587444
0.233105	1.605956
0.233203	1.598680
0.233301	1.601415
0.233398	1.615543
0.233496	1.614539
0.233594	1.617750
0.233691	1.622139
0.233789	1.628526
0.233887	1.633145
0.233984	1.634696
0.234082	1.633429
0.234180	1.632173
0.234277	1.633914
0.234375	1.636110
0.234473	1.633773
0.234570	1.630799
0.234668	1.631182
0.234766	1.631570
0.234863	1.629612
0.234961	1.628275
0.235059	1.629429
0.235156	1.631920
0.235254	1.638960
0.235352	1.644119
0.235449	1.637416
0.235547	1.634280
0.235645	1.635315
0.235742	1.631345
0.235840	1.625592
0.235937	1.632710
0.236035	1.634107
0.236133	1.634880
0.236230	1.633519
0.236328	1.630309
0.236426	1.627212
0.236523	1.625653
0.236621	1.625280
0.236719	1.626674
0.236816	1.630014
0.236914	1.635588
0.237012	1.637127
0.237109	1.635195
0.237207	1.636026
0.237305	1.638064
0.237402	1.638050
0.237500	1.635762
0.237598	1.634748
0.237695	1.637084
0.237793	1.639728
0.237891	1.637195
0.237988	1.631677
0.238086	1.627319
0.238184	1.625659
0.238281	1.626930
0.238379	1.629918
0.238477	1.632910
0.238574	1.633820
0.238672	1.633969
0.238770	1.633747
0.238867	1.632774
0.238965	1.630947
0.239062	1.629380
0.239160	1.628938
0.239258	1.636996
0.239355	1.650369
0.239453	1.641537
0.239551	1.634779
0.239648	1.628130
0.239746	1.622985
0.239844	1.621815
0.239941	1.625783
0.240039	1.636592
0.240137	1.637883
0.240234	1.636913
0.240332	1.636795
0.240430	1.628535
0.240527	1.625131
0.240625	1.622953
0.240723	1.624835
0.240820	1.623604
0.240918	1.626959
0.241016	1.627864
0.241113	1.645315
0.241211	1.640113
0.241309	1.620825
0.241406	1.628302
0.241504	1.620894
0.241602	1.621951
0.241699	1.618129
0.241797	1.620589
0.241895	1.619041
0.241992	1.621101
0.242090	1.622669
0.242187	1.627147
0.242285	1.629556
0.242383	1.631505
0.242480	1.631126
0.242578	1.632055
0.242676	1.634205
0.242773	1.639218
0.242871	1.643769
0.242969	1.646631
0.243066	1.643615
0.243164	1.636489
0.243262	1.628984
0.243359	1.624919
0.243457	1.624064
0.243555	1.625507
0.243652	1.628671
0.243750	1.633715
0.243848	1.636814
0.243945	1.637497
0.244043	1.635752
0.244141	1.638066
0.244238	1.640330
0.244336	1.633097
0.244434	1.628189
0.244531	1.623353
0.244629	1.622838
0.244727	1.624429
0.244824	1.628215
0.244922	1.633653
0.245020	1.641119
0.245117	1.645809
0.245215	1.641033
0.245312	1.634426
0.245410	1.632948
0.245508	1.627617
0.245605	1.622099
0.245703	1.621100
0.245801	1.623272
0.245898	1.628864
0.245996	1.633547
0.246094	1.634025
0.246191	1.635757
0.246289	1.636368
0.246387	1.635084
0.246484	1.632140
0.246582	1.629052
0.246680	1.627254
0.246777	1.626988
0.246875	1.627325
0.246973	1.629291
0.247070	1.633507
0.247168	1.637252
0.247266	1.636297
0.247363	1.633415
0.247461	1.631357
0.247559	1.631777
0.247656	1.633780
0.247754	1.638135
0.247852	1.639046
0.247949	1.634263
0.248047	1.628976
0.248145	1.627625
0.248242	1.630451
0.248340	1.648892
0.248437	1.647545
0.248535	1.634138
0.248633	1.623300
0.248730	1.612211
0.248828	1.615629
0.248926	1.616710
0.249023	1.622422
0.249121	1.625696
0.249219	1.642463
0.249316	1.643578
0.249414	1.635611
0.249512	1.631449
0.249609	1.626162
0.249707	1.624147
0.249805	1.622405
0.249902	1.620999
0.250000	1.619881
0.250098	1.620025
0.250195	1.620936
0.250293	1.626496
0.250391	1.638755
0.250488	1.648915
0.250586	1.638465
0.250684	1.631773
0.250781	1.629221
0.250879	1.626890
0.250977	1.626296
0.251074	1.631778
0.251172	1.642048
0.251270	1.640154
0.251367	1.635923
0.251465	1.626205
0.251562	1.623884
0.251660	1.621133
0.251758	1.619841
0.251855	1.621057
0.251953	1.623932
0.252051	1.641729
0.252148	1.665725
0.252246	1.640840
0.252344	1.624142
0.252441	1.626825
0.252539	1.627222
0.252637	1.626594
0.252734	1.624139
0.252832	1.622769
0.252930	1.623231
0.253027	1.626419
0.253125	1.632472
0.253223	1.642492
0.253320	1.648445
0.253418	1.641595
0.253516	1.636771
0.253613	1.634197
0.253711	1.628938
0.253809	1.625580
0.253906	1.624613
0.254004	1.626480
0.254102	1.628485
0.254199	1.628303
0.254297	1.626400
0.254395	1.626995
0.254492	1.629798
0.254590	1.632878
0.254687	1.632498
0.254785	1.634725
0.254883	1.638841
0.254980	1.641112
0.255078	1.638013
0.255176	1.629694
0.255273	1.626709
0.255371	1.624223
0.255469	1.625160
0.255566	1.628179
0.255664	1.631948
0.255762	1.636311
0.255859	1.638189
0.255957	1.641817
0.256055	1.632545
0.256152	1.613725
0.256250	1.618074
0.256348	1.634100
0.256445	1.630242
0.256543	1.621925
0.256641	1.622371
0.256738	1.622382
0.256836	1.625972
0.256934	1.635804
0.257031	1.636068
0.257129	1.620611
0.257227	1.619527
0.257324	1.626814
0.257422	1.639448
0.257520	1.631033
0.257617	1.622311
0.257715	1.625863
0.257812	1.630481
0.257910	1.635674
0.258008	1.641444
0.258105	1.646778
0.258203	1.638027
0.258301	1.625840
0.258398	1.622635
0.258496	1.622112
0.258594	1.625149
0.258691	1.628138
0.258789	1.629169
0.258887	1.626250
0.258984	1.624595
0.259082	1.624262
0.259180	1.627791
0.259277	1.633165
0.259375	1.644971
0.259473	1.648979
0.259570	1.636226
0.259668	1.632356
0.259766	1.629592
0.259863	1.628450
0.259961	1.627131
0.260059	1.627118
0.260156	1.627608
0.260254	1.631073
0.260352	1.637990
0.260449	1.647873
0.260547	1.634362
0.260645	1.636870
0.260742	1.637808
0.260840	1.626984
0.260937	1.625720
0.261035	1.625243
0.261133	1.623970
0.261230	1.622308
0.261328	1.622815
0.261426	1.624300
0.261523	1.628382
0.261621	1.631444
0.261719	1.633091
0.261816	1.630743
0.261914	1.632691
0.262012	1.630286
0.262109	1.642119
0.262207	1.646303
0.262305	1.638604
0.262402	1.630821
0.262500	1.628159
0.262598	1.634118
0.262695	1.642159
0.262793	1.631172
0.262891	1.626741
0.262988	1.624093
0.263086	1.632100
0.263184	1.632353
0.263281	1.626040
0.263379	1.630747
0.263477	1.622455
0.263574	1.618686
0.263672	1.617351
0.263770	1.619623
0.263867	1.620739
0.263965	1.624874
0.264062	1.627789
0.264160	1.631892
0.264258	1.634494
0.264355	1.637138
0.264453	1.636994
0.264551	1.635941
0.264648	1.636173
0.264746	1.639530
0.264844	1.642215
0.264941	1.640454
0.265039	1.635178
0.265137	1.630904
0.265234	1.629030
0.265332	1.629585
0.265430	1.632560
0.265527	1.634304
0.265625	1.637060
0.265723	1.640474
0.265820	1.631315
0.265918	1.625667
0.266016	1.625986
0.266113	1.627162
0.266211	1.628116
0.266309	1.627608
0.266406	1.627101
0.266504	1.627541
0.266602	1.630564
0.266699	1.633036
0.266797	1.634723
0.266895	1.636809
0.266992	1.638486
0.267090	1.636793
0.267187	1.634767
0.267285	1.635209
0.267383	1.636223
0.267480	1.637861
0.267578	1.645209
0.267676	1.650101
0.267773	1.644543
0.267871	1.637061
0.267969	1.627123
0.268066	1.621838
0.268164	1.620372
0.268262	1.621738
0.268359	1.624973
0.268457	1.629781
0.268555	1.633977
0.268652	1.634673
0.268750	1.632377
0.268848	1.629555
0.268945	1.627642
0.269043	1.626241
0.269141	1.625748
0.269238	1.625512
0.269336	1.626731
0.269434	1.628914
0.269531	1.632840
0.269629	1.635148
0.269727	1.636771
0.269824	1.636234
0.269922	1.635360
0.270020	1.631112
0.270117	1.624475
0.270215	1.614672
0.270312	1.621761
0.270410	1.625668
0.270508	1.621260
0.270605	1.623301
0.270703	1.625630
0.270801	1.630027
0.270898	1.632872
0.270996	1.635030
0.271094	1.634643
0.271191	1.632756
0.271289	1.629747
0.271387	1.627761
0.271484	1.628079
0.271582	1.630769
0.271680	1.637523
0.271777	1.639125
0.271875	1.634648
0.271973	1.634507
0.272070	1.633487
0.272168	1.631259
0.272266	1.627807
0.272363	1.625044
0.272461	1.623741
0.272559	1.626997
0.272656	1.637410
0.272754	1.644618
0.272852	1.645880
0.272949	1.643340
0.273047	1.636840
0.273145	1.633011
0.273242	1.629544
0.273340	1.626783
0.273437	1.624680
0.273535	1.623135
0.273633	1.622658
0.273730	1.623760
0.273828	1.626331
0.273926	1.631145
0.274023	1.639039
0.274121	1.651077
0.274219	1.654918
0.274316	1.641705
0.274414	1.633049
0.274512	1.631823
0.274609	1.628938
0.274707	1.626479
0.274805	1.626380
0.274902	1.625666
0.275000	1.624040
0.275098	1.623215
0.275195	1.625243
0.275293	1.630486
0.275391	1.639079
0.275488	1.642900
0.275586	1.637696
0.275684	1.631669
0.275781	1.626905
0.275879	1.624665
0.275977	1.624714
0.276074	1.627240
0.276172	1.630371
0.276270	1.631053
0.276367	1.630490
0.276465	1.630486
0.276562	1.633666
0.276660	1.640193
0.276758	1.646396
0.276855	1.642753
0.276953	1.632209
0.277051	1.627259
0.277148	1.628983
0.277246	1.633001
0.277344	1.634764
0.277441	1.633543
0.277539	1.630429
0.277637	1.628966
0.277734	1.629413
0.277832	1.631466
0.277930	1.635694
0.278027	1.645035
0.278125	1.642410
0.278223	1.645402
0.278320	1.633519
0.278418	1.622744
0.278516	1.626209
0.278613	1.627020
0.278711	1.624700
0.278809	1.621970
0.278906	1.621633
0.279004	1.624186
0.279102	1.629367
0.279199	1.645165
0.279297	1.646757
0.279395	1.617534
0.279492	1.621695
0.279590	1.628050
0.279687	1.627148
0.279785	1.623740
0.279883	1.621283
0.279980	1.620433
0.280078	1.626766
0.280176	1.635881
0.280273	1.626678
0.280371	1.618477
0.280469	1.612810
0.280566	1.616764
0.280664	1.620170
0.280762	1.625282
0.280859	1.628291
0.280957	1.629081
0.281055	1.628579
0.281152	1.630021
0.281250	1.632237
0.281348	1.637662
0.281445	1.637924
0.281543	1.632284
0.281641	1.629842
0.281738	1.629440
0.281836	1.625194
0.281934	1.627774
0.282031	1.627453
0.282129	1.621041
0.282227	1.618976
0.282324	1.614328
0.282422	1.619920
0.282520	1.626841
0.282617	1.628382
0.282715	1.624308
0.282812	1.622090
0.282910	1.621280
0.283008	1.622866
0.283105	1.625974
0.283203	1.633056
0.283301	1.640952
0.283398	1.646025
0.283496	1.642098
0.283594	1.635855
0.283691	1.630130
0.283789	1.625800
0.283887	1.622055
0.283984	1.621100
0.284082	1.619175
0.284180	1.618695
0.284277	1.619061
0.284375	1.616860
0.284473	1.621324
0.284570	1.630133
0.284668	1.640064
0.284766	1.627477
0.284863	1.629406
0.284961	1.635096
0.285059	1.619999
0.285156	1.617797
0.285254	1.620811
0.285352	1.625431
0.285449	1.631924
0.285547	1.639175
0.285645	1.638537
0.285742	1.633364
0.285840	1.635636
0.285937	1.635442
0.286035	1.631055
0.286133	1.627698
0.286230	1.625273
0.286328	1.625387
0.286426	1.628753
0.286523	1.637533
0.286621	1.646856
0.286719	1.644930
0.286816	1.635480
0.286914	1.630058
0.287012	1.629028
0.287109	1.627987
0.287207	1.626003
0.287305	1.625584
0.287402	1.627132
0.287500	1.630454
0.287598	1.634326
0.287695	1.637042
0.287793	1.636845
0.287891	1.634545
0.287988	1.631515
0.288086	1.629393
0.288184	1.627736
0.288281	1.626991
0.288379	1.626277
0.288477	1.626898
0.288574	1.626999
0.288672	1.631529
0.288770	1.619742
0.288867	1.592647
0.288965	1.584414
0.289062	1.603015
0.289160	1.619923
0.289258	1.618452
0.289355	1.617556
0.289453	1.620448
0.289551	1.627565
0.289648	1.633976
0.289746	1.644577
0.289844	1.644597
0.289941	1.641622
0.290039	1.626326
0.290137	1.613020
0.290234	1.630066
0.290332	1.615432
0.290430	1.613057
0.290527	1.615832
0.290625	1.620377
0.290723	1.624213
0.290820	1.627159
0.290918	1.630171
0.291016	1.635618
0.291113	1.635198
0.291211	1.630428
0.291309	1.625460
0.291406	1.624118
0.291504	1.624258
0.291602	1.626553
0.291699	1.630464
0.291797	1.635450
0.291895	1.633051
0.291992	1.627900
0.292090	1.626108
0.292187	1.626005
0.292285	1.626487
0.292383	1.628195
0.292480	1.630196
0.292578	1.634254
0.292676	1.641858
0.292773	1.653530
0.292871	1.639604
0.292969	1.632394
0.293066	1.632566
0.293164	1.627592
0.293262	1.627176
0.293359	1.627215
0.293457	1.623009
0.293555	1.622115
0.293652	1.626622
0.293750	1.634494
0.293848	1.640638
0.293945	1.637629
0.294043	1.636367
0.294141	1.631976
0.294238	1.619120
0.294336	1.621678
0.294434	1.625047
0.294531	1.622611
0.294629	1.622469
0.294727	1.623093
0.294824	1.626299
0.294922	1.630269
0.295020	1.634295
0.295117	1.633239
0.295215	1.631074
0.295312	1.629240
0.295410	1.629405
0.295508	1.629507
0.295605	1.631375
0.295703	1.631555
0.295801	1.632842
0.295898	1.631113
0.295996	1.632243
0.296094	1.630115
0.296191	1.636719
0.296289	1.624728
0.296387	1.621320
0.296484	1.626854
0.296582	1.619090
0.296680	1.622119
0.296777	1.623087
0.296875	1.626050
0.296973	1.627484
0.297070	1.629180
0.297168	1.632180
0.297266	1.639230
0.297363	1.652115
0.297461	1.649783
0.297559	1.631960
0.297656	1.630417
0.297754	1.626852
0.297852	1.628560
0.297949	1.631796
0.298047	1.637033
0.298145	1.642002
0.298242	1.637330
0.298340	1.636719
0.298437	1.633460
0.298535	1.630606
0.298633	1.636189
0.298730	1.639768
0.298828	1.630271
0.298926	1.625372
0.299023	1.624047
0.299121	1.624439
0.299219	1.627318
0.299316	1.630061
0.299414	1.630428
0.299512	1.632028
0.299609	1.642621
0.299707	1.646111
0.299805	1.632086
0.299902	1.626521
0.300000	1.627690
0.300098	1.625427
0.300195	1.623605
0.300293	1.622245
0.300391	1.623176
0.300488	1.626238
0.300586	1.632783
0.300684	1.639270
0.300781	1.641517
0.300879	1.634897
0.300977	1.629387
0.301074	1.628627
0.301172	1.625266
0.301270	1.623690
0.301367	1.624171
0.301465	1.626522
0.301562	1.640049
0.301660	1.643135
0.301758	1.631288
0.301855	1.614659
0.301953	1.603865
0.302051	1.610731
0.302148	1.618048
0.302246	1.619083
0.302344	1.623359
0.302441	1.628043
0.302539	1.635717
0.302637	1.638818
0.302734	1.636857
0.302832	1.614552
0.302930	1.603875
0.303027	1.610951
0.303125	1.614771
0.303223	1.618887
0.303320	1.620329
0.303418	1.623029
0.303516	1.626016
0.303613	1.631038
0.303711	1.635070
0.303809	1.635116
0.303906	1.630598
0.304004	1.628701
0.304102	1.627823
0.304199	1.629024
0.304297	1.630866
0.304395	1.634679
0.304492	1.641555
0.304590	1.639594
0.304687	1.629320
0.304785	1.621323
0.304883	1.616383
0.304980	1.608202
0.305078	1.591170
0.305176	1.597889
0.305273	1.605658
0.305371	1.609964
0.305469	1.616373
0.305566	1.622611
0.305664	1.629128
0.305762	1.632158
0.305859	1.632761
0.305957	1.631841
0.306055	1.630929
0.306152	1.629102
0.306250	1.627832
0.306348	1.627949
0.306445	1.630908
0.306543	1.636805
0.306641	1.641657
0.306738	1.640415
0.306836	1.637872
0.306934	1.635392
0.307031	1.632437
0.307129	1.631415
0.307227	1.633105
0.307324	1.635519
0.307422	1.636219
0.307520	1.634673
0.307617	1.631608
0.307715	1.628975
0.307812	1.627617
0.307910	1.628547
0.308008	1.631995
0.308105	1.638565
0.308203	1.646468
0.308301	1.647194
0.308398	1.639479
0.308496	1.630960
0.308594	1.621403
0.308691	1.617728
0.308789	1.619992
0.308887	1.633384
0.308984	1.635641
0.309082	1.624548
0.309180	1.621067
0.309277	1.624422
0.309375	1.631222
0.309473	1.640901
0.309570	1.637606
0.309668	1.630393
0.309766	1.629985
0.309863	1.624339
0.309961	1.621488
0.310059	1.619232
0.310156	1.621075
0.310254	1.624411
0.310352	1.632515
0.310449	1.632194
0.310547	1.626205
0.310645	1.624732
0.310742	1.624825
0.310840	1.630471
0.310937	1.639452
0.311035	1.644080
0.311133	1.641487
0.311230	1.636346
0.311328	1.630655
0.311426	1.627716
0.311523	1.626398
0.311621	1.627614
0.311719	1.627320
0.311816	1.629413
0.311914	1.631747
0.312012	1.643177
0.312109	1.640286
0.312207	1.637309
0.312305	1.627946
0.312402	1.620269
0.312500	1.618447
0.312598	1.616121
0.312695	1.617420
0.312793	1.628000
0.312891	1.632020
0.312988	1.627484
0.313086	1.626437
0.313184	1.617861
0.313281	1.618938
0.313379	1.614989
0.313477	1.619381
0.313574	1.624993
0.313672	1.633003
0.313770	1.634319
0.313867	1.633734
0.313965	1.630372
0.314062	1.627767
0.314160	1.626567
0.314258	1.628771
0.314355	1.639513
0.314453	1.636408
0.314551	1.630572
0.314648	1.629632
0.314746	1.627236
0.314844	1.626673
0.314941	1.626254
0.315039	1.627945
0.315137	1.629952
0.315234	1.632593
0.315332	1.633967
0.315430	1.634061
0.315527	1.631840
0.315625	1.628463
0.315723	1.627843
0.315820	1.631445
0.315918	1.639227
0.316016	1.642729
0.316113	1.616927
0.316211	1.607482
0.316309	1.606762
0.316406	1.616171
0.316504	1.620433
0.316602	1.629267
0.316699	1.636610
0.316797	1.634843
0.316895	1.628679
0.316992	1.624590
0.317090	1.622813
0.317187	1.627589
0.317285	1.635038
0.317383	1.644338
0.317480	1.626932
0.317578	1.594521
0.317676	1.599255
0.317773	1.605058
0.317871	1.616625
0.317969	1.623084
0.318066	1.631509
0.318164	1.637818
0.318262	1.642589
0.318359	1.643717
0.318457	1.643826
0.318555	1.642765
0.318652	1.640487
0.318750	1.631782
0.318848	1.621169
0.318945	1.614934
0.319043	1.617834
0.319141	1.619939
0.319238	1.630924
0.319336	1.633757
0.319434	1.644510
0.319531	1.634703
0.319629	1.613270
0.319727	1.622577
0.319824	1.619686
0.319922	1.627176
0.320020	1.627495
0.320117	1.623544
0.320215	1.618392
0.320312	1.621988
0.320410	1.629107
0.320508	1.639745
0.320605	1.638656
0.320703	1.636278
0.320801	1.634649
0.320898	1.630910
0.320996	1.626431
0.321094	1.625993
0.321191	1.627835
0.321289	1.633831
0.321387	1.636727
0.321484	1.633507
0.321582	1.631868
0.321680	1.627484
0.321777	1.625108
0.321875	1.622664
0.321973	1.623478
0.322070	1.627343
0.322168	1.633737
0.322266	1.641534
0.322363	1.648763
0.322461	1.647388
0.322559	1.641015
0.322656	1.632298
0.322754	1.626454
0.322852	1.624058
0.322949	1.623860
0.323047	1.625838
0.323145	1.629338
0.323242	1.634309
0.323340	1.640109
0.323437	1.637261
0.323535	1.632931
0.323633	1.631328
0.323730	1.624089
0.323828	1.624799
0.323926	1.627582
0.324023	1.626978
0.324121	1.627745
0.324219	1.634180
0.324316	1.632505
0.324414	1.628764
0.324512	1.627116
0.324609	1.622513
0.324707	1.622638
0.324805	1.630296
0.324902	1.639367
0.325000	1.634817
0.325098	1.632135
0.325195	1.630440
0.325293	1.630043
0.325391	1.626808
0.325488	1.624386
0.325586	1.624284
0.325684	1.626630
0.325781	1.632106
0.325879	1.639392
0.325977	1.642881
0.326074	1.640283
0.326172	1.634016
0.326270	1.629020
0.326367	1.626395
0.326465	1.627537
0.326562	1.629720
0.326660	1.632640
0.326758	1.636265
0.326855	1.639367
0.326953	1.634578
0.327051	1.631415
0.327148	1.634229
0.327246	1.644045
0.327344	1.644245
0.327441	1.633433
0.327539	1.623846
0.327637	1.620942
0.327734	1.618182
0.327832	1.614851
0.327930	1.617679
0.328027	1.620219
0.328125	1.623853
0.328223	1.629073
0.328320	1.635268
0.328418	1.640087
0.328516	1.641033
0.328613	1.637715
0.328711	1.629679
0.328809	1.624717
0.328906	1.620526
0.329004	1.621503
0.329102	1.621283
0.329199	1.634421
0.329297	1.632427
0.329395	1.625803
0.329492	1.635101
0.329590	1.640018
0.329687	1.658206
0.329785	1.653761
0.329883	1.628696
0.329980	1.622598
0.330078	1.623876
0.330176	1.625177
0.330273	1.627562
0.330371	1.631923
0.330469	1.637940
0.330566	1.641349
0.330664	1.638459
0.330762	1.634169
0.330859	1.628777
0.330957	1.627270
0.331055	1.627106
0.331152	1.632566
0.331250	1.629374
0.331348	1.632117
0.331445	1.617864
0.331543	1.605652
0.331641	1.622233
0.331738	1.617640
0.331836	1.616287
0.331934	1.619344
0.332031	1.629826
0.332129	1.637842
0.332227	1.634763
0.332324	1.633927
0.332422	1.634373
0.332520	1.631361
0.332617	1.628738
0.332715	1.626902
0.332812	1.625240
0.332910	1.623338
0.333008	1.625668
0.333105	1.630033
0.333203	1.634564
0.333301	1.639184
0.333398	1.641412
0.333496	1.636240
0.333594	1.631120
0.333691	1.626364
0.333789	1.622115
0.333887	1.622201
0.333984	1.622563
0.334082	1.623428
0.334180	1.607643
0.334277	1.610605
0.334375	1.623959
0.334473	1.623539
0.334570	1.626346
0.334668	1.621938
0.334766	1.619744
0.334863	1.621975
0.334961	1.625047
0.335059	1.631520
0.335156	1.633570
0.335254	1.633147
0.335352	1.637535
0.335449	1.634045
0.335547	1.630044
0.335645	1.624886
0.335742	1.622430
0.335840	1.622147
0.335937	1.625448
0.336035	1.630994
0.336133	1.637732
0.336230	1.639814
0.336328	1.638431
0.336426	1.631791
0.336523	1.635732
0.336621	1.647192
0.336719	1.629130
0.336816	1.619977
0.336914	1.617878
0.337012	1.618971
0.337109	1.622887
0.337207	1.629615
0.337305	1.639165
0.337402	1.648968
0.337500	1.644667
0.337598	1.634173
0.337695	1.630565
0.337793	1.628571
0.337891	1.628973
0.337988	1.631069
0.338086	1.634205
0.338184	1.636208
0.338281	1.635403
0.338379	1.632378
0.338477	1.628472
0.338574	1.625085
0.338672	1.623070
0.338770	1.623166
0.338867	1.624529
0.338965	1.626418
0.339062	1.627682
0.339160	1.629792
0.339258	1.630655
0.339355	1.633030
0.339453	1.636054
0.339551	1.644741
0.339648	1.644383
0.339746	1.637897
0.339844	1.639506
0.339941	1.636291
0.340039	1.630935
0.340137	1.627675
0.340234	1.625679
0.340332	1.625054
0.340430	1.624905
0.340527	1.626135
0.340625	1.625285
0.340723	1.625731
0.340820	1.627626
0.340918	1.653863
0.341016	1.657520
0.341113	1.633739
0.341211	1.628175
0.341309	1.624731
0.341406	1.626828
0.341504	1.627760
0.341602	1.630524
0.341699	1.629477
0.341797	1.632714
0.341895	1.633484
0.341992	1.625300
0.342090	1.633873
0.342187	1.638940
0.342285	1.637677
0.342383	1.629784
0.342480	1.624919
0.342578	1.622140
0.342676	1.621972
0.342773	1.622738
0.342871	1.624319
0.342969	1.627151
0.343066	1.631586
0.343164	1.641637
0.343262	1.643284
0.343359	1.633144
0.343457	1.632408
0.343555	1.632320
0.343652	1.628577
0.343750	1.624813
0.343848	1.624405
0.343945	1.625203
0.344043	1.627889
0.344141	1.629803
0.344238	1.630709
0.344336	1.630359
0.344434	1.631504
0.344531	1.632979
0.344629	1.635182
0.344727	1.635231
0.344824	1.634546
0.344922	1.632213
0.345020	1.632319
0.345117	1.633346
0.345215	1.642473
0.345312	1.647063
0.345410	1.640861
0.345508	1.632776
0.345605	1.631811
0.345703	1.629889
0.345801	1.626294
0.345898	1.620256
0.345996	1.611987
0.346094	1.610404
0.346191	1.612822
0.346289	1.618076
0.346387	1.623730
0.346484	1.629548
0.346582	1.633688
0.346680	1.637043
0.346777	1.642120
0.346875	1.641854
0.346973	1.636057
0.347070	1.633048
0.347168	1.631096
0.347266	1.633881
0.347363	1.639063
0.347461	1.638773
0.347559	1.633739
0.347656	1.627057
0.347754	1.624507
0.347852	1.626091
0.347949	1.630858
0.348047	1.633970
0.348145	1.633925
0.348242	1.633506
0.348340	1.631487
0.348437	1.628369
0.348535	1.625935
0.348633	1.625101
0.348730	1.626524
0.348828	1.630158
0.348926	1.634846
0.349023	1.637923
0.349121	1.637527
0.349219	1.634963
0.349316	1.633208
0.349414	1.634790
0.349512	1.639144
0.349609	1.638158
0.349707	1.630766
0.349805	1.625777
0.349902	1.623017
0.350000	1.624653
0.350098	1.629817
0.350195	1.640085
0.350293	1.644365
0.350391	1.638856
0.350488	1.632231
0.350586	1.628257
0.350684	1.626553
0.350781	1.630958
0.350879	1.635501
0.350977	1.629259
0.351074	1.618903
0.351172	1.619291
0.351270	1.627156
0.351367	1.627929
0.351465	1.631246
0.351562	1.631934
0.351660	1.631380
0.351758	1.628149
0.351855	1.625687
0.351953	1.624091
0.352051	1.624652
0.352148	1.626759
0.352246	1.632183
0.352344	1.637147
0.352441	1.639005
0.352539	1.634412
0.352637	1.629268
0.352734	1.626057
0.352832	1.625889
0.352930	1.626960
0.353027	1.634218
0.353125	1.638265
0.353223	1.628960
0.353320	1.616740
0.353418	1.611862
0.353516	1.616767
0.353613	1.608902
0.353711	1.606575
0.353809	1.618384
0.353906	1.623874
0.354004	1.626758
0.354102	1.621308
0.354199	1.621614
0.354297	1.623987
0.354395	1.626281
0.354492	1.628245
0.354590	1.630326
0.354687	1.632048
0.354785	1.634548
0.354883	1.635163
0.354980	1.634277
0.355078	1.633091
0.355176	1.643343
0.355273	1.642174
0.355371	1.628733
0.355469	1.626783
0.355566	1.627722
0.355664	1.632618
0.355762	1.635329
0.355859	1.636481
0.355957	1.638434
0.356055	1.637092
0.356152	1.633069
0.356250	1.629172
0.356348	1.629220
0.356445	1.633128
0.356543	1.634660
0.356641	1.632482
0.356738	1.629841
0.356836	1.628547
0.356934	1.628311
0.357031	1.630450
0.357129	1.635741
0.357227	1.644875
0.357324	1.648888
0.357422	1.645253
0.357520	1.638754
0.357617	1.628056
0.357715	1.622930
0.357812	1.621457
0.357910	1.620178
0.358008	1.622359
0.358105	1.627859
0.358203	1.638678
0.358301	1.643521
0.358398	1.625684
0.358496	1.625934
0.358594	1.628997
0.358691	1.630703
0.358789	1.632771
0.358887	1.628120
0.358984	1.624683
0.359082	1.623070
0.359180	1.624225
0.359277	1.626572
0.359375	1.631054
0.359473	1.637292
0.359570	1.642747
0.359668	1.642401
0.359766	1.638175
0.359863	1.634218
0.359961	1.632831
0.360059	1.632173
0.360156	1.632335
0.360254	1.630922
0.360352	1.628490
0.360449	1.625323
0.360547	1.624742
0.360645	1.625776
0.360742	1.634528
0.360840	1.644309
0.360937	1.633530
0.361035	1.629551
0.361133	1.625077
0.361230	1.621417
0.361328	1.616380
0.361426	1.617184
0.361523	1.617579
0.361621	1.623255
0.361719	1.627249
0.361816	1.641669
0.361914	1.612071
0.362012	1.596001
0.362109	1.612161
0.362207	1.617017
0.362305	1.622725
0.362402	1.621757
0.362500	1.623552
0.362598	1.623728
0.362695	1.626083
0.362793	1.628115
0.362891	1.631447
0.362988	1.633043
0.363086	1.633627
0.363184	1.631006
0.363281	1.627466
0.363379	1.628352
0.363477	1.623834
0.363574	1.621331
0.363672	1.624217
0.363770	1.621254
0.363867	1.617495
0.363965	1.617468
0.364062	1.621509
0.364160	1.625510
0.364258	1.638978
0.364355	1.645556
0.364453	1.632039
0.364551	1.617740
0.364648	1.611647
0.364746	1.621556
0.364844	1.620822
0.364941	1.620251
0.365039	1.619220
0.365137	1.620267
0.365234	1.621382
0.365332	1.623837
0.365430	1.626609
0.365527	1.630320
0.365625	1.633383
0.365723	1.635559
0.365820	1.635222
0.365918	1.633310
0.366016	1.630765
0.366113	1.628988
0.366211	1.628708
0.366309	1.631490
0.366406	1.638900
0.366504	1.645529
0.366602	1.644171
0.366699	1.642436
0.366797	1.636932
0.366895	1.633789
0.366992	1.635626
0.367090	1.637519
0.367187	1.639077
0.367285	1.635982
0.367383	1.634293
0.367480	1.631656
0.367578	1.628005
0.367676	1.625618
0.367773	1.625988
0.367871	1.626654
0.367969	1.631285
0.368066	1.638559
0.368164	1.650369
0.368262	1.633989
0.368359	1.618087
0.368457	1.619898
0.368555	1.619569
0.368652	1.625651
0.368750	1.644725
0.368848	1.650586
0.368945	1.635591
0.369043	1.627597
0.369141	1.630186
0.369238	1.626854
0.369336	1.617709
0.369434	1.620870
0.369531	1.623986
0.369629	1.628225
0.369727	1.631700
0.369824	1.635531
0.369922	1.635238
0.370020	1.632738
0.370117	1.631134
0.370215	1.632451
0.370312	1.633728
0.370410	1.633073
0.370508	1.632559
0.370605	1.634961
0.370703	1.637132
0.370801	1.637998
0.370898	1.634839
0.370996	1.631559
0.371094	1.632002
0.371191	1.632074
0.371289	1.629199
0.371387	1.628931
0.371484	1.631751
0.371582	1.636888
0.371680	1.634168
0.371777	1.637230
0.371875	1.629725
0.371973	1.618697
0.372070	1.622376
0.372168	1.622475
0.372266	1.627316
0.372363	1.628383
0.372461	1.629596
0.372559	1.630592
0.372656	1.634921
0.372754	1.636639
0.372852	1.634637
0.372949	1.632276
0.373047	1.624194
0.373145	1.588032
0.373242	1.592568
0.373340	1.606997
0.373437	1.615091
0.373535	1.615541
0.373633	1.616109
0.373730	1.618988
0.373828	1.623653
0.373926	1.630057
0.374023	1.636227
0.374121	1.643229
0.374219	1.648392
0.374316	1.641919
0.374414	1.630625
0.374512	1.624894
0.374609	1.622281
0.374707	1.620993
0.374805	1.620512
0.374902	1.621520
0.375000	1.624758
0.375098	1.633219
0.375195	1.620345
0.375293	1.610974
0.375391	1.617570
0.375488	1.615618
0.375586	1.610453
0.375684	1.617080
0.375781	1.620726
0.375879	1.624625
0.375977	1.625719
0.376074	1.627526
0.376172	1.628527
0.376270	1.630857
0.376367	1.632803
0.376465	1.637123
0.376562	1.632169
0.376660	1.632474
0.376758	1.634284
0.376855	1.625139
0.376953	1.620134
0.377051	1.621589
0.377148	1.625924
0.377246	1.631201
0.377344	1.633967
0.377441	1.632630
0.377539	1.631027
0.377637	1.631616
0.377734	1.636165
0.377832	1.641822
0.377930	1.645813
0.378027	1.643574
0.378125	1.631215
0.378223	1.629986
0.378320	1.628562
0.378418	1.622140
0.378516	1.623310
0.378613	1.628361
0.378711	1.632591
0.378809	1.631209
0.378906	1.631225
0.379004	1.630118
0.379102	1.636447
0.379199	1.639554
0.379297	1.629776
0.379395	1.619875
0.379492	1.612504
0.379590	1.610946
0.379687	1.620008
0.379785	1.621118
0.379883	1.616875
0.379980	1.615491
0.380078	1.617570
0.380176	1.623084
0.380273	1.629911
0.380371	1.640405
0.380469	1.643567
0.380566	1.636016
0.380664	1.629713
0.380762	1.629889
0.380859	1.633537
0.380957	1.634968
0.381055	1.635760
0.381152	1.639077
0.381250	1.638969
0.381348	1.629145
0.381445	1.627586
0.381543	1.639559
0.381641	1.627470
0.381738	1.622824
0.381836	1.621908
0.381934	1.626353
0.382031	1.632097
0.382129	1.646211
0.382227	1.648897
0.382324	1.628571
0.382422	1.629440
0.382520	1.629762
0.382617	1.624882
0.382715	1.620834
0.382812	1.619421
0.382910	1.619108
0.383008	1.619771
0.383105	1.621089
0.383203	1.623920
0.383301	1.628422
0.383398	1.636057
0.383496	1.643200
0.383594	1.641989
0.383691	1.637077
0.383789	1.632565
0.383887	1.630664
0.383984	1.632103
0.384082	1.635457
0.384180	1.634673
0.384277	1.631787
0.384375	1.632370
0.384473	1.633574
0.384570	1.630744
0.384668	1.629842
0.384766	1.633073
0.384863	1.639961
0.384961	1.642354
0.385059	1.635586
0.385156	1.630930
0.385254	1.627235
0.385352	1.625518
0.385449	1.626010
0.385547	1.628319
0.385645	1.629861
0.385742	1.629068
0.385840	1.626881
0.385937	1.626030
0.386035	1.626799
0.386133	1.629878
0.386230	1.634908
0.386328	1.643878
0.386426	1.650362
0.386523	1.643571
0.386621	1.637314
0.386719	1.632631
0.386816	1.627859
0.386914	1.624632
0.387012	1.623838
0.387109	1.633371
0.387207	1.650118
0.387305	1.644349
0.387402	1.626483
0.387500	1.625017
0.387598	1.622614
0.387695	1.620206
0.387793	1.621066
0.387891	1.623298
0.387988	1.625592
0.388086	1.627439
0.388184	1.629644
0.388281	1.633151
0.388379	1.638655
0.388477	1.648156
0.388574	1.652521
0.388672	1.641993
0.388770	1.638974
0.388867	1.633422
0.388965	1.628011
0.389062	1.625333
0.389160	1.623938
0.389258	1.622613
0.389355	1.620880
0.389453	1.620974
0.389551	1.622026
0.389648	1.624219
0.389746	1.626267
0.389844	1.628990
0.389941	1.631143
0.390039	1.633454
0.390137	1.634468
0.390234	1.638270
0.390332	1.625292
0.390430	1.603768
0.390527	1.605456
0.390625	1.607322
0.390723	1.612685
0.390820	1.620400
0.390918	1.618741
0.391016	1.616931
0.391113	1.615869
0.391211	1.616575
0.391309	1.618887
0.391406	1.622213
0.391504	1.625887
0.391602	1.629019
0.391699	1.631624
0.391797	1.632779
0.391895	1.632824
0.391992	1.632334
0.392090	1.631054
0.392187	1.630051
0.392285	1.635984
0.392383	1.639708
0.392480	1.634966
0.392578	1.628275
0.392676	1.626783
0.392773	1.623851
0.392871	1.626332
0.392969	1.630761
0.393066	1.617731
0.393164	1.588710
0.393262	1.608673
0.393359	1.628463
0.393457	1.625099
0.393555	1.627278
0.393652	1.626060
0.393750	1.636334
0.393848	1.643072
0.393945	1.634426
0.394043	1.629815
0.394141	1.630556
0.394238	1.628432
0.394336	1.629032
0.394434	1.631857
0.394531	1.640730
0.394629	1.645807
0.394727	1.642828
0.394824	1.634401
0.394922	1.627112
0.395020	1.624103
0.395117	1.624216
0.395215	1.629400
0.395312	1.637196
0.395410	1.643243
0.395508	1.637898
0.395605	1.631322
0.395703	1.629530
0.395801	1.631539
0.395898	1.639055
0.395996	1.640360
0.396094	1.629560
0.396191	1.622184
0.396289	1.620548
0.396387	1.621238
0.396484	1.623466
0.396582	1.627418
0.396680	1.633079
0.396777	1.637948
0.396875	1.638465
0.396973	1.635319
0.397070	1.632228
0.397168	1.631738
0.397266	1.634801
0.397363	1.639690
0.397461	1.640654
0.397559	1.638578
0.397656	1.636430
0.397754	1.634953
0.397852	1.632131
0.397949	1.629137
0.398047	1.626922
0.398145	1.629276
0.398242	1.635733
0.398340	1.643949
0.398437	1.643646
0.398535	1.638221
0.398633	1.630268
0.398730	1.625105
0.398828	1.627824
0.398926	1.617828
0.399023	1.621847
0.399121	1.634163
0.399219	1.637699
0.399316	1.631680
0.399414	1.624902
0.399512	1.621506
0.399609	1.620211
0.399707	1.621491
0.399805	1.623299
0.399902	1.627767
0.400000	1.631030
0.400098	1.636494
0.400195	1.637055
0.400293	1.639240
0.400391	1.611652
0.400488	1.582473
0.400586	1.594891
0.400684	1.599557
0.400781	1.616149
0.400879	1.615137
0.400977	1.616869
0.401074	1.620710
0.401172	1.639665
0.401270	1.626982
0.401367	1.611262
0.401465	1.620020
0.401562	1.621105
0.401660	1.627534
0.401758	1.628749
0.401855	1.627850
0.401953	1.627865
0.402051	1.627825
0.402148	1.630113
0.402246	1.636167
0.402344	1.649572
0.402441	1.637225
0.402539	1.620582
0.402637	1.627150
0.402734	1.625908
0.402832	1.626589
0.402930	1.626623
0.403027	1.627834
0.403125	1.629799
0.403223	1.632982
0.403320	1.637815
0.403418	1.638008
0.403516	1.637409
0.403613	1.629716
0.403711	1.623407
0.403809	1.615666
0.403906	1.612336
0.404004	1.621103
0.404102	1.620145
0.404199	1.623211
0.404297	1.624561
0.404395	1.627834
0.404492	1.630260
0.404590	1.633916
0.404687	1.637028
0.404785	1.640473
0.404883	1.643766
0.404980	1.644473
0.405078	1.637791
0.405176	1.629887
0.405273	1.624082
0.405371	1.621508
0.405469	1.620441
0.405566	1.620685
0.405664	1.621512
0.405762	1.623261
0.405859	1.626184
0.405957	1.631136
0.406055	1.638630
0.406152	1.643987
0.406250	1.642516
0.406348	1.640210
0.406445	1.638223
0.406543	1.634711
0.406641	1.631392
0.406738	1.628861
0.406836	1.627780
0.406934	1.628466
0.407031	1.630913
0.407129	1.635137
0.407227	1.640625
0.407324	1.642629
0.407422	1.641300
0.407520	1.639959
0.407617	1.637368
0.407715	1.633406
0.407812	1.630101
0.407910	1.629805
0.408008	1.632606
0.408105	1.635211
0.408203	1.633256
0.408301	1.629835
0.408398	1.629623
0.408496	1.634396
0.408594	1.638990
0.408691	1.638166
0.408789	1.634803
0.408887	1.631068
0.408984	1.627925
0.409082	1.626165
0.409180	1.627076
0.409277	1.629529
0.409375	1.632035
0.409473	1.633153
0.409570	1.632848
0.409668	1.631791
0.409766	1.631398
0.409863	1.632095
0.409961	1.634330
0.410059	1.636783
0.410156	1.639627
0.410254	1.642237
0.410352	1.637627
0.410449	1.627527
0.410547	1.621040
0.410645	1.614380
0.410742	1.618760
0.410840	1.620622
0.410937	1.602039
0.411035	1.608628
0.411133	1.610322
0.411230	1.615072
0.411328	1.620476
0.411426	1.625523
0.411523	1.629016
0.411621	1.632118
0.411719	1.634543
0.411816	1.635857
0.411914	1.633658
0.412012	1.629931
0.412109	1.628958
0.412207	1.631224
0.412305	1.639746
0.412402	1.642576
0.412500	1.631724
0.412598	1.631134
0.412695	1.628833
0.412793	1.624316
0.412891	1.619596
0.412988	1.618046
0.413086	1.619140
0.413184	1.623401
0.413281	1.630742
0.413379	1.637702
0.413477	1.635677
0.413574	1.629882
0.413672	1.628277
0.413770	1.628714
0.413867	1.631171
0.413965	1.635370
0.414062	1.639055
0.414160	1.638295
0.414258	1.634295
0.414355	1.630998
0.414453	1.629117
0.414551	1.628896
0.414648	1.630023
0.414746	1.633015
0.414844	1.636741
0.414941	1.638883
0.415039	1.637843
0.415137	1.635995
0.415234	1.634145
0.415332	1.633585
0.415430	1.631998
0.415527	1.631113
0.415625	1.629260
0.415723	1.630111
0.415820	1.632406
0.415918	1.642052
0.416016	1.618414
0.416113	1.605243
0.416211	1.610166
0.416309	1.601595
0.416406	1.604262
0.416504	1.611051
0.416602	1.615170
0.416699	1.619378
0.416797	1.624621
0.416895	1.628360
0.416992	1.628821
0.417090	1.610995
0.417187	1.630980
0.417285	1.633644
0.417383	1.625825
0.417480	1.624718
0.417578	1.622816
0.417676	1.624430
0.417773	1.625828
0.417871	1.632444
0.417969	1.643263
0.418066	1.652014
0.418164	1.633971
0.418262	1.630438
0.418359	1.636034
0.418457	1.643631
0.418555	1.622642
0.418652	1.612576
0.418750	1.617689
0.418848	1.620778
0.418945	1.628649
0.419043	1.638125
0.419141	1.641985
0.419238	1.639575
0.419336	1.636350
0.419434	1.628778
0.419531	1.623184
0.419629	1.619284
0.419727	1.618751
0.419824	1.619537
0.419922	1.622112
0.420020	1.624698
0.420117	1.628114
0.420215	1.632181
0.420312	1.639597
0.420410	1.645243
0.420508	1.645152
0.420605	1.645440
0.420703	1.634813
0.420801	1.625789
0.420898	1.621143
0.420996	1.621471
0.421094	1.625507
0.421191	1.632049
0.421289	1.637508
0.421387	1.635757
0.421484	1.629652
0.421582	1.626768
0.421680	1.625540
0.421777	1.627592
0.421875	1.630391
0.421973	1.637530
0.422070	1.642077
0.422168	1.648387
0.422266	1.642373
0.422363	1.634670
0.422461	1.631922
0.422559	1.625487
0.422656	1.625849
0.422754	1.624400
0.422852	1.625030
0.422949	1.625760
0.423047	1.628070
0.423145	1.628212
0.423242	1.629147
0.423340	1.630937
0.423437	1.634771
0.423535	1.635459
0.423633	1.633987
0.423730	1.629834
0.423828	1.627703
0.423926	1.625322
0.424023	1.626971
0.424121	1.630565
0.424219	1.638697
0.424316	1.624823
0.424414	1.619123
0.424512	1.608180
0.424609	1.621775
0.424707	1.628597
0.424805	1.619850
0.424902	1.623751
0.425000	1.628642
0.425098	1.634892
0.425195	1.634000
0.425293	1.618471
0.425391	1.607469
0.425488	1.609182
0.425586	1.606995
0.425684	1.619942
0.425781	1.622200
0.425879	1.625542
0.425977	1.624611
0.426074	1.624243
0.426172	1.624817
0.426270	1.634860
0.426367	1.637402
0.426465	1.630575
0.426562	1.627982
0.426660	1.627258
0.426758	1.627132
0.426855	1.626832
0.426953	1.626603
0.427051	1.627679
0.427148	1.629634
0.427246	1.632685
0.427344	1.634275
0.427441	1.641493
0.427539	1.643786
0.427637	1.635698
0.427734	1.633088
0.427832	1.629789
0.427930	1.628355
0.428027	1.627189
0.428125	1.628413
0.428223	1.632124
0.428320	1.641627
0.428418	1.647519
0.428516	1.643165
0.428613	1.629864
0.428711	1.624048
0.428809	1.627022
0.428906	1.629683
0.429004	1.630550
0.429102	1.631298
0.429199	1.633581
0.429297	1.637461
0.429395	1.641824
0.429492	1.644267
0.429590	1.643744
0.429687	1.643076
0.429785	1.642712
0.429883	1.634664
0.429980	1.622055
0.430078	1.616463
0.430176	1.616305
0.430273	1.619973
0.430371	1.625548
0.430469	1.630168
0.430566	1.631032
0.430664	1.630564
0.430762	1.629583
0.430859	1.629914
0.430957	1.629920
0.431055	1.630811
0.431152	1.631076
0.431250	1.634658
0.431348	1.639871
0.431445	1.653313
0.431543	1.648692
0.431641	1.628109
0.431738	1.627792
0.431836	1.624475
0.431934	1.621284
0.432031	1.621609
0.432129	1.632057
0.432227	1.644409
0.432324	1.642217
0.432422	1.635477
0.432520	1.630018
0.432617	1.620877
0.432715	1.619555
0.432812	1.621043
0.432910	1.625286
0.433008	1.629500
0.433105	1.631895
0.433203	1.632071
0.433301	1.634201
0.433398	1.639647
0.433496	1.642242
0.433594	1.637692
0.433691	1.635520
0.433789	1.636192
0.433887	1.641125
0.433984	1.636859
0.434082	1.624728
0.434180	1.620268
0.434277	1.617949
0.434375	1.619765
0.434473	1.618990
0.434570	1.621780
0.434668	1.625518
0.434766	1.631204
0.434863	1.636775
0.434961	1.640625
0.435059	1.640429
0.435156	1.637595
0.435254	1.634886
0.435352	1.633233
0.435449	1.631538
0.435547	1.630683
0.435645	1.634689
0.435742	1.636595
0.435840	1.627459
0.435937	1.623588
0.436035	1.624097
0.436133	1.625900
0.436230	1.628156
0.436328	1.630449
0.436426	1.631616
0.436523	1.632309
0.436621	1.631561
0.436719	1.630208
0.436816	1.629133
0.436914	1.629831
0.437012	1.630563
0.437109	1.632936
0.437207	1.635590
0.437305	1.645270
0.437402	1.650916
0.437500	1.625138
0.437598	1.615117
0.437695	1.617009
0.437793	1.607575
0.437891	1.607334
0.437988	1.614026
0.438086	1.615029
0.438184	1.619565
0.438281	1.623502
0.438379	1.628657
0.438477	1.631694
0.438574	1.632730
0.438672	1.631982
0.438770	1.632842
0.438867	1.635470
0.438965	1.636033
0.439062	1.633180
0.439160	1.629122
0.439258	1.624890
0.439355	1.623253
0.439453	1.623693
0.439551	1.626809
0.439648	1.631303
0.439746	1.633704
0.439844	1.634144
0.439941	1.634188
0.440039	1.633407
0.440137	1.632559
0.440234	1.632762
0.440332	1.633598
0.440430	1.635982
0.440527	1.640313
0.440625	1.642540
0.440723	1.629052
0.440820	1.609782
0.440918	1.598769
0.441016	1.595090
0.441113	1.593303
0.441211	1.587477
0.441309	1.583282
0.441406	1.600112
0.441504	1.603498
0.441602	1.605810
0.441699	1.611839
0.441797	1.618605
0.441895	1.624097
0.441992	1.636940
0.442090	1.635530
0.442187	1.618174
0.442285	1.609603
0.442383	1.614124
0.442480	1.622197
0.442578	1.621647
0.442676	1.623458
0.442773	1.624617
0.442871	1.626958
0.442969	1.634911
0.443066	1.639650
0.443164	1.626108
0.443262	1.617464
0.443359	1.616759
0.443457	1.626054
0.443555	1.624040
0.443652	1.621622
0.443750	1.620598
0.443848	1.622347
0.443945	1.625230
0.444043	1.630084
0.444141	1.632463
0.444238	1.632621
0.444336	1.632673
0.444434	1.635207
0.444531	1.635851
0.444629	1.633412
0.444727	1.632034
0.444824	1.631416
0.444922	1.630796
0.445020	1.631745
0.445117	1.632624
0.445215	1.637090
0.445312	1.637204
0.445410	1.629972
0.445508	1.627938
0.445605	1.632204
0.445703	1.633833
0.445801	1.631345
0.445898	1.630428
0.445996	1.629504
0.446094	1.630479
0.446191	1.632115
0.446289	1.634689
0.446387	1.637987
0.446484	1.642649
0.446582	1.646190
0.446680	1.645926
0.446777	1.641738
0.446875	1.634357
0.446973	1.620012
0.447070	1.609375
0.447168	1.617772
0.447266	1.620009
0.447363	1.618887
0.447461	1.621175
0.447559	1.624519
0.447656	1.628828
0.447754	1.632229
0.447852	1.635008
0.447949	1.639095
0.448047	1.643637
0.448145	1.645432
0.448242	1.640834
0.448340	1.630540
0.448437	1.625288
0.448535	1.624778
0.448633	1.629549
0.448730	1.639325
0.448828	1.652435
0.448926	1.646731
0.449023	1.634131
0.449121	1.628061
0.449219	1.621514
0.449316	1.620108
0.449414	1.620576
0.449512	1.621972
0.449609	1.623569
0.449707	1.626639
0.449805	1.631027
0.449902	1.635990
0.450000	1.638858
0.450098	1.639853
0.450195	1.640597
0.450293	1.642604
0.450391	1.644237
0.450488	1.640821
0.450586	1.633544
0.450684	1.628022
0.450781	1.626587
0.450879	1.633519
0.450977	1.637530
0.451074	1.626702
0.451172	1.620318
0.451270	1.619300
0.451367	1.620721
0.451465	1.625369
0.451562	1.633564
0.451660	1.635259
0.451758	1.630683
0.451855	1.627579
0.451953	1.625694
0.452051	1.625668
0.452148	1.626825
0.452246	1.628655
0.452344	1.630062
0.452441	1.630763
0.452539	1.631099
0.452637	1.632361
0.452734	1.634123
0.452832	1.635836
0.452930	1.637446
0.453027	1.638827
0.453125	1.641144
0.453223	1.642894
0.453320	1.641665
0.453418	1.638005
0.453516	1.632777
0.453613	1.622165
0.453711	1.616900
0.453809	1.625996
0.453906	1.627478
0.454004	1.623474
0.454102	1.623126
0.454199	1.625228
0.454297	1.626821
0.454395	1.628796
0.454492	1.630557
0.454590	1.633910
0.454687	1.632633
0.454785	1.626697
0.454883	1.600642
0.454980	1.583465
0.455078	1.590399
0.455176	1.592464
0.455273	1.613791
0.455371	1.618190
0.455469	1.622079
0.455566	1.626570
0.455664	1.629167
0.455762	1.628493
0.455859	1.629462
0.455957	1.630919
0.456055	1.633335
0.456152	1.635145
0.456250	1.635210
0.456348	1.632258
0.456445	1.631421
0.456543	1.631289
0.456641	1.630885
0.456738	1.627262
0.456836	1.626443
0.456934	1.626910
0.457031	1.638186
0.457129	1.643886
0.457227	1.641842
0.457324	1.648257
0.457422	1.647771
0.457520	1.635833
0.457617	1.633520
0.457715	1.627032
0.457812	1.600967
0.457910	1.582903
0.458008	1.582758
0.458105	1.579417
0.458203	1.588095
0.458301	1.603858
0.458398	1.609630
0.458496	1.616976
0.458594	1.623369
0.458691	1.630499
0.458789	1.635763
0.458887	1.639301
0.458984	1.638864
0.459082	1.636698
0.459180	1.632964
0.459277	1.629131
0.459375	1.626609
0.459473	1.625969
0.459570	1.627205
0.459668	1.631129
0.459766	1.638845
0.459863	1.650239
0.459961	1.653946
0.460059	1.646447
0.460156	1.634421
0.460254	1.630858
0.460352	1.625823
0.460449	1.621289
0.460547	1.620105
0.460645	1.622857
0.460742	1.627747
0.460840	1.632820
0.460937	1.634737
0.461035	1.633525
0.461133	1.629862
0.461230	1.627519
0.461328	1.628960
0.461426	1.642638
0.461523	1.648268
0.461621	1.635962
0.461719	1.623535
0.461816	1.620982
0.461914	1.616739
0.462012	1.620597
0.462109	1.623616
0.462207	1.633899
0.462305	1.631559
0.462402	1.615963
0.462500	1.614996
0.462598	1.615430
0.462695	1.616175
0.462793	1.617540
0.462891	1.619344
0.462988	1.619860
0.463086	1.627903
0.463184	1.639019
0.463281	1.643276
0.463379	1.638266
0.463477	1.633148
0.463574	1.625061
0.463672	1.622179
0.463770	1.621996
0.463867	1.624433
0.463965	1.631245
0.464062	1.642530
0.464160	1.640971
0.464258	1.635598
0.464355	1.630512
0.464453	1.630232
0.464551	1.628732
0.464648	1.629209
0.464746	1.631076
0.464844	1.633566
0.464941	1.633840
0.465039	1.631323
0.465137	1.628486
0.465234	1.626497
0.465332	1.625772
0.465430	1.625050
0.465527	1.623705
0.465625	1.625913
0.465723	1.631980
0.465820	1.640979
0.465918	1.642993
0.466016	1.638186
0.466113	1.632317
0.466211	1.626425
0.466309	1.623962
0.466406	1.624771
0.466504	1.630921
0.466602	1.639340
0.466699	1.637510
0.466797	1.640281
0.466895	1.626591
0.466992	1.618376
0.467090	1.621751
0.467187	1.622609
0.467285	1.626717
0.467383	1.633589
0.467480	1.641679
0.467578	1.642639
0.467676	1.638696
0.467773	1.632934
0.467871	1.628463
0.467969	1.625742
0.468066	1.623846
0.468164	1.623797
0.468262	1.622325
0.468359	1.615330
0.468457	1.605513
0.468555	1.587946
0.468652	1.597503
0.468750	1.612019
0.468848	1.615599
0.468945	1.618422
0.469043	1.621353
0.469141	1.632347
0.469238	1.641448
0.469336	1.633061
0.469434	1.632408
0.469531	1.632491
0.469629	1.632353
0.469727	1.630713
0.469824	1.629059
0.469922	1.628486
0.470020	1.629584
0.470117	1.632606
0.470215	1.635741
0.470312	1.637244
0.470410	1.638177
0.470508	1.637166
0.470605	1.633202
0.470703	1.627745
0.470801	1.624800
0.470898	1.625955
0.470996	1.633297
0.471094	1.639925
0.471191	1.635788
0.471289	1.630637
0.471387	1.629509
0.471484	1.631476
0.471582	1.635814
0.471680	1.639821
0.471777	1.639152
0.471875	1.634770
0.471973	1.630922
0.472070	1.629322
0.472168	1.629997
0.472266	1.633577
0.472363	1.638108
0.472461	1.632956
0.472559	1.626593
0.472656	1.628018
0.472754	1.629918
0.472852	1.633478
0.472949	1.635711
0.473047	1.634988
0.473145	1.632101
0.473242	1.630244
0.473340	1.627801
0.473437	1.628175
0.473535	1.630846
0.473633	1.641686
0.473730	1.647992
0.473828	1.632023
0.473926	1.630035
0.474023	1.632095
0.474121	1.627770
0.474219	1.625362
0.474316	1.626456
0.474414	1.629651
0.474512	1.634793
0.474609	1.637317
0.474707	1.634478
0.474805	1.630176
0.474902	1.626668
0.475000	1.625729
0.475098	1.627910
0.475195	1.634085
0.475293	1.641518
0.475391	1.642418
0.475488	1.635857
0.475586	1.629356
0.475684	1.624650
0.475781	1.624761
0.475879	1.629224
0.475977	1.642369
0.476074	1.645312
0.476172	1.628025
0.476270	1.613861
0.476367	1.617282
0.476465	1.618537
0.476562	1.619457
0.476660	1.624736
0.476758	1.629946
0.476855	1.635135
0.476953	1.639583
0.477051	1.641715
0.477148	1.640357
0.477246	1.635172
0.477344	1.631646
0.477441	1.629569
0.477539	1.624925
0.477637	1.621598
0.477734	1.619859
0.477832	1.619795
0.477930	1.620674
0.478027	1.622132
0.478125	1.623874
0.478223	1.625127
0.478320	1.625072
0.478418	1.624969
0.478516	1.625773
0.478613	1.627983
0.478711	1.631066
0.478809	1.634910
0.478906	1.637940
0.479004	1.638972
0.479102	1.637155
0.479199	1.636453
0.479297	1.636882
0.479395	1.641066
0.479492	1.646267
0.479590	1.636488
0.479687	1.628486
0.479785	1.629004
0.479883	1.628508
0.479980	1.631394
0.480078	1.627861
0.480176	1.622878
0.480273	1.606871
0.480371	1.617921
0.480469	1.592058
0.480566	1.593170
0.480664	1.611206
0.480762	1.607611
0.480859	1.612709
0.480957	1.613810
0.481055	1.619682
0.481152	1.622575
0.481250	1.626972
0.481348	1.628210
0.481445	1.631089
0.481543	1.633787
0.481641	1.638559
0.481738	1.641536
0.481836	1.639894
0.481934	1.634520
0.482031	1.630913
0.482129	1.629918
0.482227	1.630370
0.482324	1.640647
0.482422	1.652695
0.482520	1.629804
0.482617	1.619937
0.482715	1.622786
0.482812	1.625789
0.482910	1.628613
0.483008	1.630509
0.483105	1.633219
0.483203	1.636909
0.483301	1.638918
0.483398	1.635321
0.483496	1.631582
0.483594	1.631832
0.483691	1.633599
0.483789	1.636369
0.483887	1.639123
0.483984	1.640376
0.484082	1.636420
0.484180	1.634323
0.484277	1.631495
0.484375	1.635160
0.484473	1.628173
0.484570	1.619508
0.484668	1.625067
0.484766	1.624397
0.484863	1.625990
0.484961	1.627677
0.485059	1.630030
0.485156	1.629631
0.485254	1.628564
0.485352	1.626466
0.485449	1.625103
0.485547	1.625101
0.485645	1.628153
0.485742	1.632424
0.485840	1.632015
0.485937	1.626657
0.486035	1.623895
0.486133	1.624643
0.486230	1.626463
0.486328	1.627890
0.486426	1.629238
0.486523	1.631157
0.486621	1.632639
0.486719	1.633745
0.486816	1.634707
0.486914	1.636912
0.487012	1.638805
0.487109	1.638797
0.487207	1.636174
0.487305	1.633089
0.487402	1.629931
0.487500	1.629515
0.487598	1.630636
0.487695	1.634688
0.487793	1.638359
0.487891	1.643456
0.487988	1.640176
0.488086	1.636272
0.488184	1.628482
0.488281	1.612610
0.488379	1.598234
0.488477	1.591528
0.488574	1.594247
0.488672	1.588424
0.488770	1.593389
0.488867	1.596850
0.488965	1.606108
0.489062	1.609779
0.489160	1.617334
0.489258	1.623987
0.489355	1.636359
0.489453	1.640294
0.489551	1.635551
0.489648	1.623920
0.489746	1.616543
0.489844	1.617904
0.489941	1.618844
0.490039	1.619798
0.490137	1.620340
0.490234	1.621839
0.490332	1.624933
0.490430	1.630749
0.490527	1.639307
0.490625	1.648080
0.490723	1.647050
0.490820	1.639052
0.490918	1.630479
0.491016	1.626060
0.491113	1.621406
0.491211	1.620149
0.491309	1.617987
0.491406	1.620828
0.491504	1.624510
0.491602	1.650042
0.491699	1.655067
0.491797	1.640066
0.491895	1.637842
0.491992	1.627524
0.492090	1.621380
0.492187	1.618560
0.492285	1.619294
0.492383	1.620070
0.492480	1.621467
0.492578	1.625232
0.492676	1.629141
0.492773	1.632699
0.492871	1.618736
0.492969	1.609408
0.493066	1.614718
0.493164	1.625582
0.493262	1.632034
0.493359	1.629128
0.493457	1.632925
0.493555	1.638134
0.493652	1.644411
0.493750	1.643619
0.493848	1.635805
0.493945	1.626221
0.494043	1.622919
0.494141	1.621329
0.494238	1.621788
0.494336	1.623774
0.494434	1.630200
0.494531	1.642551
0.494629	1.646728
0.494727	1.639570
0.494824	1.628566
0.494922	1.630257
0.495020	1.630183
0.495117	1.623934
0.495215	1.620373
0.495312	1.621334
0.495410	1.621918
0.495508	1.621357
0.495605	1.621994
0.495703	1.633779
0.495801	1.644179
0.495898	1.642036
0.495996	1.634431
0.496094	1.622768
0.496191	1.623134
0.496289	1.623500
0.496387	1.622999
0.496484	1.623447
0.496582	1.626586
0.496680	1.630648
0.496777	1.634467
0.496875	1.637795
0.496973	1.640893
0.497070	1.639725
0.497168	1.633579
0.497266	1.627874
0.497363	1.627129
0.497461	1.630632
0.497559	1.635509
0.497656	1.637297
0.497754	1.637662
0.497852	1.638972
0.497949	1.643838
0.498047	1.646072
0.498145	1.635851
0.498242	1.627867
0.498340	1.622109
0.498437	1.616741
0.498535	1.616803
0.498633	1.619456
0.498730	1.623330
0.498828	1.627131
0.498926	1.631489
0.499023	1.634900
0.499121	1.637223
0.499219	1.638881
0.499316	1.640564
0.499414	1.641930
0.499512	1.638625
0.499609	1.633483
0.499707	1.630304
0.499805	1.627088
0.499902	1.626232
0.500000	1.628177
0.500098	1.633270
0.500195	1.637836
0.500293	1.638570
0.500391	1.636811
0.500488	1.635581
0.500586	1.634491
0.500684	1.634230
0.500781	1.630534
0.500879	1.626126
0.500977	1.624280
0.501074	1.624055
0.501172	1.624679
0.501270	1.626324
0.501367	1.628648
0.501465	1.632270
0.501562	1.635332
0.501660	1.638058
0.501758	1.638083
0.501855	1.637416
0.501953	1.634150
0.502051	1.632660
0.502148	1.628722
0.502246	1.628605
0.502344	1.604310
0.502441	1.603121
0.502539	1.625772
0.502637	1.632291
0.502734	1.628603
0.502832	1.623154
0.502930	1.622877
0.503027	1.625395
0.503125	1.629900
0.503223	1.633565
0.503320	1.636927
0.503418	1.638429
0.503516	1.638146
0.503613	1.635469
0.503711	1.633545
0.503809	1.634318
0.503906	1.636328
0.504004	1.635243
0.504102	1.630500
0.504199	1.625381
0.504297	1.633327
0.504395	1.644012
0.504492	1.635594
0.504590	1.637263
0.504687	1.636785
0.504785	1.625203
0.504883	1.620978
0.504980	1.621058
0.505078	1.625028
0.505176	1.629336
0.505273	1.631154
0.505371	1.634623
0.505469	1.646156
0.505566	1.644594
0.505664	1.639330
0.505762	1.636234
0.505859	1.625907
0.505957	1.622331
0.506055	1.621140
0.506152	1.622189
0.506250	1.626439
0.506348	1.635705
0.506445	1.637753
0.506543	1.633117
0.506641	1.626682
0.506738	1.623908
0.506836	1.624547
0.506934	1.628344
0.507031	1.636371
0.507129	1.646313
0.507227	1.649525
0.507324	1.639825
0.507422	1.626912
0.507520	1.622619
0.507617	1.625842
0.507715	1.628947
0.507812	1.630805
0.507910	1.634513
0.508008	1.638380
0.508105	1.639681
0.508203	1.636613
0.508301	1.632538
0.508398	1.631043
0.508496	1.630898
0.508594	1.630511
0.508691	1.629454
0.508789	1.627657
0.508887	1.629208
0.508984	1.633586
0.509082	1.638779
0.509180	1.638546
0.509277	1.635148
0.509375	1.630794
0.509473	1.630191
0.509570	1.630387
0.509668	1.632436
0.509766	1.630528
0.509863	1.631113
0.509961	1.628564
0.510059	1.642808
0.510156	1.627825
0.510254	1.617075
0.510352	1.626794
0.510449	1.623261
0.510547	1.624629
0.510645	1.623895
0.510742	1.626331
0.510840	1.625460
0.510937	1.625623
0.511035	1.623759
0.511133	1.623730
0.511230	1.623525
0.511328	1.626285
0.511426	1.631630
0.511523	1.644013
0.511621	1.654798
0.511719	1.652504
0.511816	1.645940
0.511914	1.643359
0.512012	1.641657
0.512109	1.636452
0.512207	1.629502
0.512305	1.623056
0.512402	1.618768
0.512500	1.619508
0.512598	1.625369
0.512695	1.638257
0.512793	1.650346
0.512891	1.642013
0.512988	1.633685
0.513086	1.630381
0.513184	1.628371
0.513281	1.627225
0.513379	1.626810
0.513477	1.627881
0.513574	1.628829
0.513672	1.630312
0.513770	1.631207
0.513867	1.633420
0.513965	1.634631
0.514062	1.637369
0.514160	1.639168
0.514258	1.648079
0.514355	1.644127
0.514453	1.605029
0.514551	1.592619
0.514648	1.606818
0.514746	1.614548
0.514844	1.621547
0.514941	1.639176
0.515039	1.637150
0.515137	1.632259
0.515234	1.624966
0.515332	1.621136
0.515430	1.622503
0.515527	1.629158
0.515625	1.639027
0.515723	1.643022
0.515820	1.639154
0.515918	1.632943
0.516016	1.626526
0.516113	1.624712
0.516211	1.621257
0.516309	1.620235
0.516406	1.623430
0.516504	1.629193
0.516602	1.633269
0.516699	1.631912
0.516797	1.629249
0.516895	1.629206
0.516992	1.634524
0.517090	1.643899
0.517187	1.652792
0.517285	1.651937
0.517383	1.633123
0.517480	1.625060
0.517578	1.625010
0.517676	1.626854
0.517773	1.633081
0.517871	1.634161
0.517969	1.632271
0.518066	1.630033
0.518164	1.626800
0.518262	1.624125
0.518359	1.623196
0.518457	1.622899
0.518555	1.626860
0.518652	1.637512
0.518750	1.629113
0.518848	1.598401
0.518945	1.566590
0.519043	1.581420
0.519141	1.602643
0.519238	1.609928
0.519336	1.612181
0.519434	1.618720
0.519531	1.627969
0.519629	1.632409
0.519727	1.624239
0.519824	1.616577
0.519922	1.623317
0.520020	1.626851
0.520117	1.624958
0.520215	1.624522
0.520312	1.626346
0.520410	1.627964
0.520508	1.629452
0.520605	1.629671
0.520703	1.628594
0.520801	1.627342
0.520898	1.628980
0.520996	1.633578
0.521094	1.640023
0.521191	1.631483
0.521289	1.627938
0.521387	1.628206
0.521484	1.626959
0.521582	1.629688
0.521680	1.635897
0.521777	1.642851
0.521875	1.641302
0.521973	1.635720
0.522070	1.632289
0.522168	1.632646
0.522266	1.634809
0.522363	1.635091
0.522461	1.628571
0.522559	1.622983
0.522656	1.623690
0.522754	1.626466
0.522852	1.630876
0.522949	1.632725
0.523047	1.633516
0.523145	1.634127
0.523242	1.639010
0.523340	1.641684
0.523437	1.643558
0.523535	1.629931
0.523633	1.597580
0.523730	1.596973
0.523828	1.610171
0.523926	1.597702
0.524023	1.574459
0.524121	1.575114
0.524219	1.591552
0.524316	1.607465
0.524414	1.611057
0.524512	1.617262
0.524609	1.620315
0.524707	1.623808
0.524805	1.625811
0.524902	1.628286
0.525000	1.630594
0.525098	1.633845
0.525195	1.637855
0.525293	1.640965
0.525391	1.639356
0.525488	1.633593
0.525586	1.625739
0.525684	1.624352
0.525781	1.623908
0.525879	1.625306
0.525977	1.629067
0.526074	1.638139
0.526172	1.648813
0.526270	1.646488
0.526367	1.634949
0.526465	1.633322
0.526562	1.632396
0.526660	1.630375
0.526758	1.631291
0.526855	1.637900
0.526953	1.643791
0.527051	1.636394
0.527148	1.635270
0.527246	1.644828
0.527344	1.635265
0.527441	1.615356
0.527539	1.615142
0.527637	1.615900
0.527734	1.619998
0.527832	1.624797
0.527930	1.631553
0.528027	1.636083
0.528125	1.638969
0.528223	1.637851
0.528320	1.633720
0.528418	1.628581
0.528516	1.626822
0.528613	1.626237
0.528711	1.628259
0.528809	1.630875
0.528906	1.636676
0.529004	1.642177
0.529102	1.642782
0.529199	1.610857
0.529297	1.588363
0.529395	1.600832
0.529492	1.614373
0.529590	1.617924
0.529687	1.632276
0.529785	1.641078
0.529883	1.631639
0.529980	1.626326
0.530078	1.621833
0.530176	1.622069
0.530273	1.626760
0.530371	1.632819
0.530469	1.635655
0.530566	1.624877
0.530664	1.630047
0.530762	1.635221
0.530859	1.624236
0.530957	1.627470
0.531055	1.626904
0.531152	1.627776
0.531250	1.626448
0.531348	1.626686
0.531445	1.627197
0.531543	1.628458
0.531641	1.630995
0.531738	1.635332
0.531836	1.638086
0.531934	1.637384
0.532031	1.634604
0.532129	1.631423
0.532227	1.628290
0.532324	1.628448
0.532422	1.633108
0.532520	1.641429
0.532617	1.645109
0.532715	1.639154
0.532812	1.631035
0.532910	1.626924
0.533008	1.624289
0.533105	1.624158
0.533203	1.624300
0.533301	1.626584
0.533398	1.630542
0.533496	1.648647
0.533594	1.644267
0.533691	1.636359
0.533789	1.642729
0.533887	1.633160
0.533984	1.623751
0.534082	1.618851
0.534180	1.619632
0.534277	1.623064
0.534375	1.629307
0.534473	1.635024
0.534570	1.638510
0.534668	1.638193
0.534766	1.636621
0.534863	1.632945
0.534961	1.628547
0.535059	1.623600
0.535156	1.621313
0.535254	1.621186
0.535352	1.633581
0.535449	1.651426
0.535547	1.630542
0.535645	1.622514
0.535742	1.621163
0.535840	1.622470
0.535937	1.624851
0.536035	1.638596
0.536133	1.654403
0.536230	1.644594
0.536328	1.626607
0.536426	1.622090
0.536523	1.623242
0.536621	1.625648
0.536719	1.630184
0.536816	1.629682
0.536914	1.627472
0.537012	1.624305
0.537109	1.621074
0.537207	1.621071
0.537305	1.622004
0.537402	1.626154
0.537500	1.637371
0.537598	1.637863
0.537695	1.626220
0.537793	1.623463
0.537891	1.625224
0.537988	1.627083
0.538086	1.633944
0.538184	1.639709
0.538281	1.640246
0.538379	1.633784
0.538477	1.633826
0.538574	1.626544
0.538672	1.625323
0.538770	1.634938
0.538867	1.627783
0.538965	1.627500
0.539062	1.622727
0.539160	1.620249
0.539258	1.621091
0.539355	1.626938
0.539453	1.635675
0.539551	1.644671
0.539648	1.636486
0.539746	1.629031
0.539844	1.626852
0.539941	1.620543
0.540039	1.617678
0.540137	1.619554
0.540234	1.622795
0.540332	1.626309
0.540430	1.628300
0.540527	1.629972
0.540625	1.631260
0.540723	1.633914
0.540820	1.638260
0.540918	1.645990
0.541016	1.644953
0.541113	1.635514
0.541211	1.629979
0.541309	1.627056
0.541406	1.627542
0.541504	1.630708
0.541602	1.637771
0.541699	1.641198
0.541797	1.636334
0.541895	1.630548
0.541992	1.629700
0.542090	1.632521
0.542187	1.637401
0.542285	1.637534
0.542383	1.635490
0.542480	1.633067
0.542578	1.627535
0.542676	1.621337
0.542773	1.620675
0.542871	1.610236
0.542969	1.607978
0.543066	1.618143
0.543164	1.621890
0.543262	1.622152
0.543359	1.621369
0.543457	1.624723
0.543555	1.626572
0.543652	1.630126
0.543750	1.637306
0.543848	1.647268
0.543945	1.634078
0.544043	1.631408
0.544141	1.638955
0.544238	1.634508
0.544336	1.631419
0.544434	1.627760
0.544531	1.628317
0.544629	1.629496
0.544727	1.633523
0.544824	1.634373
0.544922	1.634787
0.545020	1.630920
0.545117	1.634756
0.545215	1.631807
0.545312	1.611619
0.545410	1.607758
0.545508	1.617581
0.545605	1.624357
0.545703	1.623059
0.545801	1.621966
0.545898	1.620715
0.545996	1.622138
0.546094	1.625092
0.546191	1.630612
0.546289	1.640370
0.546387	1.632129
0.546484	1.607950
0.546582	1.620284
0.546680	1.622178
0.546777	1.622372
0.546875	1.624537
0.546973	1.630948
0.547070	1.645666
0.547168	1.628270
0.547266	1.620322
0.547363	1.620692
0.547461	1.625251
0.547559	1.635875
0.547656	1.643579
0.547754	1.644094
0.547852	1.638512
0.547949	1.630150
0.548047	1.624792
0.548145	1.621395
0.548242	1.620908
0.548340	1.621558
0.548437	1.624753
0.548535	1.631054
0.548633	1.646253
0.548730	1.635770
0.548828	1.627715
0.548926	1.632392
0.549023	1.632995
0.549121	1.636879
0.549219	1.637817
0.549316	1.637678
0.549414	1.635562
0.549512	1.634982
0.549609	1.634766
0.549707	1.635708
0.549805	1.635149
0.549902	1.631116
0.550000	1.628195
0.550098	1.632488
0.550195	1.639143
0.550293	1.642765
0.550391	1.639227
0.550488	1.628839
0.550586	1.621857
0.550684	1.620236
0.550781	1.621636
0.550879	1.625844
0.550977	1.629315
0.551074	1.632679
0.551172	1.634402
0.551270	1.644011
0.551367	1.645699
0.551465	1.639528
0.551562	1.630218
0.551660	1.622905
0.551758	1.623078
0.551855	1.620870
0.551953	1.622995
0.552051	1.627187
0.552148	1.627635
0.552246	1.634017
0.552344	1.637785
0.552441	1.624159
0.552539	1.619524
0.552637	1.617920
0.552734	1.620956
0.552832	1.629351
0.552930	1.642885
0.553027	1.629247
0.553125	1.630341
0.553223	1.632893
0.553320	1.630312
0.553418	1.631745
0.553516	1.631161
0.553613	1.629482
0.553711	1.627539
0.553809	1.627664
0.553906	1.630785
0.554004	1.636390
0.554102	1.635813
0.554199	1.630150
0.554297	1.625678
0.554395	1.624056
0.554492	1.624664
0.554590	1.627664
0.554687	1.631246
0.554785	1.635172
0.554883	1.637091
0.554980	1.635250
0.555078	1.629535
0.555176	1.626167
0.555273	1.624777
0.555371	1.631960
0.555469	1.642164
0.555566	1.643881
0.555664	1.631625
0.555762	1.619928
0.555859	1.619304
0.555957	1.618021
0.556055	1.620811
0.556152	1.622956
0.556250	1.630958
0.556348	1.640580
0.556445	1.645736
0.556543	1.654641
0.556641	1.639241
0.556738	1.618637
0.556836	1.619665
0.556934	1.619007
0.557031	1.616632
0.557129	1.617416
0.557227	1.619320
0.557324	1.622415
0.557422	1.626281
0.557520	1.631443
0.557617	1.637061
0.557715	1.641456
0.557812	1.641245
0.557910	1.635952
0.558008	1.631973
0.558105	1.631540
0.558203	1.631368
0.558301	1.631229
0.558398	1.631996
0.558496	1.634026
0.558594	1.636982
0.558691	1.639359
0.558789	1.638751
0.558887	1.635265
0.558984	1.632593
0.559082	1.632893
0.559180	1.635251
0.559277	1.637817
0.559375	1.632694
0.559473	1.625948
0.559570	1.623017
0.559668	1.624842
0.559766	1.629414
0.559863	1.634133
0.559961	1.635597
0.560059	1.634592
0.560156	1.632111
0.560254	1.634006
0.560352	1.628732
0.560449	1.621882
0.560547	1.621641
0.560645	1.623918
0.560742	1.631100
0.560840	1.640232
0.560937	1.640600
0.561035	1.635544
0.561133	1.634257
0.561230	1.638410
0.561328	1.645042
0.561426	1.639396
0.561523	1.628485
0.561621	1.623765
0.561719	1.623970
0.561816	1.622855
0.561914	1.628232
0.562012	1.636373
0.562109	1.626702
0.562207	1.619750
0.562305	1.617706
0.562402	1.622775
0.562500	1.629192
0.562598	1.638052
0.562695	1.648769
0.562793	1.645406
0.562891	1.637601
0.562988	1.626882
0.563086	1.620149
0.563184	1.620473
0.563281	1.621651
0.563379	1.623771
0.563477	1.624850
0.563574	1.626454
0.563672	1.627546
0.563770	1.629722
0.563867	1.633504
0.563965	1.642728
0.564062	1.650967
0.564160	1.647972
0.564258	1.637851
0.564355	1.634185
0.564453	1.632929
0.564551	1.624613
0.564648	1.619848
0.564746	1.623152
0.564844	1.631770
0.564941	1.641490
0.565039	1.640633
0.565137	1.632006
0.565234	1.608771
0.565332	1.603193
0.565430	1.622666
0.565527	1.626060
0.565625	1.632156
0.565723	1.635652
0.565820	1.632185
0.565918	1.619582
0.566016	1.621464
0.566113	1.623513
0.566211	1.627336
0.566309	1.629922
0.566406	1.630368
0.566504	1.630295
0.566602	1.631998
0.566699	1.635138
0.566797	1.635683
0.566895	1.631705
0.566992	1.626356
0.567090	1.622930
0.567187	1.624203
0.567285	1.627486
0.567383	1.633072
0.567480	1.639761
0.567578	1.647637
0.567676	1.644342
0.567773	1.634764
0.567871	1.629675
0.567969	1.619945
0.568066	1.607529
0.568164	1.610932
0.568262	1.610577
0.568359	1.605982
0.568457	1.613292
0.568555	1.613480
0.568652	1.614999
0.568750	1.615731
0.568848	1.618177
0.568945	1.621577
0.569043	1.628629
0.569141	1.631151
0.569238	1.628344
0.569336	1.626223
0.569434	1.625554
0.569531	1.625970
0.569629	1.627546
0.569727	1.629177
0.569824	1.631000
0.569922	1.632851
0.570020	1.639568
0.570117	1.651237
0.570215	1.646459
0.570312	1.633507
0.570410	1.629874
0.570508	1.626401
0.570605	1.625272
0.570703	1.624862
0.570801	1.637190
0.570898	1.631159
0.570996	1.622369
0.571094	1.617379
0.571191	1.613764
0.571289	1.618215
0.571387	1.615667
0.571484	1.616412
0.571582	1.617301
0.571680	1.620161
0.571777	1.623953
0.571875	1.629892
0.571973	1.639702
0.572070	1.646714
0.572168	1.647133
0.572266	1.645114
0.572363	1.637214
0.572461	1.629712
0.572559	1.624723
0.572656	1.623355
0.572754	1.624004
0.572852	1.625556
0.572949	1.626214
0.573047	1.626964
0.573145	1.628026
0.573242	1.630067
0.573340	1.634640
0.573437	1.641751
0.573535	1.646962
0.573633	1.645155
0.573730	1.626331
0.573828	1.623949
0.573926	1.625983
0.574023	1.624685
0.574121	1.624737
0.574219	1.623300
0.574316	1.624643
0.574414	1.625878
0.574512	1.629219
0.574609	1.635847
0.574707	1.649076
0.574805	1.642959
0.574902	1.626668
0.575000	1.628729
0.575098	1.629862
0.575195	1.634600
0.575293	1.630172
0.575391	1.622637
0.575488	1.618357
0.575586	1.619861
0.575684	1.623030
0.575781	1.628040
0.575879	1.633452
0.575977	1.638192
0.576074	1.640160
0.576172	1.639611
0.576270	1.639246
0.576367	1.638285
0.576465	1.630467
0.576562	1.623856
0.576660	1.623442
0.576758	1.627660
0.576855	1.636757
0.576953	1.640490
0.577051	1.635488
0.577148	1.627344
0.577246	1.622614
0.577344	1.621080
0.577441	1.623270
0.577539	1.613683
0.577637	1.615511
0.577734	1.621962
0.577832	1.624461
0.577930	1.629166
0.578027	1.637023
0.578125	1.638457
0.578223	1.636774
0.578320	1.634086
0.578418	1.632702
0.578516	1.630900
0.578613	1.630788
0.578711	1.631911
0.578809	1.644405
0.578906	1.641096
0.579004	1.633080
0.579102	1.630595
0.579199	1.627803
0.579297	1.628497
0.579395	1.628673
0.579492	1.629997
0.579590	1.630950
0.579687	1.628212
0.579785	1.627770
0.579883	1.628292
0.579980	1.629138
0.580078	1.631309
0.580176	1.633082
0.580273	1.630205
0.580371	1.623986
0.580469	1.624662
0.580566	1.625029
0.580664	1.626630
0.580762	1.630681
0.580859	1.636852
0.580957	1.640023
0.581055	1.639743
0.581152	1.637935
0.581250	1.635914
0.581348	1.632184
0.581445	1.629379
0.581543	1.628001
0.581641	1.627860
0.581738	1.627778
0.581836	1.628326
0.581934	1.629333
0.582031	1.632738
0.582129	1.638624
0.582227	1.645824
0.582324	1.643802
0.582422	1.637956
0.582520	1.634553
0.582617	1.632086
0.582715	1.630692
0.582812	1.627190
0.582910	1.624202
0.583008	1.622569
0.583105	1.621803
0.583203	1.625098
0.583301	1.637580
0.583398	1.643154
0.583496	1.641272
0.583594	1.634199
0.583691	1.617724
0.583789	1.615415
0.583887	1.619141
0.583984	1.618372
0.584082	1.617250
0.584180	1.618233
0.584277	1.622506
0.584375	1.626273
0.584473	1.629319
0.584570	1.628154
0.584668	1.624720
0.584766	1.623687
0.584863	1.625557
0.584961	1.629097
0.585059	1.633978
0.585156	1.640903
0.585254	1.647887
0.585352	1.634142
0.585449	1.621054
0.585547	1.609491
0.585645	1.597737
0.585742	1.600557
0.585840	1.616119
0.585937	1.623740
0.586035	1.628035
0.586133	1.630678
0.586230	1.631838
0.586328	1.633094
0.586426	1.632738
0.586523	1.632375
0.586621	1.630933
0.586719	1.627897
0.586816	1.624740
0.586914	1.622635
0.587012	1.621630
0.587109	1.622039
0.587207	1.623581
0.587305	1.626053
0.587402	1.629112
0.587500	1.632283
0.587598	1.634360
0.587695	1.634946
0.587793	1.633928
0.587891	1.633424
0.587988	1.635968
0.588086	1.641447
0.588184	1.644249
0.588281	1.640090
0.588379	1.632941
0.588477	1.627006
0.588574	1.623205
0.588672	1.622516
0.588770	1.623223
0.588867	1.625742
0.588965	1.628410
0.589062	1.632633
0.589160	1.635696
0.589258	1.640860
0.589355	1.636243
0.589453	1.610167
0.589551	1.613843
0.589648	1.620834
0.589746	1.615306
0.589844	1.620160
0.589941	1.621874
0.590039	1.618076
0.590137	1.618955
0.590234	1.623064
0.590332	1.630805
0.590430	1.634623
0.590527	1.634873
0.590625	1.631783
0.590723	1.628374
0.590820	1.625980
0.590918	1.625404
0.591016	1.626359
0.591113	1.628228
0.591211	1.630340
0.591309	1.632133
0.591406	1.633811
0.591504	1.635625
0.591602	1.639338
0.591699	1.646810
0.591797	1.653316
0.591895	1.650291
0.591992	1.641617
0.592090	1.630955
0.592187	1.622627
0.592285	1.618885
0.592383	1.618916
0.592480	1.626663
0.592578	1.638402
0.592676	1.631713
0.592773	1.627818
0.592871	1.627886
0.592969	1.639016
0.593066	1.649197
0.593164	1.631015
0.593262	1.618647
0.593359	1.621866
0.593457	1.626534
0.593555	1.628920
0.593652	1.627594
0.593750	1.627091
0.593848	1.631456
0.593945	1.639777
0.594043	1.637458
0.594141	1.634348
0.594238	1.633604
0.594336	1.630639
0.594434	1.630005
0.594531	1.631024
0.594629	1.632387
0.594727	1.632505
0.594824	1.631939
0.594922	1.633159
0.595020	1.634647
0.595117	1.632820
0.595215	1.616103
0.595312	1.608442
0.595410	1.608648
0.595508	1.613392
0.595605	1.623451
0.595703	1.626639
0.595801	1.628876
0.595898	1.629750
0.595996	1.630698
0.596094	1.636442
0.596191	1.633150
0.596289	1.621053
0.596387	1.620836
0.596484	1.626365
0.596582	1.632643
0.596680	1.635198
0.596777	1.633427
0.596875	1.630282
0.596973	1.627873
0.597070	1.628165
0.597168	1.630116
0.597266	1.633564
0.597363	1.634321
0.597461	1.634932
0.597559	1.632361
0.597656	1.632372
0.597754	1.632392
0.597852	1.649547
0.597949	1.644893
0.598047	1.626537
0.598145	1.625542
0.598242	1.621102
0.598340	1.625272
0.598437	1.635501
0.598535	1.646436
0.598633	1.645220
0.598730	1.639844
0.598828	1.636118
0.598926	1.631029
0.599023	1.625276
0.599121	1.621568
0.599219	1.619219
0.599316	1.619033
0.599414	1.621467
0.599512	1.625940
0.599609	1.632651
0.599707	1.637892
0.599805	1.647977
0.599902	1.643788
0.600000	1.630661
0.600098	1.628834
0.600195	1.624610
0.600293	1.624983
0.600391	1.626116
0.600488	1.629884
0.600586	1.633588
0.600684	1.644194
0.600781	1.644130
0.600879	1.636608
0.600977	1.632212
0.601074	1.629310
0.601172	1.626306
0.601270	1.625888
0.601367	1.623620
0.601465	1.621964
0.601562	1.623300
0.601660	1.626292
0.601758	1.630019
0.601855	1.633577
0.601953	1.635665
0.602051	1.637208
0.602148	1.642681
0.602246	1.636118
0.602344	1.619678
0.602441	1.625949
0.602539	1.629371
0.602637	1.625357
0.602734	1.623937
0.602832	1.622176
0.602930	1.623935
0.603027	1.626682
0.603125	1.628868
0.603223	1.629655
0.603320	1.630260
0.603418	1.630337
0.603516	1.629845
0.603613	1.628840
0.603711	1.630018
0.603809	1.636384
0.603906	1.646507
0.604004	1.638231
0.604102	1.624573
0.604199	1.625642
0.604297	1.626196
0.604395	1.625622
0.604492	1.625414
0.604590	1.625970
0.604687	1.626898
0.604785	1.627472
0.604883	1.628203
0.604980	1.630764
0.605078	1.639146
0.605176	1.646122
0.605273	1.637191
0.605371	1.632148
0.605469	1.629819
0.605566	1.625291
0.605664	1.624776
0.605762	1.624759
0.605859	1.626933
0.605957	1.628211
0.606055	1.631107
0.606152	1.632431
0.606250	1.637908
0.606348	1.637418
0.606445	1.613885
0.606543	1.620352
0.606641	1.627347
0.606738	1.628837
0.606836	1.626004
0.606934	1.626454
0.607031	1.626750
0.607129	1.628517
0.607227	1.628835
0.607324	1.629185
0.607422	1.628493
0.607520	1.634203
0.607617	1.642654
0.607715	1.633926
0.607812	1.626988
0.607910	1.624241
0.608008	1.626165
0.608105	1.629595
0.608203	1.632106
0.608301	1.632438
0.608398	1.632762
0.608496	1.637692
0.608594	1.644572
0.608691	1.642825
0.608789	1.636740
0.608887	1.633405
0.608984	1.634849
0.609082	1.640902
0.609180	1.639002
0.609277	1.630608
0.609375	1.623150
0.609473	1.622714
0.609570	1.626613
0.609668	1.631623
0.609766	1.628397
0.609863	1.628015
0.609961	1.634077
0.610059	1.637686
0.610156	1.636034
0.610254	1.632858
0.610352	1.628619
0.610449	1.630932
0.610547	1.636654
0.610645	1.632345
0.610742	1.625858
0.610840	1.625688
0.610937	1.623558
0.611035	1.623182
0.611133	1.624405
0.611230	1.624818
0.611328	1.625028
0.611426	1.625515
0.611523	1.627490
0.611621	1.631221
0.611719	1.634246
0.611816	1.634504
0.611914	1.632278
0.612012	1.630301
0.612109	1.628137
0.612207	1.629459
0.612305	1.636018
0.612402	1.653212
0.612500	1.651529
0.612598	1.630532
0.612695	1.613338
0.612793	1.614294
0.612891	1.622971
0.612988	1.626811
0.613086	1.627722
0.613184	1.623688
0.613281	1.622478
0.613379	1.622932
0.613477	1.625311
0.613574	1.626916
0.613672	1.627618
0.613770	1.627129
0.613867	1.628340
0.613965	1.638347
0.614062	1.641536
0.614160	1.637945
0.614258	1.629150
0.614355	1.623473
0.614453	1.620775
0.614551	1.622022
0.614648	1.626503
0.614746	1.634260
0.614844	1.641808
0.614941	1.642920
0.615039	1.639282
0.615137	1.634815
0.615234	1.630900
0.615332	1.636292
0.615430	1.643612
0.615527	1.647920
0.615625	1.640088
0.615723	1.636506
0.615820	1.638243
0.615918	1.626498
0.616016	1.622336
0.616113	1.618633
0.616211	1.619427
0.616309	1.618869
0.616406	1.623494
0.616504	1.627670
0.616602	1.634941
0.616699	1.637020
0.616797	1.634985
0.616895	1.622960
0.616992	1.614712
0.617090	1.622641
0.617187	1.618752
0.617285	1.619950
0.617383	1.623812
0.617480	1.636721
0.617578	1.646015
0.617676	1.644658
0.617773	1.638012
0.617871	1.630684
0.617969	1.627579
0.618066	1.626678
0.618164	1.626872
0.618262	1.627841
0.618359	1.628568
0.618457	1.629191
0.618555	1.628229
0.618652	1.627677
0.618750	1.628848
0.618848	1.639108
0.618945	1.642939
0.619043	1.628286
0.619141	1.624823
0.619238	1.630156
0.619336	1.629504
0.619434	1.629964
0.619531	1.632432
0.619629	1.638158
0.619727	1.643011
0.619824	1.641580
0.619922	1.634396
0.620020	1.627902
0.620117	1.625182
0.620215	1.625122
0.620312	1.627478
0.620410	1.631149
0.620508	1.639529
0.620605	1.649091
0.620703	1.646229
0.620801	1.638171
0.620898	1.631048
0.620996	1.628094
0.621094	1.628104
0.621191	1.630405
0.621289	1.632821
0.621387	1.639370
0.621484	1.639592
0.621582	1.625532
0.621680	1.620485
0.621777	1.622773
0.621875	1.625504
0.621973	1.629100
0.622070	1.632743
0.622168	1.635489
0.622266	1.632827
0.622363	1.629321
0.622461	1.626216
0.622559	1.626641
0.622656	1.630437
0.622754	1.637427
0.622852	1.640862
0.622949	1.645754
0.623047	1.641567
0.623145	1.626750
0.623242	1.622957
0.623340	1.621136
0.623437	1.622999
0.623535	1.629871
0.623633	1.636453
0.623730	1.638971
0.623828	1.633134
0.623926	1.625254
0.624023	1.623778
0.624121	1.622104
0.624219	1.623989
0.624316	1.627890
0.624414	1.635333
0.624512	1.645016
0.624609	1.640390
0.624707	1.634632
0.624805	1.629603
0.624902	1.624353
0.625000	1.625634
0.625098	1.629207
0.625195	1.634071
0.625293	1.638855
0.625391	1.638237
0.625488	1.632713
0.625586	1.627571
0.625684	1.622909
0.625781	1.621232
0.625879	1.622152
0.625977	1.624856
0.626074	1.628749
0.626172	1.632666
0.626270	1.635869
0.626367	1.637316
0.626465	1.637559
0.626562	1.637311
0.626660	1.641501
0.626758	1.635268
0.626855	1.631890
0.626953	1.635272
0.627051	1.634982
0.627148	1.630131
0.627246	1.623258
0.627344	1.621412
0.627441	1.621385
0.627539	1.623131
0.627637	1.625162
0.627734	1.627395
0.627832	1.629589
0.627930	1.633201
0.628027	1.638366
0.628125	1.641310
0.628223	1.638572
0.628320	1.634493
0.628418	1.632308
0.628516	1.632958
0.628613	1.633520
0.628711	1.631005
0.628809	1.629642
0.628906	1.630010
0.629004	1.631941
0.629102	1.639634
0.629199	1.645408
0.629297	1.637246
0.629395	1.629657
0.629492	1.626185
0.629590	1.625319
0.629687	1.624920
0.629785	1.626877
0.629883	1.631647
0.629980	1.643944
0.630078	1.649849
0.630176	1.638881
0.630273	1.628034
0.630371	1.619660
0.630469	1.619209
0.630566	1.620083
0.630664	1.624239
0.630762	1.628551
0.630859	1.641947
0.630957	1.637471
0.631055	1.607610
0.631152	1.596948
0.631250	1.612855
0.631348	1.622423
0.631445	1.620137
0.631543	1.622057
0.631641	1.622154
0.631738	1.624952
0.631836	1.630123
0.631934	1.635702
0.632031	1.638133
0.632129	1.640445
0.632227	1.635572
0.632324	1.627729
0.632422	1.623373
0.632520	1.622955
0.632617	1.624865
0.632715	1.629703
0.632812	1.638824
0.632910	1.649157
0.633008	1.636429
0.633105	1.626605
0.633203	1.624975
0.633301	1.625313
0.633398	1.630984
0.633496	1.639323
0.633594	1.620052
0.633691	1.613071
0.633789	1.600115
0.633887	1.611408
0.633984	1.622990
0.634082	1.623054
0.634180	1.625070
0.634277	1.627719
0.634375	1.633332
0.634473	1.632262
0.634570	1.628821
0.634668	1.627365
0.634766	1.627482
0.634863	1.629568
0.634961	1.632881
0.635059	1.634421
0.635156	1.633483
0.635254	1.632043
0.635352	1.632573
0.635449	1.639074
0.635547	1.644982
0.635645	1.639004
0.635742	1.634818
0.635840	1.631041
0.635937	1.629142
0.636035	1.629819
0.636133	1.632967
0.636230	1.628846
0.636328	1.622057
0.636426	1.620540
0.636523	1.623300
0.636621	1.628737
0.636719	1.635642
0.636816	1.637875
0.636914	1.634360
0.637012	1.629434
0.637109	1.627280
0.637207	1.628505
0.637305	1.638571
0.637402	1.646092
0.637500	1.637252
0.637598	1.629548
0.637695	1.627711
0.637793	1.619444
0.637891	1.618952
0.637988	1.621208
0.638086	1.626861
0.638184	1.630106
0.638281	1.642631
0.638379	1.646627
0.638477	1.631354
0.638574	1.627164
0.638672	1.631517
0.638770	1.624260
0.638867	1.614309
0.638965	1.616814
0.639062	1.617079
0.639160	1.620015
0.639258	1.624126
0.639355	1.628775
0.639453	1.631751
0.639551	1.633044
0.639648	1.634154
0.639746	1.639404
0.639844	1.640264
0.639941	1.630127
0.640039	1.631192
0.640137	1.623626
0.640234	1.616182
0.640332	1.618741
0.640430	1.621800
0.640527	1.629515
0.640625	1.635555
0.640723	1.630945
0.640820	1.627502
0.640918	1.627297
0.641016	1.628059
0.641113	1.628958
0.641211	1.629616
0.641309	1.631490
0.641406	1.635209
0.641504	1.639896
0.641602	1.640169
0.641699	1.635977
0.641797	1.631819
0.641895	1.630095
0.641992	1.629917
0.642090	1.632666
0.642187	1.636832
0.642285	1.637743
0.642383	1.634117
0.642480	1.630678
0.642578	1.629670
0.642676	1.633382
0.642773	1.640002
0.642871	1.638530
0.642969	1.625080
0.643066	1.618293
0.643164	1.610249
0.643262	1.619760
0.643359	1.621622
0.643457	1.590932
0.643555	1.607891
0.643652	1.617068
0.643750	1.614062
0.643848	1.618785
0.643945	1.624280
0.644043	1.631131
0.644141	1.636844
0.644238	1.637011
0.644336	1.634019
0.644434	1.635665
0.644531	1.628045
0.644629	1.625761
0.644727	1.625020
0.644824	1.627021
0.644922	1.631963
0.645020	1.637179
0.645117	1.640589
0.645215	1.639213
0.645312	1.633636
0.645410	1.628369
0.645508	1.625081
0.645605	1.623881
0.645703	1.624050
0.645801	1.624262
0.645898	1.625700
0.645996	1.628638
0.646094	1.634614
0.646191	1.642745
0.646289	1.646902
0.646387	1.642258
0.646484	1.634313
0.646582	1.630827
0.646680	1.628980
0.646777	1.628939
0.646875	1.630395
0.646973	1.635957
0.647070	1.642325
0.647168	1.641387
0.647266	1.637042
0.647363	1.632775
0.647461	1.627996
0.647559	1.624833
0.647656	1.623496
0.647754	1.624916
0.647852	1.626656
0.647949	1.629011
0.648047	1.631359
0.648145	1.636715
0.648242	1.641769
0.648340	1.643938
0.648437	1.638286
0.648535	1.628702
0.648633	1.623159
0.648730	1.623007
0.648828	1.626372
0.648926	1.635664
0.649023	1.638747
0.649121	1.647806
0.649219	1.642328
0.649316	1.626609
0.649414	1.620178
0.649512	1.615710
0.649609	1.616045
0.649707	1.616969
0.649805	1.620413
0.649902	1.623930
0.650000	1.628172
0.650098	1.629599
0.650195	1.627038
0.650293	1.628151
0.650391	1.627826
0.650488	1.598820
0.650586	1.592779
0.650684	1.619099
0.650781	1.627966
0.650879	1.628233
0.650977	1.625995
0.651074	1.627701
0.651172	1.629373
0.651270	1.631512
0.651367	1.632668
0.651465	1.638015
0.651562	1.644288
0.651660	1.641181
0.651758	1.638089
0.651855	1.629897
0.651953	1.625124
0.652051	1.624590
0.652148	1.635121
0.652246	1.633999
0.652344	1.617348
0.652441	1.618002
0.652539	1.621581
0.652637	1.627863
0.652734	1.637922
0.652832	1.641426
0.652930	1.633923
0.653027	1.631975
0.653125	1.630666
0.653223	1.629261
0.653320	1.628810
0.653418	1.628850
0.653516	1.628369
0.653613	1.627383
0.653711	1.628118
0.653809	1.630749
0.653906	1.631788
0.654004	1.631677
0.654102	1.635619
0.654199	1.638545
0.654297	1.644638
0.654395	1.647122
0.654492	1.637633
0.654590	1.625337
0.654687	1.620207
0.654785	1.623397
0.654883	1.618205
0.654980	1.617595
0.655078	1.620480
0.655176	1.625063
0.655273	1.627347
0.655371	1.628674
0.655469	1.630334
0.655566	1.636442
0.655664	1.639838
0.655762	1.625911
0.655859	1.622212
0.655957	1.625463
0.656055	1.623341
0.656152	1.622313
0.656250	1.623217
0.656348	1.629272
0.656445	1.640711
0.656543	1.650949
0.656641	1.651195
0.656738	1.644036
0.656836	1.635196
0.656934	1.628496
0.657031	1.623944
0.657129	1.622509
0.657227	1.622966
0.657324	1.625434
0.657422	1.628072
0.657520	1.630367
0.657617	1.630096
0.657715	1.630164
0.657812	1.632267
0.657910	1.641018
0.658008	1.638345
0.658105	1.633829
0.658203	1.632352
0.658301	1.626210
0.658398	1.622808
0.658496	1.626634
0.658594	1.635821
0.658691	1.648094
0.658789	1.628712
0.658887	1.614168
0.658984	1.614002
0.659082	1.624206
0.659180	1.624576
0.659277	1.616081
0.659375	1.617381
0.659473	1.618897
0.659570	1.624875
0.659668	1.631237
0.659766	1.637248
0.659863	1.638755
0.659961	1.636879
0.660059	1.632511
0.660156	1.622988
0.660254	1.620003
0.660352	1.625845
0.660449	1.631828
0.660547	1.639818
0.660645	1.643666
0.660742	1.642333
0.660840	1.634379
0.660937	1.626977
0.661035	1.623352
0.661133	1.622058
0.661230	1.623070
0.661328	1.626130
0.661426	1.632009
0.661523	1.639520
0.661621	1.646886
0.661719	1.643112
0.661816	1.628569
0.661914	1.606895
0.662012	1.597684
0.662109	1.597781
0.662207	1.602187
0.662305	1.610646
0.662402	1.612469
0.662500	1.616356
0.662598	1.619948
0.662695	1.625418
0.662793	1.631220
0.662891	1.638001
0.662988	1.643636
0.663086	1.647221
0.663184	1.645685
0.663281	1.638799
0.663379	1.631333
0.663477	1.625430
0.663574	1.622635
0.663672	1.623841
0.663770	1.634507
0.663867	1.639515
0.663965	1.632527
0.664062	1.631591
0.664160	1.626918
0.664258	1.623273
0.664355	1.623114
0.664453	1.623873
0.664551	1.625307
0.664648	1.628816
0.664746	1.630886
0.664844	1.630542
0.664941	1.629573
0.665039	1.628583
0.665137	1.627624
0.665234	1.627909
0.665332	1.630163
0.665430	1.634573
0.665527	1.641012
0.665625	1.646531
0.665723	1.630479
0.665820	1.614193
0.665918	1.615792
0.666016	1.623305
0.666113	1.623126
0.666211	1.622511
0.666309	1.632824
0.666406	1.635780
0.666504	1.624037
0.666602	1.622835
0.666699	1.620914
0.666797	1.621194
0.666895	1.621757
0.666992	1.625551
0.667090	1.628389
0.667187	1.630340
0.667285	1.629994
0.667383	1.633059
0.667480	1.612545
0.667578	1.606291
0.667676	1.628302
0.667773	1.624224
0.667871	1.624665
0.667969	1.628736
0.668066	1.639140
0.668164	1.645498
0.668262	1.645415
0.668359	1.642837
0.668457	1.637484
0.668555	1.630600
0.668652	1.626129
0.668750	1.622606
0.668848	1.621778
0.668945	1.623762
0.669043	1.629417
0.669141	1.637311
0.669238	1.643023
0.669336	1.640257
0.669434	1.636389
0.669531	1.634357
0.669629	1.629302
0.669727	1.624790
0.669824	1.622888
0.669922	1.624552
0.670020	1.628926
0.670117	1.635683
0.670215	1.640456
0.670312	1.640830
0.670410	1.638063
0.670508	1.632039
0.670605	1.626707
0.670703	1.624441
0.670801	1.626424
0.670898	1.629725
0.670996	1.634773
0.671094	1.636383
0.671191	1.633762
0.671289	1.629459
0.671387	1.630981
0.671484	1.633463
0.671582	1.639423
0.671680	1.644748
0.671777	1.633373
0.671875	1.630741
0.671973	1.627042
0.672070	1.624455
0.672168	1.626011
0.672266	1.627048
0.672363	1.636827
0.672461	1.632325
0.672559	1.612836
0.672656	1.596578
0.672754	1.589031
0.672852	1.592787
0.672949	1.611262
0.673047	1.616435
0.673145	1.615667
0.673242	1.618047
0.673340	1.622234
0.673437	1.631217
0.673535	1.641381
0.673633	1.648310
0.673730	1.647371
0.673828	1.640542
0.673926	1.633554
0.674023	1.628870
0.674121	1.624184
0.674219	1.620413
0.674316	1.619744
0.674414	1.620978
0.674512	1.625802
0.674609	1.632424
0.674707	1.643535
0.674805	1.641108
0.674902	1.629767
0.675000	1.625112
0.675098	1.624205
0.675195	1.623175
0.675293	1.623854
0.675391	1.610408
0.675488	1.618401
0.675586	1.618516
0.675684	1.619998
0.675781	1.611983
0.675879	1.611280
0.675977	1.617074
0.676074	1.622706
0.676172	1.634406
0.676270	1.641185
0.676367	1.620262
0.676465	1.599581
0.676562	1.619118
0.676660	1.626207
0.676758	1.625794
0.676855	1.625856
0.676953	1.628315
0.677051	1.632004
0.677148	1.635184
0.677246	1.636204
0.677344	1.637006
0.677441	1.636922
0.677539	1.636043
0.677637	1.635274
0.677734	1.635605
0.677832	1.635533
0.677930	1.634467
0.678027	1.633618
0.678125	1.640846
0.678223	1.646465
0.678320	1.635977
0.678418	1.629396
0.678516	1.626811
0.678613	1.626551
0.678711	1.626720
0.678809	1.627866
0.678906	1.628955
0.679004	1.631015
0.679102	1.630410
0.679199	1.617739
0.679297	1.591078
0.679395	1.576936
0.679492	1.586887
0.679590	1.603144
0.679687	1.596456
0.679785	1.601527
0.679883	1.609296
0.679980	1.613304
0.680078	1.619688
0.680176	1.625981
0.680273	1.634651
0.680371	1.640206
0.680469	1.640475
0.680566	1.637301
0.680664	1.633509
0.680762	1.626089
0.680859	1.626578
0.680957	1.631641
0.681055	1.616721
0.681152	1.614328
0.681250	1.617226
0.681348	1.622600
0.681445	1.624836
0.681543	1.632035
0.681641	1.639094
0.681738	1.640146
0.681836	1.633967
0.681934	1.630996
0.682031	1.627531
0.682129	1.624208
0.682227	1.622795
0.682324	1.622888
0.682422	1.624565
0.682520	1.628510
0.682617	1.635479
0.682715	1.645565
0.682812	1.650404
0.682910	1.642886
0.683008	1.634399
0.683105	1.629322
0.683203	1.626667
0.683301	1.626074
0.683398	1.631356
0.683496	1.640085
0.683594	1.644633
0.683691	1.644235
0.683789	1.634539
0.683887	1.625978
0.683984	1.621468
0.684082	1.615070
0.684180	1.615943
0.684277	1.618465
0.684375	1.623973
0.684473	1.629496
0.684570	1.638831
0.684668	1.641134
0.684766	1.644811
0.684863	1.627390
0.684961	1.601156
0.685059	1.615104
0.685156	1.619195
0.685254	1.621353
0.685352	1.623202
0.685449	1.626320
0.685547	1.630214
0.685645	1.631948
0.685742	1.632502
0.685840	1.632699
0.685937	1.631641
0.686035	1.631589
0.686133	1.632709
0.686230	1.632431
0.686328	1.631389
0.686426	1.629266
0.686523	1.629271
0.686621	1.628558
0.686719	1.635328
0.686816	1.629283
0.686914	1.606986
0.687012	1.616200
0.687109	1.619821
0.687207	1.619810
0.687305	1.613554
0.687402	1.626020
0.687500	1.630772
0.687598	1.609373
0.687695	1.579234
0.687793	1.570792
0.687891	1.592779
0.687988	1.607510
0.688086	1.611579
0.688184	1.617129
0.688281	1.622436
0.688379	1.629535
0.688477	1.634168
0.688574	1.636246
0.688672	1.635463
0.688770	1.637704
0.688867	1.641743
0.688965	1.650594
0.689062	1.643793
0.689160	1.628962
0.689258	1.628027
0.689355	1.624917
0.689453	1.623641
0.689551	1.622914
0.689648	1.625704
0.689746	1.630098
0.689844	1.633975
0.689941	1.633310
0.690039	1.632211
0.690137	1.631097
0.690234	1.630447
0.690332	1.629362
0.690430	1.628493
0.690527	1.628497
0.690625	1.631477
0.690723	1.636713
0.690820	1.643174
0.690918	1.646173
0.691016	1.644921
0.691113	1.640934
0.691211	1.636212
0.691309	1.630319
0.691406	1.626163
0.691504	1.623482
0.691602	1.621136
0.691699	1.620984
0.691797	1.609821
0.691895	1.610170
0.691992	1.606875
0.692090	1.613220
0.692187	1.619416
0.692285	1.625269
0.692383	1.629769
0.692480	1.635077
0.692578	1.638922
0.692676	1.638617
0.692773	1.638770
0.692871	1.640017
0.692969	1.641599
0.693066	1.637936
0.693164	1.628178
0.693262	1.625183
0.693359	1.623527
0.693457	1.623461
0.693555	1.624136
0.693652	1.625820
0.693750	1.625228
0.693848	1.627015
0.693945	1.628718
0.694043	1.635820
0.694141	1.645009
0.694238	1.647685
0.694336	1.641006
0.694434	1.625713
0.694531	1.625659
0.694629	1.622600
0.694727	1.627656
0.694824	1.636231
0.694922	1.647263
0.695020	1.650103
0.695117	1.646888
0.695215	1.638930
0.695312	1.631311
0.695410	1.623029
0.695508	1.617005
0.695605	1.616419
0.695703	1.617592
0.695801	1.618788
0.695898	1.622132
0.695996	1.626506
0.696094	1.631952
0.696191	1.635501
0.696289	1.637295
0.696387	1.635514
0.696484	1.633687
0.696582	1.629251
0.696680	1.634058
0.696777	1.637517
0.696875	1.627823
0.696973	1.632912
0.697070	1.628183
0.697168	1.625157
0.697266	1.627857
0.697363	1.633508
0.697461	1.636943
0.697559	1.636711
0.697656	1.633871
0.697754	1.631073
0.697852	1.631708
0.697949	1.630219
0.698047	1.619958
0.698145	1.607660
0.698242	1.607640
0.698340	1.618581
0.698437	1.620316
0.698535	1.618888
0.698633	1.619103
0.698730	1.621900
0.698828	1.626730
0.698926	1.634941
0.699023	1.643122
0.699121	1.647393
0.699219	1.642067
0.699316	1.633563
0.699414	1.629682
0.699512	1.627762
0.699609	1.626944
0.699707	1.628941
0.699805	1.634376
0.699902	1.636914
0.700000	1.633407
0.700098	1.633882
0.700195	1.626065
0.700293	1.619792
0.700391	1.623192
0.700488	1.627873
0.700586	1.629603
0.700684	1.628433
0.700781	1.628036
0.700879	1.628394
0.700977	1.627915
0.701074	1.628065
0.701172	1.628753
0.701270	1.636072
0.701367	1.644320
0.701465	1.637878
0.701562	1.634541
0.701660	1.629569
0.701758	1.628881
0.701855	1.629898
0.701953	1.635266
0.702051	1.636780
0.702148	1.633158
0.702246	1.631087
0.702344	1.630711
0.702441	1.628854
0.702539	1.624807
0.702637	1.624404
0.702734	1.625950
0.702832	1.628525
0.702930	1.633260
0.703027	1.635307
0.703125	1.628635
0.703223	1.624668
0.703320	1.631306
0.703418	1.641924
0.703516	1.658894
0.703613	1.638329
0.703711	1.609927
0.703809	1.603653
0.703906	1.609136
0.704004	1.614889
0.704102	1.613186
0.704199	1.615994
0.704297	1.619280
0.704395	1.625207
0.704492	1.631711
0.704590	1.637890
0.704687	1.637223
0.704785	1.635012
0.704883	1.632483
0.704980	1.632620
0.705078	1.636380
0.705176	1.640223
0.705273	1.646787
0.705371	1.649333
0.705469	1.642098
0.705566	1.639673
0.705664	1.633412
0.705762	1.628796
0.705859	1.626151
0.705957	1.624845
0.706055	1.629667
0.706152	1.626244
0.706250	1.622856
0.706348	1.621548
0.706445	1.617859
0.706543	1.617893
0.706641	1.618884
0.706738	1.622433
0.706836	1.627041
0.706934	1.631683
0.707031	1.632226
0.707129	1.632321
0.707227	1.634529
0.707324	1.639479
0.707422	1.645263
0.707520	1.646440
0.707617	1.639682
0.707715	1.631124
0.707812	1.627987
0.707910	1.628908
0.708008	1.640098
0.708105	1.644022
0.708203	1.650352
0.708301	1.616736
0.708398	1.614388
0.708496	1.622625
0.708594	1.618175
0.708691	1.621712
0.708789	1.619262
0.708887	1.619553
0.708984	1.603858
0.709082	1.588299
0.709180	1.607329
0.709277	1.620638
0.709375	1.612723
0.709473	1.618668
0.709570	1.624640
0.709668	1.628427
0.709766	1.629848
0.709863	1.628618
0.709961	1.627938
0.710059	1.628467
0.710156	1.629568
0.710254	1.629320
0.710352	1.627910
0.710449	1.625874
0.710547	1.624811
0.710645	1.624720
0.710742	1.626412
0.710840	1.628903
0.710937	1.633529
0.711035	1.638615
0.711133	1.645029
0.711230	1.634310
0.711328	1.632769
0.711426	1.635990
0.711523	1.630459
0.711621	1.624790
0.711719	1.621021
0.711816	1.622320
0.711914	1.629448
0.712012	1.643355
0.712109	1.650977
0.712207	1.640565
0.712305	1.624174
0.712402	1.627418
0.712500	1.627801
0.712598	1.618350
0.712695	1.613685
0.712793	1.613138
0.712891	1.615057
0.712988	1.618459
0.713086	1.623929
0.713184	1.629761
0.713281	1.641934
0.713379	1.642369
0.713477	1.638708
0.713574	1.638269
0.713672	1.637994
0.713770	1.640622
0.713867	1.631821
0.713965	1.627261
0.714062	1.628280
0.714160	1.631400
0.714258	1.635132
0.714355	1.637061
0.714453	1.635964
0.714551	1.633643
0.714648	1.632563
0.714746	1.631171
0.714844	1.629828
0.714941	1.630307
0.715039	1.636032
0.715137	1.643092
0.715234	1.649892
0.715332	1.645724
0.715430	1.627545
0.715527	1.622548
0.715625	1.622298
0.715723	1.623379
0.715820	1.624793
0.715918	1.626431
0.716016	1.628897
0.716113	1.631095
0.716211	1.632439
0.716309	1.634044
0.716406	1.636932
0.716504	1.641157
0.716602	1.646869
0.716699	1.647679
0.716797	1.635324
0.716895	1.628797
0.716992	1.626935
0.717090	1.632413
0.717187	1.631539
0.717285	1.627077
0.717383	1.627270
0.717480	1.622276
0.717578	1.628152
0.717676	1.636288
0.717773	1.629408
0.717871	1.622370
0.717969	1.624075
0.718066	1.625387
0.718164	1.628495
0.718262	1.629732
0.718359	1.630887
0.718457	1.629533
0.718555	1.630089
0.718652	1.628849
0.718750	1.634483
0.718848	1.637186
0.718945	1.629931
0.719043	1.628063
0.719141	1.637722
0.719238	1.620621
0.719336	1.594838
0.719434	1.600414
0.719531	1.619859
0.719629	1.624020
0.719727	1.625392
0.719824	1.633307
0.719922	1.634210
0.720020	1.630290
0.720117	1.626875
0.720215	1.627367
0.720312	1.628516
0.720410	1.628912
0.720508	1.628246
0.720605	1.626521
0.720703	1.625191
0.720801	1.624707
0.720898	1.624748
0.720996	1.625420
0.721094	1.626916
0.721191	1.629153
0.721289	1.631959
0.721387	1.633602
0.721484	1.633607
0.721582	1.631480
0.721680	1.630572
0.721777	1.631184
0.721875	1.638980
0.721973	1.646919
0.722070	1.639246
0.722168	1.638966
0.722266	1.631981
0.722363	1.627026
0.722461	1.625384
0.722559	1.625769
0.722656	1.627146
0.722754	1.629252
0.722852	1.631390
0.722949	1.633405
0.723047	1.634262
0.723145	1.633775
0.723242	1.633659
0.723340	1.635348
0.723437	1.639509
0.723535	1.643097
0.723633	1.640682
0.723730	1.636124
0.723828	1.634244
0.723926	1.635778
0.724023	1.635366
0.724121	1.633169
0.724219	1.631156
0.724316	1.632490
0.724414	1.633632
0.724512	1.633576
0.724609	1.634467
0.724707	1.634452
0.724805	1.630977
0.724902	1.629871
0.725000	1.631646
0.725098	1.637247
0.725195	1.646159
0.725293	1.643995
0.725391	1.632154
0.725488	1.623652
0.725586	1.622519
0.725684	1.626675
0.725781	1.632024
0.725879	1.635126
0.725977	1.634554
0.726074	1.631194
0.726172	1.627701
0.726270	1.625470
0.726367	1.625546
0.726465	1.626971
0.726562	1.631014
0.726660	1.638034
0.726758	1.650450
0.726855	1.651755
0.726953	1.638950
0.727051	1.618234
0.727148	1.618675
0.727246	1.619532
0.727344	1.619891
0.727441	1.622951
0.727539	1.624065
0.727637	1.624804
0.727734	1.624016
0.727832	1.623457
0.727930	1.622996
0.728027	1.624037
0.728125	1.626235
0.728223	1.630755
0.728320	1.638366
0.728418	1.648804
0.728516	1.649603
0.728613	1.638964
0.728711	1.635005
0.728809	1.625017
0.728906	1.611229
0.729004	1.593550
0.729102	1.588237
0.729199	1.600420
0.729297	1.614024
0.729395	1.613744
0.729492	1.613101
0.729590	1.614655
0.729687	1.616675
0.729785	1.620040
0.729883	1.623189
0.729980	1.625996
0.730078	1.628610
0.730176	1.631191
0.730273	1.631267
0.730371	1.629005
0.730469	1.627974
0.730566	1.627493
0.730664	1.627877
0.730762	1.628265
0.730859	1.630433
0.730957	1.634136
0.731055	1.640458
0.731152	1.643297
0.731250	1.641093
0.731348	1.638567
0.731445	1.642285
0.731543	1.639670
0.731641	1.638624
0.731738	1.614945
0.731836	1.603648
0.731934	1.613075
0.732031	1.611598
0.732129	1.615519
0.732227	1.619968
0.732324	1.628345
0.732422	1.635880
0.732520	1.644170
0.732617	1.644288
0.732715	1.634152
0.732812	1.629158
0.732910	1.628118
0.733008	1.626742
0.733105	1.625450
0.733203	1.626587
0.733301	1.632978
0.733398	1.636985
0.733496	1.631768
0.733594	1.627116
0.733691	1.628142
0.733789	1.631950
0.733887	1.635846
0.733984	1.637469
0.734082	1.638000
0.734180	1.641097
0.734277	1.642344
0.734375	1.635888
0.734473	1.628292
0.734570	1.624975
0.734668	1.623763
0.734766	1.625821
0.734863	1.630624
0.734961	1.635036
0.735059	1.633837
0.735156	1.631519
0.735254	1.630711
0.735352	1.630668
0.735449	1.629231
0.735547	1.629205
0.735645	1.630353
0.735742	1.631693
0.735840	1.631067
0.735937	1.634656
0.736035	1.636674
0.736133	1.630358
0.736230	1.623506
0.736328	1.623881
0.736426	1.621811
0.736523	1.622951
0.736621	1.626794
0.736719	1.634332
0.736816	1.640051
0.736914	1.637098
0.737012	1.626263
0.737109	1.625245
0.737207	1.627882
0.737305	1.636679
0.737402	1.633369
0.737500	1.626929
0.737598	1.595869
0.737695	1.594360
0.737793	1.608462
0.737891	1.608805
0.737988	1.619142
0.738086	1.624788
0.738184	1.635508
0.738281	1.639841
0.738379	1.640040
0.738477	1.637889
0.738574	1.635731
0.738672	1.631999
0.738770	1.626869
0.738867	1.623201
0.738965	1.621113
0.739062	1.631689
0.739160	1.639274
0.739258	1.638003
0.739355	1.623895
0.739453	1.621082
0.739551	1.623543
0.739648	1.624894
0.739746	1.630124
0.739844	1.631517
0.739941	1.634747
0.740039	1.636687
0.740137	1.636538
0.740234	1.633224
0.740332	1.630718
0.740430	1.628964
0.740527	1.628731
0.740625	1.628412
0.740723	1.628233
0.740820	1.628418
0.740918	1.630424
0.741016	1.633461
0.741113	1.636866
0.741211	1.635025
0.741309	1.631909
0.741406	1.630918
0.741504	1.631946
0.741602	1.633732
0.741699	1.634743
0.741797	1.634033
0.741895	1.633530
0.741992	1.633870
0.742090	1.635174
0.742187	1.632593
0.742285	1.625628
0.742383	1.620931
0.742480	1.619629
0.742578	1.621092
0.742676	1.625973
0.742773	1.635803
0.742871	1.647450
0.742969	1.643464
0.743066	1.632847
0.743164	1.629284
0.743262	1.628990
0.743359	1.631491
0.743457	1.639811
0.743555	1.626306
0.743652	1.621035
0.743750	1.617227
0.743848	1.614991
0.743945	1.621500
0.744043	1.636453
0.744141	1.645820
0.744238	1.634730
0.744336	1.638656
0.744434	1.635869
0.744531	1.620990
0.744629	1.620063
0.744727	1.619671
0.744824	1.621920
0.744922	1.624727
0.745020	1.627394
0.745117	1.629161
0.745215	1.630357
0.745312	1.630613
0.745410	1.630587
0.745508	1.631522
0.745605	1.635963
0.745703	1.644729
0.745801	1.648472
0.745898	1.643423
0.745996	1.637821
0.746094	1.628208
0.746191	1.620455
0.746289	1.624254
0.746387	1.622718
0.746484	1.620985
0.746582	1.620795
0.746680	1.621318
0.746777	1.622386
0.746875	1.625249
0.746973	1.628341
0.747070	1.639022
0.747168	1.634076
0.747266	1.626569
0.747363	1.627812
0.747461	1.608800
0.747559	1.601895
0.747656	1.614708
0.747754	1.622240
0.747852	1.630722
0.747949	1.640367
0.748047	1.640932
0.748145	1.638257
0.748242	1.630115
0.748340	1.624730
0.748437	1.624791
0.748535	1.622686
0.748633	1.624466
0.748730	1.627406
0.748828	1.634449
0.748926	1.638120
0.749023	1.639190
0.749121	1.632906
0.749219	1.627431
0.749316	1.622896
0.749414	1.621253
0.749512	1.620411
0.749609	1.622622
0.749707	1.624877
0.749805	1.629235
0.749902	1.630681
0.750000	1.637543
0.750098	1.635173
0.750195	1.639153
0.750293	1.645060
0.750391	1.634741
0.750488	1.634067
0.750586	1.629563
0.750684	1.626727
0.750781	1.624099
0.750879	1.624975
0.750977	1.626872
0.751074	1.635288
0.751172	1.640198
0.751270	1.637747
0.751367	1.636824
0.751465	1.636035
0.751562	1.636125
0.751660	1.633745
0.751758	1.628929
0.751855	1.625205
0.751953	1.624316
0.752051	1.625809
0.752148	1.629473
0.752246	1.634272
0.752344	1.634919
0.752441	1.629234
0.752539	1.627102
0.752637	1.622218
0.752734	1.607987
0.752832	1.594803
0.752930	1.608392
0.753027	1.617302
0.753125	1.619242
0.753223	1.620820
0.753320	1.623613
0.753418	1.630741
0.753516	1.638927
0.753613	1.643833
0.753711	1.640874
0.753809	1.634446
0.753906	1.627244
0.754004	1.622478
0.754102	1.622619
0.754199	1.625710
0.754297	1.631470
0.754395	1.636419
0.754492	1.636519
0.754590	1.631025
0.754687	1.627928
0.754785	1.627735
0.754883	1.633255
0.754980	1.638495
0.755078	1.638876
0.755176	1.627634
0.755273	1.621925
0.755371	1.621182
0.755469	1.621528
0.755566	1.624216
0.755664	1.628003
0.755762	1.633342
0.755859	1.638067
0.755957	1.640652
0.756055	1.640652
0.756152	1.639271
0.756250	1.635195
0.756348	1.632849
0.756445	1.635142
0.756543	1.639499
0.756641	1.639212
0.756738	1.635914
0.756836	1.634319
0.756934	1.632428
0.757031	1.630517
0.757129	1.629850
0.757227	1.630971
0.757324	1.631102
0.757422	1.618648
0.757520	1.613103
0.757617	1.618073
0.757715	1.619112
0.757812	1.620161
0.757910	1.622777
0.758008	1.630278
0.758105	1.635888
0.758203	1.635218
0.758301	1.634387
0.758398	1.628036
0.758496	1.625698
0.758594	1.627199
0.758691	1.632079
0.758789	1.634350
0.758887	1.634061
0.758984	1.636441
0.759082	1.654943
0.759180	1.647664
0.759277	1.632347
0.759375	1.623892
0.759473	1.620518
0.759570	1.624754
0.759668	1.628682
0.759766	1.629829
0.759863	1.626134
0.759961	1.623768
0.760059	1.623340
0.760156	1.633947
0.760254	1.643530
0.760352	1.642389
0.760449	1.640421
0.760547	1.639043
0.760645	1.634471
0.760742	1.629352
0.760840	1.624361
0.760937	1.620830
0.761035	1.620795
0.761133	1.623844
0.761230	1.629565
0.761328	1.635660
0.761426	1.638194
0.761523	1.637202
0.761621	1.634264
0.761719	1.630714
0.761816	1.628519
0.761914	1.628473
0.762012	1.629602
0.762109	1.634122
0.762207	1.640249
0.762305	1.643182
0.762402	1.640182
0.762500	1.635873
0.762598	1.630866
0.762695	1.630000
0.762793	1.633335
0.762891	1.644037
0.762988	1.648466
0.763086	1.630257
0.763184	1.592569
0.763281	1.601373
0.763379	1.617245
0.763477	1.617418
0.763574	1.621903
0.763672	1.619868
0.763770	1.618643
0.763867	1.619551
0.763965	1.621742
0.764062	1.625134
0.764160	1.629648
0.764258	1.636028
0.764355	1.642496
0.764453	1.648350
0.764551	1.643330
0.764648	1.632519
0.764746	1.619804
0.764844	1.618084
0.764941	1.621655
0.765039	1.624156
0.765137	1.628346
0.765234	1.631918
0.765332	1.637543
0.765430	1.642413
0.765527	1.638137
0.765625	1.635294
0.765723	1.635483
0.765820	1.634719
0.765918	1.634393
0.766016	1.632812
0.766113	1.630125
0.766211	1.627484
0.766309	1.626818
0.766406	1.627688
0.766504	1.630276
0.766602	1.632320
0.766699	1.634224
0.766797	1.638607
0.766895	1.644984
0.766992	1.643114
0.767090	1.633895
0.767187	1.628839
0.767285	1.627970
0.767383	1.628247
0.767480	1.629149
0.767578	1.630554
0.767676	1.632090
0.767773	1.633523
0.767871	1.635592
0.767969	1.639504
0.768066	1.643697
0.768164	1.642566
0.768262	1.638520
0.768359	1.632529
0.768457	1.625982
0.768555	1.622381
0.768652	1.622340
0.768750	1.623122
0.768848	1.624779
0.768945	1.627295
0.769043	1.634800
0.769141	1.642804
0.769238	1.652576
0.769336	1.636057
0.769434	1.614011
0.769531	1.615407
0.769629	1.619659
0.769727	1.622954
0.769824	1.625637
0.769922	1.629146
0.770020	1.629131
0.770117	1.608717
0.770215	1.610233
0.770312	1.616484
0.770410	1.614123
0.770508	1.617312
0.770605	1.618296
0.770703	1.621526
0.770801	1.630039
0.770898	1.638786
0.770996	1.652208
0.771094	1.657526
0.771191	1.628544
0.771289	1.621221
0.771387	1.623015
0.771484	1.619489
0.771582	1.621096
0.771680	1.622144
0.771777	1.624350
0.771875	1.627010
0.771973	1.630614
0.772070	1.631966
0.772168	1.631143
0.772266	1.631733
0.772363	1.638600
0.772461	1.644644
0.772559	1.645738
0.772656	1.637809
0.772754	1.629452
0.772852	1.630089
0.772949	1.633878
0.773047	1.632778
0.773145	1.630735
0.773242	1.623174
0.773340	1.620092
0.773437	1.622379
0.773535	1.624946
0.773633	1.627188
0.773730	1.629715
0.773828	1.632075
0.773926	1.633676
0.774023	1.631209
0.774121	1.628335
0.774219	1.626200
0.774316	1.624494
0.774414	1.630569
0.774512	1.612108
0.774609	1.598911
0.774707	1.590788
0.774805	1.587618
0.774902	1.590420
0.775000	1.605206
0.775098	1.610063
0.775195	1.614615
0.775293	1.619043
0.775391	1.624325
0.775488	1.629794
0.775586	1.633455
0.775684	1.634930
0.775781	1.615003
0.775879	1.583965
0.775977	1.571510
0.776074	1.586622
0.776172	1.616605
0.776270	1.622322
0.776367	1.626411
0.776465	1.630940
0.776562	1.633965
0.776660	1.632895
0.776758	1.632372
0.776855	1.633826
0.776953	1.635254
0.777051	1.642945
0.777148	1.633454
0.777246	1.626868
0.777344	1.623761
0.777441	1.622819
0.777539	1.622758
0.777637	1.622991
0.777734	1.623445
0.777832	1.625448
0.777930	1.629084
0.778027	1.636272
0.778125	1.643570
0.778223	1.648278
0.778320	1.641693
0.778418	1.631027
0.778516	1.627682
0.778613	1.624850
0.778711	1.625869
0.778809	1.629918
0.778906	1.636332
0.779004	1.641056
0.779102	1.642373
0.779199	1.639393
0.779297	1.634371
0.779395	1.630999
0.779492	1.630124
0.779590	1.628464
0.779687	1.625040
0.779785	1.623117
0.779883	1.623125
0.779980	1.624184
0.780078	1.626010
0.780176	1.627772
0.780273	1.628961
0.780371	1.630148
0.780469	1.631172
0.780566	1.632179
0.780664	1.633443
0.780762	1.635809
0.780859	1.640387
0.780957	1.646623
0.781055	1.644425
0.781152	1.637239
0.781250	1.634030
0.781348	1.624483
0.781445	1.621538
0.781543	1.622437
0.781641	1.630125
0.781738	1.641350
0.781836	1.645798
0.781934	1.637949
0.782031	1.619670
0.782129	1.615368
0.782227	1.623332
0.782324	1.621698
0.782422	1.620589
0.782520	1.621630
0.782617	1.626835
0.782715	1.631000
0.782812	1.640874
0.782910	1.637249
0.783008	1.632126
0.783105	1.636220
0.783203	1.634255
0.783301	1.626050
0.783398	1.621634
0.783496	1.624936
0.783594	1.630793
0.783691	1.632938
0.783789	1.628569
0.783887	1.627932
0.783984	1.628796
0.784082	1.629581
0.784180	1.629765
0.784277	1.630284
0.784375	1.632323
0.784473	1.636985
0.784570	1.644730
0.784668	1.642858
0.784766	1.634600
0.784863	1.630675
0.784961	1.628397
0.785059	1.626499
0.785156	1.624690
0.785254	1.625923
0.785352	1.629219
0.785449	1.633931
0.785547	1.636666
0.785645	1.636755
0.785742	1.634298
0.785840	1.632224
0.785937	1.630813
0.786035	1.631510
0.786133	1.631085
0.786230	1.628721
0.786328	1.618635
0.786426	1.604697
0.786523	1.606119
0.786621	1.609212
0.786719	1.614529
0.786816	1.619674
0.786914	1.624853
0.787012	1.631000
0.787109	1.633646
0.787207	1.634535
0.787305	1.632813
0.787402	1.630896
0.787500	1.629986
0.787598	1.630568
0.787695	1.632266
0.787793	1.633181
0.787891	1.632970
0.787988	1.633953
0.788086	1.636992
0.788184	1.639566
0.788281	1.636746
0.788379	1.629161
0.788477	1.623611
0.788574	1.620466
0.788672	1.621240
0.788770	1.626611
0.788867	1.637823
0.788965	1.641483
0.789062	1.626781
0.789160	1.601523
0.789258	1.600381
0.789355	1.618848
0.789453	1.622866
0.789551	1.639484
0.789648	1.641488
0.789746	1.624332
0.789844	1.625433
0.789941	1.626274
0.790039	1.626886
0.790137	1.627081
0.790234	1.629105
0.790332	1.632074
0.790430	1.637627
0.790527	1.636939
0.790625	1.630089
0.790723	1.627782
0.790820	1.627726
0.790918	1.629552
0.791016	1.631680
0.791113	1.633061
0.791211	1.635804
0.791309	1.641250
0.791406	1.646081
0.791504	1.643450
0.791602	1.636422
0.791699	1.632317
0.791797	1.630712
0.791895	1.630173
0.791992	1.630616
0.792090	1.632177
0.792187	1.633253
0.792285	1.631836
0.792383	1.633099
0.792480	1.636973
0.792578	1.636578
0.792676	1.634617
0.792773	1.641781
0.792871	1.640262
0.792969	1.623998
0.793066	1.620214
0.793164	1.621521
0.793262	1.626198
0.793359	1.627618
0.793457	1.640899
0.793555	1.657591
0.793652	1.640068
0.793750	1.631674
0.793848	1.627403
0.793945	1.626097
0.794043	1.625853
0.794141	1.626935
0.794238	1.627677
0.794336	1.628074
0.794434	1.629636
0.794531	1.633687
0.794629	1.637990
0.794727	1.637954
0.794824	1.633296
0.794922	1.628072
0.795020	1.624573
0.795117	1.623431
0.795215	1.624456
0.795312	1.627526
0.795410	1.631727
0.795508	1.633983
0.795605	1.633309
0.795703	1.632150
0.795801	1.636665
0.795898	1.642812
0.795996	1.642608
0.796094	1.631396
0.796191	1.627841
0.796289	1.629090
0.796387	1.625912
0.796484	1.625041
0.796582	1.627455
0.796680	1.634437
0.796777	1.642028
0.796875	1.651579
0.796973	1.637329
0.797070	1.624413
0.797168	1.623867
0.797266	1.624856
0.797363	1.625996
0.797461	1.627041
0.797559	1.629787
0.797656	1.634290
0.797754	1.638285
0.797852	1.636545
0.797949	1.632406
0.798047	1.629909
0.798145	1.629382
0.798242	1.629847
0.798340	1.629377
0.798437	1.628137
0.798535	1.628081
0.798633	1.629224
0.798730	1.633311
0.798828	1.640448
0.798926	1.644062
0.799023	1.639615
0.799121	1.634247
0.799219	1.630498
0.799316	1.628460
0.799414	1.628075
0.799512	1.633241
0.799609	1.639589
0.799707	1.641080
0.799805	1.636412
0.799902	1.630902
0.800000	1.627587
0.800098	1.627318
0.800195	1.624870
0.800293	1.622312
0.800391	1.624296
0.800488	1.628504
0.800586	1.636514
0.800684	1.647156
0.800781	1.641932
0.800879	1.638931
0.800977	1.637471
0.801074	1.633743
0.801172	1.632025
0.801270	1.632483
0.801367	1.631805
0.801465	1.635903
0.801562	1.640925
0.801660	1.640732
0.801758	1.633095
0.801855	1.625104
0.801953	1.621188
0.802051	1.620391
0.802148	1.622082
0.802246	1.625247
0.802344	1.631429
0.802441	1.635218
0.802539	1.634833
0.802637	1.633280
0.802734	1.631669
0.802832	1.631321
0.802930	1.631260
0.803027	1.631514
0.803125	1.632926
0.803223	1.639199
0.803320	1.644515
0.803418	1.639607
0.803516	1.634454
0.803613	1.631452
0.803711	1.630440
0.803809	1.633423
0.803906	1.639019
0.804004	1.642972
0.804102	1.635739
0.804199	1.624750
0.804297	1.621687
0.804395	1.621258
0.804492	1.622396
0.804590	1.624607
0.804687	1.628234
0.804785	1.635267
0.804883	1.641926
0.804980	1.639667
0.805078	1.633930
0.805176	1.617658
0.805273	1.605063
0.805371	1.601823
0.805469	1.608391
0.805566	1.611577
0.805664	1.614284
0.805762	1.618909
0.805859	1.623706
0.805957	1.629911
0.806055	1.637432
0.806152	1.644489
0.806250	1.648298
0.806348	1.638886
0.806445	1.615242
0.806543	1.600633
0.806641	1.613641
0.806738	1.618160
0.806836	1.616230
0.806934	1.618192
0.807031	1.620122
0.807129	1.623698
0.807227	1.626326
0.807324	1.629494
0.807422	1.633482
0.807520	1.647233
0.807617	1.646108
0.807715	1.632938
0.807812	1.631124
0.807910	1.640917
0.808008	1.644540
0.808105	1.640231
0.808203	1.631922
0.808301	1.624413
0.808398	1.622866
0.808496	1.631733
0.808594	1.641505
0.808691	1.634916
0.808789	1.623955
0.808887	1.622782
0.808984	1.622228
0.809082	1.617265
0.809180	1.611597
0.809277	1.613972
0.809375	1.618124
0.809473	1.624067
0.809570	1.629097
0.809668	1.632579
0.809766	1.632687
0.809863	1.631361
0.809961	1.630219
0.810059	1.629753
0.810156	1.628510
0.810254	1.627226
0.810352	1.626574
0.810449	1.627954
0.810547	1.631260
0.810645	1.635254
0.810742	1.635475
0.810840	1.633444
0.810937	1.632317
0.811035	1.632634
0.811133	1.634857
0.811230	1.638988
0.811328	1.637491
0.811426	1.629532
0.811523	1.625029
0.811621	1.625733
0.811719	1.630299
0.811816	1.636719
0.811914	1.643671
0.812012	1.645290
0.812109	1.639425
0.812207	1.631268
0.812305	1.626594
0.812402	1.625961
0.812500	1.630977
0.812598	1.637527
0.812695	1.635013
0.812793	1.630282
0.812891	1.627130
0.812988	1.626982
0.813086	1.628478
0.813184	1.629947
0.813281	1.631056
0.813379	1.633736
0.813477	1.635181
0.813574	1.635278
0.813672	1.639625
0.813770	1.636122
0.813867	1.628746
0.813965	1.612733
0.814062	1.595997
0.814160	1.615081
0.814258	1.616593
0.814355	1.618314
0.814453	1.627010
0.814551	1.634057
0.814648	1.631799
0.814746	1.628109
0.814844	1.629124
0.814941	1.629840
0.815039	1.639188
0.815137	1.636929
0.815234	1.631116
0.815332	1.626932
0.815430	1.622039
0.815527	1.620174
0.815625	1.619671
0.815723	1.620832
0.815820	1.623615
0.815918	1.628358
0.816016	1.636227
0.816113	1.640190
0.816211	1.635988
0.816309	1.633557
0.816406	1.631696
0.816504	1.630639
0.816602	1.629455
0.816699	1.628084
0.816797	1.627486
0.816895	1.627924
0.816992	1.630384
0.817090	1.633243
0.817187	1.636937
0.817285	1.636090
0.817383	1.631329
0.817480	1.629500
0.817578	1.632734
0.817676	1.643138
0.817773	1.650413
0.817871	1.639429
0.817969	1.639605
0.818066	1.634847
0.818164	1.631739
0.818262	1.629877
0.818359	1.626334
0.818457	1.625584
0.818555	1.643388
0.818652	1.642106
0.818750	1.621886
0.818848	1.629763
0.818945	1.631056
0.819043	1.637000
0.819141	1.637159
0.819238	1.616991
0.819336	1.613463
0.819434	1.617296
0.819531	1.622979
0.819629	1.628261
0.819727	1.625515
0.819824	1.622454
0.819922	1.621424
0.820020	1.623381
0.820117	1.627247
0.820215	1.634039
0.820312	1.641877
0.820410	1.645109
0.820508	1.643338
0.820605	1.642005
0.820703	1.642285
0.820801	1.641875
0.820898	1.638305
0.820996	1.632356
0.821094	1.626270
0.821191	1.622201
0.821289	1.620498
0.821387	1.621119
0.821484	1.623680
0.821582	1.628193
0.821680	1.633575
0.821777	1.638717
0.821875	1.641992
0.821973	1.637322
0.822070	1.636513
0.822168	1.635315
0.822266	1.631314
0.822363	1.632533
0.822461	1.629269
0.822559	1.627760
0.822656	1.629437
0.822754	1.631502
0.822852	1.631976
0.822949	1.631006
0.823047	1.630519
0.823145	1.631545
0.823242	1.633367
0.823340	1.634170
0.823437	1.633878
0.823535	1.633689
0.823633	1.633568
0.823730	1.633042
0.823828	1.632757
0.823926	1.632267
0.824023	1.630762
0.824121	1.628768
0.824219	1.627383
0.824316	1.626807
0.824414	1.627818
0.824512	1.631772
0.824609	1.636466
0.824707	1.636769
0.824805	1.636917
0.824902	1.633865
0.825000	1.632331
0.825098	1.635768
0.825195	1.639699
0.825293	1.638016
0.825391	1.632285
0.825488	1.628337
0.825586	1.625211
0.825684	1.622177
0.825781	1.621362
0.825879	1.622297
0.825977	1.629075
0.826074	1.635829
0.826172	1.633943
0.826270	1.635066
0.826367	1.621878
0.826465	1.613724
0.826562	1.614497
0.826660	1.614300
0.826758	1.615829
0.826855	1.619254
0.826953	1.620706
0.827051	1.623321
0.827148	1.633890
0.827246	1.639006
0.827344	1.635936
0.827441	1.639385
0.827539	1.634427
0.827637	1.626832
0.827734	1.624284
0.827832	1.627695
0.827930	1.632446
0.828027	1.631831
0.828125	1.627345
0.828223	1.624067
0.828320	1.624546
0.828418	1.628780
0.828516	1.635791
0.828613	1.643502
0.828711	1.638971
0.828809	1.636890
0.828906	1.635235
0.829004	1.628741
0.829102	1.625149
0.829199	1.631358
0.829297	1.626545
0.829395	1.611147
0.829492	1.616195
0.829590	1.618889
0.829687	1.623048
0.829785	1.625361
0.829883	1.628050
0.829980	1.630437
0.830078	1.631383
0.830176	1.629216
0.830273	1.626388
0.830371	1.625448
0.830469	1.627681
0.830566	1.632599
0.830664	1.637914
0.830762	1.638383
0.830859	1.636685
0.830957	1.636618
0.831055	1.636979
0.831152	1.630372
0.831250	1.624695
0.831348	1.621563
0.831445	1.623173
0.831543	1.625240
0.831641	1.635099
0.831738	1.639782
0.831836	1.630875
0.831934	1.636058
0.832031	1.632616
0.832129	1.628580
0.832227	1.625803
0.832324	1.625803
0.832422	1.626968
0.832520	1.630000
0.832617	1.633241
0.832715	1.638242
0.832812	1.643096
0.832910	1.648167
0.833008	1.640931
0.833105	1.626307
0.833203	1.615839
0.833301	1.589003
0.833398	1.597341
0.833496	1.613899
0.833594	1.617345
0.833691	1.621470
0.833789	1.624528
0.833887	1.627525
0.833984	1.629404
0.834082	1.631466
0.834180	1.633348
0.834277	1.635604
0.834375	1.637580
0.834473	1.639796
0.834570	1.641353
0.834668	1.639819
0.834766	1.636621
0.834863	1.637013
0.834961	1.636467
0.835059	1.632104
0.835156	1.629254
0.835254	1.630445
0.835352	1.637910
0.835449	1.633123
0.835547	1.633181
0.835645	1.627693
0.835742	1.623287
0.835840	1.629690
0.835937	1.639428
0.836035	1.637374
0.836133	1.626664
0.836230	1.616844
0.836328	1.614597
0.836426	1.619983
0.836523	1.621774
0.836621	1.625700
0.836719	1.629266
0.836816	1.631673
0.836914	1.630798
0.837012	1.629660
0.837109	1.628701
0.837207	1.628598
0.837305	1.628168
0.837402	1.628556
0.837500	1.629510
0.837598	1.632310
0.837695	1.636054
0.837793	1.640597
0.837891	1.642510
0.837988	1.641931
0.838086	1.638287
0.838184	1.636648
0.838281	1.634802
0.838379	1.634075
0.838477	1.629617
0.838574	1.630675
0.838672	1.610480
0.838770	1.604743
0.838867	1.616579
0.838965	1.617397
0.839062	1.624793
0.839160	1.625637
0.839258	1.623136
0.839355	1.623177
0.839453	1.629428
0.839551	1.634163
0.839648	1.634136
0.839746	1.636884
0.839844	1.640570
0.839941	1.641467
0.840039	1.641395
0.840137	1.638197
0.840234	1.631538
0.840332	1.625550
0.840430	1.622642
0.840527	1.622480
0.840625	1.624260
0.840723	1.627669
0.840820	1.631485
0.840918	1.635266
0.841016	1.635212
0.841113	1.631107
0.841211	1.629338
0.841309	1.633521
0.841406	1.639750
0.841504	1.638315
0.841602	1.634686
0.841699	1.637423
0.841797	1.647336
0.841895	1.638175
0.841992	1.614550
0.842090	1.611546
0.842187	1.614998
0.842285	1.613556
0.842383	1.614951
0.842480	1.618981
0.842578	1.622763
0.842676	1.627361
0.842773	1.610734
0.842871	1.594070
0.842969	1.594044
0.843066	1.610812
0.843164	1.618848
0.843262	1.614704
0.843359	1.613478
0.843457	1.616150
0.843555	1.621971
0.843652	1.628433
0.843750	1.635719
0.843848	1.639256
0.843945	1.639534
0.844043	1.635642
0.844141	1.637893
0.844238	1.635566
0.844336	1.630908
0.844434	1.632073
0.844531	1.630525
0.844629	1.624152
0.844727	1.620831
0.844824	1.619421
0.844922	1.622400
0.845020	1.628223
0.845117	1.640343
0.845215	1.636038
0.845312	1.634009
0.845410	1.630994
0.845508	1.623004
0.845605	1.620509
0.845703	1.616951
0.845801	1.618660
0.845898	1.621016
0.845996	1.635192
0.846094	1.644677
0.846191	1.643078
0.846289	1.633287
0.846387	1.621080
0.846484	1.619901
0.846582	1.627365
0.846680	1.634859
0.846777	1.637445
0.846875	1.633696
0.846973	1.628191
0.847070	1.625647
0.847168	1.627040
0.847266	1.633028
0.847363	1.640822
0.847461	1.638919
0.847559	1.632787
0.847656	1.632680
0.847754	1.632497
0.847852	1.633169
0.847949	1.634251
0.848047	1.635425
0.848145	1.635663
0.848242	1.635259
0.848340	1.631533
0.848437	1.626324
0.848535	1.623716
0.848633	1.623946
0.848730	1.624573
0.848828	1.625728
0.848926	1.626078
0.849023	1.627623
0.849121	1.630367
0.849219	1.642140
0.849316	1.648432
0.849414	1.640466
0.849512	1.632099
0.849609	1.628211
0.849707	1.628222
0.849805	1.634568
0.849902	1.631635
0.850000	1.626591
0.850098	1.619057
0.850195	1.612520
0.850293	1.613335
0.850391	1.617295
0.850488	1.618628
0.850586	1.618397
0.850684	1.621454
0.850781	1.625160
0.850879	1.639981
0.850977	1.640077
0.851074	1.629712
0.851172	1.626545
0.851270	1.625416
0.851367	1.628722
0.851465	1.631885
0.851562	1.636555
0.851660	1.639393
0.851758	1.637047
0.851855	1.634755
0.851953	1.632019
0.852051	1.629528
0.852148	1.626693
0.852246	1.627059
0.852344	1.629794
0.852441	1.635431
0.852539	1.634163
0.852637	1.624761
0.852734	1.600649
0.852832	1.602492
0.852930	1.607257
0.853027	1.609381
0.853125	1.615591
0.853223	1.617827
0.853320	1.628192
0.853418	1.633705
0.853516	1.636832
0.853613	1.636802
0.853711	1.638597
0.853809	1.637093
0.853906	1.634423
0.854004	1.629826
0.854102	1.626086
0.854199	1.624695
0.854297	1.625374
0.854395	1.625966
0.854492	1.627388
0.854590	1.628000
0.854687	1.634153
0.854785	1.639864
0.854883	1.642170
0.854980	1.634158
0.855078	1.624180
0.855176	1.621232
0.855273	1.620264
0.855371	1.621013
0.855469	1.621661
0.855566	1.623403
0.855664	1.625872
0.855762	1.630269
0.855859	1.636442
0.855957	1.643064
0.856055	1.646582
0.856152	1.645818
0.856250	1.640255
0.856348	1.633344
0.856445	1.628638
0.856543	1.624814
0.856641	1.622030
0.856738	1.621780
0.856836	1.626996
0.856934	1.638748
0.857031	1.644347
0.857129	1.633756
0.857227	1.627785
0.857324	1.617852
0.857422	1.615958
0.857520	1.615471
0.857617	1.615452
0.857715	1.620592
0.857812	1.634746
0.857910	1.642455
0.858008	1.633403
0.858105	1.628588
0.858203	1.629449
0.858301	1.632159
0.858398	1.637535
0.858496	1.634316
0.858594	1.632984
0.858691	1.627175
0.858789	1.623540
0.858887	1.621941
0.858984	1.620583
0.859082	1.621735
0.859180	1.623732
0.859277	1.627142
0.859375	1.631200
0.859473	1.636458
0.859570	1.633437
0.859668	1.631189
0.859766	1.635644
0.859863	1.646512
0.859961	1.644296
0.860059	1.628131
0.860156	1.630421
0.860254	1.619342
0.860352	1.611981
0.860449	1.616723
0.860547	1.619666
0.860645	1.624037
0.860742	1.627616
0.860840	1.636323
0.860937	1.644867
0.861035	1.632773
0.861133	1.624879
0.861230	1.624646
0.861328	1.623592
0.861426	1.627552
0.861523	1.633060
0.861621	1.625747
0.861719	1.621663
0.861816	1.621100
0.861914	1.622830
0.862012	1.626279
0.862109	1.630604
0.862207	1.635272
0.862305	1.639146
0.862402	1.643680
0.862500	1.644516
0.862598	1.636784
0.862695	1.632550
0.862793	1.633953
0.862891	1.631666
0.862988	1.616988
0.863086	1.619665
0.863184	1.618158
0.863281	1.619922
0.863379	1.623130
0.863477	1.630135
0.863574	1.637879
0.863672	1.641522
0.863770	1.636128
0.863867	1.638446
0.863965	1.642265
0.864062	1.636593
0.864160	1.631293
0.864258	1.629279
0.864355	1.624250
0.864453	1.623648
0.864551	1.626541
0.864648	1.628077
0.864746	1.628241
0.864844	1.628691
0.864941	1.633236
0.865039	1.642659
0.865137	1.649166
0.865234	1.635637
0.865332	1.627973
0.865430	1.628067
0.865527	1.629107
0.865625	1.633559
0.865723	1.637034
0.865820	1.640800
0.865918	1.642111
0.866016	1.639796
0.866113	1.631604
0.866211	1.625629
0.866309	1.624461
0.866406	1.621997
0.866504	1.619847
0.866602	1.620746
0.866699	1.621363
0.866797	1.622924
0.866895	1.623762
0.866992	1.626425
0.867090	1.630804
0.867187	1.633755
0.867285	1.614397
0.867383	1.629988
0.867480	1.627995
0.867578	1.631572
0.867676	1.631655
0.867773	1.623837
0.867871	1.623837
0.867969	1.627900
0.868066	1.635416
0.868164	1.639107
0.868262	1.634541
0.868359	1.626663
0.868457	1.623682
0.868555	1.624388
0.868652	1.628593
0.868750	1.635136
0.868848	1.640228
0.868945	1.639633
0.869043	1.637540
0.869141	1.637396
0.869238	1.636136
0.869336	1.637011
0.869434	1.628858
0.869531	1.623494
0.869629	1.624372
0.869727	1.626556
0.869824	1.631347
0.869922	1.637263
0.870020	1.621166
0.870117	1.621182
0.870215	1.628355
0.870312	1.629434
0.870410	1.626553
0.870508	1.622275
0.870605	1.622004
0.870703	1.621717
0.870801	1.624432
0.870898	1.625080
0.870996	1.627295
0.871094	1.628377
0.871191	1.639041
0.871289	1.651907
0.871387	1.647626
0.871484	1.636339
0.871582	1.633233
0.871680	1.632294
0.871777	1.626297
0.871875	1.624484
0.871973	1.623496
0.872070	1.622534
0.872168	1.622655
0.872266	1.625602
0.872363	1.637811
0.872461	1.624537
0.872559	1.635882
0.872656	1.629778
0.872754	1.626350
0.872852	1.627437
0.872949	1.627915
0.873047	1.629348
0.873145	1.626674
0.873242	1.626987
0.873340	1.632325
0.873437	1.641766
0.873535	1.646373
0.873633	1.637050
0.873730	1.630958
0.873828	1.630512
0.873926	1.633967
0.874023	1.632796
0.874121	1.626138
0.874219	1.622256
0.874316	1.621320
0.874414	1.623329
0.874512	1.627346
0.874609	1.632064
0.874707	1.636016
0.874805	1.639041
0.874902	1.637916
0.875000	1.635631
0.875098	1.631635
0.875195	1.628889
0.875293	1.630345
0.875391	1.631336
0.875488	1.634183
0.875586	1.639217
0.875684	1.636048
0.875781	1.631389
0.875879	1.633552
0.875977	1.632591
0.876074	1.631584
0.876172	1.629249
0.876270	1.634450
0.876367	1.640019
0.876465	1.628543
0.876562	1.624325
0.876660	1.621099
0.876758	1.623286
0.876855	1.628895
0.876953	1.636454
0.877051	1.638412
0.877148	1.633042
0.877246	1.628114
0.877344	1.626040
0.877441	1.625880
0.877539	1.627149
0.877637	1.629432
0.877734	1.633309
0.877832	1.638470
0.877930	1.642637
0.878027	1.642444
0.878125	1.637132
0.878223	1.631934
0.878320	1.628561
0.878418	1.626868
0.878516	1.627131
0.878613	1.629889
0.878711	1.633905
0.878809	1.639583
0.878906	1.641081
0.879004	1.636033
0.879102	1.634989
0.879199	1.634427
0.879297	1.630387
0.879395	1.625280
0.879492	1.622379
0.879590	1.622551
0.879687	1.623668
0.879785	1.625689
0.879883	1.627877
0.879980	1.631170
0.880078	1.633626
0.880176	1.635748
0.880273	1.636760
0.880371	1.636924
0.880469	1.635089
0.880566	1.633806
0.880664	1.631356
0.880762	1.630564
0.880859	1.629465
0.880957	1.634856
0.881055	1.614076
0.881152	1.594762
0.881250	1.600652
0.881348	1.600198
0.881445	1.607858
0.881543	1.616382
0.881641	1.624105
0.881738	1.628356
0.881836	1.628952
0.881934	1.627053
0.882031	1.626173
0.882129	1.625791
0.882227	1.629621
0.882324	1.635078
0.882422	1.642642
0.882520	1.643615
0.882617	1.641669
0.882715	1.633992
0.882812	1.622858
0.882910	1.579934
0.883008	1.600503
0.883105	1.620785
0.883203	1.619350
0.883301	1.625983
0.883398	1.628374
0.883496	1.634492
0.883594	1.636242
0.883691	1.634720
0.883789	1.630910
0.883887	1.629695
0.883984	1.628569
0.884082	1.628350
0.884180	1.628194
0.884277	1.629597
0.884375	1.631270
0.884473	1.634478
0.884570	1.639192
0.884668	1.640327
0.884766	1.639254
0.884863	1.638216
0.884961	1.634147
0.885059	1.631470
0.885156	1.629679
0.885254	1.629166
0.885352	1.629688
0.885449	1.633122
0.885547	1.638136
0.885645	1.646557
0.885742	1.646560
0.885840	1.640284
0.885937	1.635197
0.886035	1.629591
0.886133	1.628239
0.886230	1.630511
0.886328	1.632270
0.886426	1.633938
0.886523	1.632539
0.886621	1.631453
0.886719	1.633407
0.886816	1.642277
0.886914	1.645040
0.887012	1.633094
0.887109	1.627495
0.887207	1.626351
0.887305	1.625681
0.887402	1.623081
0.887500	1.622172
0.887598	1.622721
0.887695	1.627633
0.887793	1.633315
0.887891	1.642180
0.887988	1.641350
0.888086	1.637593
0.888184	1.642516
0.888281	1.634301
0.888379	1.630265
0.888477	1.627898
0.888574	1.624889
0.888672	1.620162
0.888770	1.622035
0.888867	1.622715
0.888965	1.624490
0.889062	1.625392
0.889160	1.629083
0.889258	1.634047
0.889355	1.643323
0.889453	1.634398
0.889551	1.633762
0.889648	1.622913
0.889746	1.628286
0.889844	1.627592
0.889941	1.619133
0.890039	1.618916
0.890137	1.617354
0.890234	1.620715
0.890332	1.624625
0.890430	1.631129
0.890527	1.635838
0.890625	1.638627
0.890723	1.637519
0.890820	1.633654
0.890918	1.629072
0.891016	1.627990
0.891113	1.635202
0.891211	1.635274
0.891309	1.624930
0.891406	1.622833
0.891504	1.625770
0.891602	1.634005
0.891699	1.644954
0.891797	1.637255
0.891895	1.623044
0.891992	1.624004
0.892090	1.624496
0.892187	1.623569
0.892285	1.625628
0.892383	1.628217
0.892480	1.631589
0.892578	1.635741
0.892676	1.636563
0.892773	1.632424
0.892871	1.630484
0.892969	1.631464
0.893066	1.634009
0.893164	1.636373
0.893262	1.636958
0.893359	1.635674
0.893457	1.639114
0.893555	1.644923
0.893652	1.647424
0.893750	1.638207
0.893848	1.628196
0.893945	1.623555
0.894043	1.621537
0.894141	1.622750
0.894238	1.635214
0.894336	1.643232
0.894434	1.624550
0.894531	1.617246
0.894629	1.616363
0.894727	1.618108
0.894824	1.619689
0.894922	1.624442
0.895020	1.629365
0.895117	1.638677
0.895215	1.643647
0.895312	1.648789
0.895410	1.634788
0.895508	1.623770
0.895605	1.627851
0.895703	1.628801
0.895801	1.632548
0.895898	1.632384
0.895996	1.632198
0.896094	1.631012
0.896191	1.633042
0.896289	1.633311
0.896387	1.631156
0.896484	1.627254
0.896582	1.625877
0.896680	1.625717
0.896777	1.626907
0.896875	1.629388
0.896973	1.634754
0.897070	1.640554
0.897168	1.630907
0.897266	1.610738
0.897363	1.585083
0.897461	1.564072
0.897559	1.566062
0.897656	1.569622
0.897754	1.587740
0.897852	1.608218
0.897949	1.619855
0.898047	1.628536
0.898145	1.630935
0.898242	1.631868
0.898340	1.633675
0.898437	1.637241
0.898535	1.637912
0.898633	1.636123
0.898730	1.632974
0.898828	1.630041
0.898926	1.628688
0.899023	1.630683
0.899121	1.635376
0.899219	1.637023
0.899316	1.638662
0.899414	1.642239
0.899512	1.636392
0.899609	1.628391
0.899707	1.624808
0.899805	1.623411
0.899902	1.626127
0.900000	1.630599
0.900098	1.635302
0.900195	1.637035
0.900293	1.637906
0.900391	1.639435
0.900488	1.644620
0.900586	1.637828
0.900684	1.631653
0.900781	1.629127
0.900879	1.625153
0.900977	1.623459
0.901074	1.624201
0.901172	1.628311
0.901270	1.632497
0.901367	1.635656
0.901465	1.638629
0.901562	1.636366
0.901660	1.629896
0.901758	1.628053
0.901855	1.628124
0.901953	1.629918
0.902051	1.630949
0.902148	1.632979
0.902246	1.638511
0.902344	1.653180
0.902441	1.649085
0.902539	1.636409
0.902637	1.629621
0.902734	1.625663
0.902832	1.624198
0.902930	1.624622
0.903027	1.626700
0.903125	1.631124
0.903223	1.636957
0.903320	1.645197
0.903418	1.643836
0.903516	1.636611
0.903613	1.631930
0.903711	1.631307
0.903809	1.628459
0.903906	1.622231
0.904004	1.623076
0.904102	1.626058
0.904199	1.633826
0.904297	1.644756
0.904395	1.652946
0.904492	1.650893
0.904590	1.641771
0.904687	1.632752
0.904785	1.630327
0.904883	1.632242
0.904980	1.630054
0.905078	1.623824
0.905176	1.620909
0.905273	1.620095
0.905371	1.620919
0.905469	1.623968
0.905566	1.629640
0.905664	1.636809
0.905762	1.641662
0.905859	1.641496
0.905957	1.636201
0.906055	1.631341
0.906152	1.629042
0.906250	1.634694
0.906348	1.633725
0.906445	1.627458
0.906543	1.626360
0.906641	1.624574
0.906738	1.624631
0.906836	1.625687
0.906934	1.629234
0.907031	1.629913
0.907129	1.627300
0.907227	1.624063
0.907324	1.625584
0.907422	1.629768
0.907520	1.642231
0.907617	1.649461
0.907715	1.647950
0.907812	1.640636
0.907910	1.629980
0.908008	1.626596
0.908105	1.622096
0.908203	1.622894
0.908301	1.623835
0.908398	1.625768
0.908496	1.627284
0.908594	1.629149
0.908691	1.631098
0.908789	1.633369
0.908887	1.634708
0.908984	1.635800
0.909082	1.638368
0.909180	1.640191
0.909277	1.638221
0.909375	1.632977
0.909473	1.628466
0.909570	1.621119
0.909668	1.614949
0.909766	1.614694
0.909863	1.619520
0.909961	1.624650
0.910059	1.628395
0.910156	1.630191
0.910254	1.629870
0.910352	1.630076
0.910449	1.632015
0.910547	1.634513
0.910645	1.634664
0.910742	1.640232
0.910840	1.641923
0.910937	1.638481
0.911035	1.637461
0.911133	1.632319
0.911230	1.625292
0.911328	1.621096
0.911426	1.619685
0.911523	1.619716
0.911621	1.621689
0.911719	1.625401
0.911816	1.630824
0.911914	1.637686
0.912012	1.644494
0.912109	1.646337
0.912207	1.642217
0.912305	1.640318
0.912402	1.635882
0.912500	1.629514
0.912598	1.629152
0.912695	1.633496
0.912793	1.636321
0.912891	1.642125
0.912988	1.640443
0.913086	1.631806
0.913184	1.627666
0.913281	1.624632
0.913379	1.622831
0.913477	1.621158
0.913574	1.621662
0.913672	1.623901
0.913770	1.629466
0.913867	1.638867
0.913965	1.645977
0.914062	1.647171
0.914160	1.638213
0.914258	1.630097
0.914355	1.626302
0.914453	1.622487
0.914551	1.622418
0.914648	1.622504
0.914746	1.623017
0.914844	1.624212
0.914941	1.627270
0.915039	1.631872
0.915137	1.639835
0.915234	1.647992
0.915332	1.646695
0.915430	1.637661
0.915527	1.630047
0.915625	1.623457
0.915723	1.622991
0.915820	1.623143
0.915918	1.627934
0.916016	1.632665
0.916113	1.650125
0.916211	1.651463
0.916309	1.633591
0.916406	1.630927
0.916504	1.624471
0.916602	1.624951
0.916699	1.624443
0.916797	1.627117
0.916895	1.632531
0.916992	1.640937
0.917090	1.636423
0.917187	1.629358
0.917285	1.632443
0.917383	1.630777
0.917480	1.627020
0.917578	1.626741
0.917676	1.624797
0.917773	1.625055
0.917871	1.625947
0.917969	1.627836
0.918066	1.630210
0.918164	1.631956
0.918262	1.631915
0.918359	1.630235
0.918457	1.628310
0.918555	1.626886
0.918652	1.627057
0.918750	1.629883
0.918848	1.636463
0.918945	1.636616
0.919043	1.633775
0.919141	1.635958
0.919238	1.635015
0.919336	1.628389
0.919434	1.626172
0.919531	1.630923
0.919629	1.630989
0.919727	1.629376
0.919824	1.630579
0.919922	1.633382
0.920020	1.633474
0.920117	1.633680
0.920215	1.635993
0.920312	1.634000
0.920410	1.636656
0.920508	1.638888
0.920605	1.638241
0.920703	1.635127
0.920801	1.631705
0.920898	1.628258
0.920996	1.626591
0.921094	1.627766
0.921191	1.632541
0.921289	1.642331
0.921387	1.649390
0.921484	1.640636
0.921582	1.630205
0.921680	1.624393
0.921777	1.606688
0.921875	1.582221
0.921973	1.573549
0.922070	1.577728
0.922168	1.600498
0.922266	1.608745
0.922363	1.611167
0.922461	1.615814
0.922559	1.619920
0.922656	1.624975
0.922754	1.628945
0.922852	1.632547
0.922949	1.635666
0.923047	1.641268
0.923145	1.647560
0.923242	1.648507
0.923340	1.637652
0.923437	1.629375
0.923535	1.625575
0.923633	1.627100
0.923730	1.625161
0.923828	1.618719
0.923926	1.618524
0.924023	1.619939
0.924121	1.624177
0.924219	1.631654
0.924316	1.642520
0.924414	1.651106
0.924512	1.646629
0.924609	1.634924
0.924707	1.632107
0.924805	1.627924
0.924902	1.622876
0.925000	1.621254
0.925098	1.621645
0.925195	1.624070
0.925293	1.628173
0.925391	1.633233
0.925488	1.637173
0.925586	1.639191
0.925684	1.640610
0.925781	1.639261
0.925879	1.636702
0.925977	1.636221
0.926074	1.630205
0.926172	1.623325
0.926270	1.621468
0.926367	1.621999
0.926465	1.624723
0.926562	1.628563
0.926660	1.634855
0.926758	1.642183
0.926855	1.646525
0.926953	1.646311
0.927051	1.648070
0.927148	1.638864
0.927246	1.628128
0.927344	1.622703
0.927441	1.620485
0.927539	1.619430
0.927637	1.620414
0.927734	1.621450
0.927832	1.634132
0.927930	1.639549
0.928027	1.622183
0.928125	1.616112
0.928223	1.617385
0.928320	1.618427
0.928418	1.620684
0.928516	1.623867
0.928613	1.627035
0.928711	1.630878
0.928809	1.632719
0.928906	1.631644
0.929004	1.629225
0.929102	1.620598
0.929199	1.592342
0.929297	1.589152
0.929395	1.583500
0.929492	1.584742
0.929590	1.592732
0.929687	1.605863
0.929785	1.619876
0.929883	1.631299
0.929980	1.638167
0.930078	1.639190
0.930176	1.635669
0.930273	1.632024
0.930371	1.631273
0.930469	1.636979
0.930566	1.641731
0.930664	1.640543
0.930762	1.630268
0.930859	1.626532
0.930957	1.625974
0.931055	1.623955
0.931152	1.623137
0.931250	1.622474
0.931348	1.623689
0.931445	1.626375
0.931543	1.631351
0.931641	1.637732
0.931738	1.641233
0.931836	1.636097
0.931934	1.631915
0.932031	1.632079
0.932129	1.632715
0.932227	1.632291
0.932324	1.631918
0.932422	1.636287
0.932520	1.637517
0.932617	1.636700
0.932715	1.637176
0.932812	1.634838
0.932910	1.630999
0.933008	1.628749
0.933105	1.627414
0.933203	1.626740
0.933301	1.626780
0.933398	1.629622
0.933496	1.635966
0.933594	1.649754
0.933691	1.653608
0.933789	1.642593
0.933887	1.636665
0.933984	1.635147
0.934082	1.632575
0.934180	1.624266
0.934277	1.619178
0.934375	1.619139
0.934473	1.622739
0.934570	1.626647
0.934668	1.628810
0.934766	1.629012
0.934863	1.629421
0.934961	1.630471
0.935059	1.632028
0.935156	1.634048
0.935254	1.636486
0.935352	1.637430
0.935449	1.634848
0.935547	1.632229
0.935645	1.632157
0.935742	1.635479
0.935840	1.639289
0.935937	1.640451
0.936035	1.636222
0.936133	1.636985
0.936230	1.641976
0.936328	1.632539
0.936426	1.632341
0.936523	1.634789
0.936621	1.631011
0.936719	1.625310
0.936816	1.625916
0.936914	1.631072
0.937012	1.634903
0.937109	1.638460
0.937207	1.634473
0.937305	1.627520
0.937402	1.624751
0.937500	1.626357
0.937598	1.631126
0.937695	1.644980
0.937793	1.648919
0.937891	1.633568
0.937988	1.628212
0.938086	1.620609
0.938184	1.620653
0.938281	1.620726
0.938379	1.620325
0.938477	1.621295
0.938574	1.623137
0.938672	1.624941
0.938770	1.627417
0.938867	1.630647
0.938965	1.632599
0.939062	1.633866
0.939160	1.634507
0.939258	1.645742
0.939355	1.651360
0.939453	1.632364
0.939551	1.624793
0.939648	1.626638
0.939746	1.629190
0.939844	1.628872
0.939941	1.625961
0.940039	1.624208
0.940137	1.625131
0.940234	1.629058
0.940332	1.635908
0.940430	1.641597
0.940527	1.642189
0.940625	1.642227
0.940723	1.637540
0.940820	1.631239
0.940918	1.628230
0.941016	1.626717
0.941113	1.627564
0.941211	1.630399
0.941309	1.636583
0.941406	1.641739
0.941504	1.640250
0.941602	1.633416
0.941699	1.629330
0.941797	1.628432
0.941895	1.630500
0.941992	1.633217
0.942090	1.642599
0.942187	1.648675
0.942285	1.638459
0.942383	1.631955
0.942480	1.626175
0.942578	1.623762
0.942676	1.624021
0.942773	1.634312
0.942871	1.641191
0.942969	1.620638
0.943066	1.604152
0.943164	1.610119
0.943262	1.619967
0.943359	1.623939
0.943457	1.621991
0.943555	1.620355
0.943652	1.623810
0.943750	1.630294
0.943848	1.634499
0.943945	1.633292
0.944043	1.633414
0.944141	1.629735
0.944238	1.624618
0.944336	1.619364
0.944434	1.625265
0.944531	1.633272
0.944629	1.629332
0.944727	1.621788
0.944824	1.617043
0.944922	1.617501
0.945020	1.619403
0.945117	1.622405
0.945215	1.627004
0.945312	1.631751
0.945410	1.636290
0.945508	1.637840
0.945605	1.637364
0.945703	1.635052
0.945801	1.632222
0.945898	1.627409
0.945996	1.627078
0.946094	1.630557
0.946191	1.649956
0.946289	1.653587
0.946387	1.630294
0.946484	1.626007
0.946582	1.624662
0.946680	1.625993
0.946777	1.627090
0.946875	1.626274
0.946973	1.623564
0.947070	1.623070
0.947168	1.624334
0.947266	1.627082
0.947363	1.631143
0.947461	1.634977
0.947559	1.638881
0.947656	1.645959
0.947754	1.649718
0.947852	1.637163
0.947949	1.630489
0.948047	1.630802
0.948145	1.629333
0.948242	1.629466
0.948340	1.627048
0.948437	1.625425
0.948535	1.634193
0.948633	1.648566
0.948730	1.642364
0.948828	1.634171
0.948926	1.629027
0.949023	1.627744
0.949121	1.623062
0.949219	1.623054
0.949316	1.625658
0.949414	1.630556
0.949512	1.634553
0.949609	1.635789
0.949707	1.633875
0.949805	1.632239
0.949902	1.631642
0.950000	1.642030
0.950098	1.656812
0.950195	1.632089
0.950293	1.618654
0.950391	1.623498
0.950488	1.620642
0.950586	1.620490
0.950684	1.618434
0.950781	1.624345
0.950879	1.618445
0.950977	1.618341
0.951074	1.627215
0.951172	1.624728
0.951270	1.625468
0.951367	1.620134
0.951465	1.620188
0.951562	1.622604
0.951660	1.627796
0.951758	1.634302
0.951855	1.640916
0.951953	1.639373
0.952051	1.636980
0.952148	1.631198
0.952246	1.625808
0.952344	1.624704
0.952441	1.624485
0.952539	1.625948
0.952637	1.628675
0.952734	1.630924
0.952832	1.630687
0.952930	1.630370
0.953027	1.631920
0.953125	1.637058
0.953223	1.638913
0.953320	1.632515
0.953418	1.629341
0.953516	1.628619
0.953613	1.628646
0.953711	1.628499
0.953809	1.628271
0.953906	1.628024
0.954004	1.627618
0.954102	1.629348
0.954199	1.634902
0.954297	1.643363
0.954395	1.650222
0.954492	1.650669
0.954590	1.644240
0.954687	1.633736
0.954785	1.626683
0.954883	1.624515
0.954980	1.624990
0.955078	1.626686
0.955176	1.627287
0.955273	1.627021
0.955371	1.627250
0.955469	1.629120
0.955566	1.632779
0.955664	1.636832
0.955762	1.637768
0.955859	1.635689
0.955957	1.632561
0.956055	1.631281
0.956152	1.637958
0.956250	1.656321
0.956348	1.639703
0.956445	1.624047
0.956543	1.624313
0.956641	1.629028
0.956738	1.626874
0.956836	1.619606
0.956934	1.619333
0.957031	1.619959
0.957129	1.623953
0.957227	1.626723
0.957324	1.634831
0.957422	1.640417
0.957520	1.651609
0.957617	1.652664
0.957715	1.627092
0.957812	1.620607
0.957910	1.628616
0.958008	1.632075
0.958105	1.621188
0.958203	1.614564
0.958301	1.616129
0.958398	1.620543
0.958496	1.629250
0.958594	1.635370
0.958691	1.633047
0.958789	1.637543
0.958887	1.638271
0.958984	1.638710
0.959082	1.635721
0.959180	1.634539
0.959277	1.633658
0.959375	1.633368
0.959473	1.635418
0.959570	1.641648
0.959668	1.638702
0.959766	1.631846
0.959863	1.629069
0.959961	1.627383
0.960059	1.627181
0.960156	1.624750
0.960254	1.623664
0.960352	1.624551
0.960449	1.629303
0.960547	1.637516
0.960645	1.649295
0.960742	1.643866
0.960840	1.633302
0.960937	1.626357
0.961035	1.625681
0.961133	1.624027
0.961230	1.626749
0.961328	1.620296
0.961426	1.639445
0.961523	1.653211
0.961621	1.637311
0.961719	1.626315
0.961816	1.623040
0.961914	1.623154
0.962012	1.621934
0.962109	1.622454
0.962207	1.622727
0.962305	1.624914
0.962402	1.627186
0.962500	1.630325
0.962598	1.631249
0.962695	1.631938
0.962793	1.632024
0.962891	1.633692
0.962988	1.634936
0.963086	1.637125
0.963184	1.637919
0.963281	1.641933
0.963379	1.640830
0.963477	1.641901
0.963574	1.640303
0.963672	1.629510
0.963770	1.627260
0.963867	1.623583
0.963965	1.624535
0.964062	1.624825
0.964160	1.627760
0.964258	1.629108
0.964355	1.632016
0.964453	1.631741
0.964551	1.637430
0.964648	1.638266
0.964746	1.624076
0.964844	1.615373
0.964941	1.601906
0.965039	1.597621
0.965137	1.609082
0.965234	1.618709
0.965332	1.616345
0.965430	1.620158
0.965527	1.623720
0.965625	1.635714
0.965723	1.635952
0.965820	1.645512
0.965918	1.638448
0.966016	1.618347
0.966113	1.621138
0.966211	1.624721
0.966309	1.631412
0.966406	1.635563
0.966504	1.637510
0.966602	1.634150
0.966699	1.630780
0.966797	1.628564
0.966895	1.629349
0.966992	1.633310
0.967090	1.642548
0.967187	1.648726
0.967285	1.645169
0.967383	1.637765
0.967480	1.633388
0.967578	1.631536
0.967676	1.629424
0.967773	1.626980
0.967871	1.624850
0.967969	1.623723
0.968066	1.624326
0.968164	1.627270
0.968262	1.633333
0.968359	1.642357
0.968457	1.649275
0.968555	1.647556
0.968652	1.638053
0.968750	1.632597
0.968848	1.634036
0.968945	1.630326
0.969043	1.625746
0.969141	1.623024
0.969238	1.621576
0.969336	1.621287
0.969434	1.621474
0.969531	1.622821
0.969629	1.625088
0.969727	1.629776
0.969824	1.634764
0.969922	1.639238
0.970020	1.639636
0.970117	1.636073
0.970215	1.630103
0.970312	1.626637
0.970410	1.622803
0.970508	1.623336
0.970605	1.627412
0.970703	1.642680
0.970801	1.631286
0.970898	1.594829
0.970996	1.591509
0.971094	1.588082
0.971191	1.617486
0.971289	1.626305
0.971387	1.626862
0.971484	1.626227
0.971582	1.629909
0.971680	1.631016
0.971777	1.630951
0.971875	1.630594
0.971973	1.629888
0.972070	1.629943
0.972168	1.629762
0.972266	1.629609
0.972363	1.628015
0.972461	1.627619
0.972559	1.628184
0.972656	1.638286
0.972754	1.644365
0.972852	1.634689
0.972949	1.639044
0.973047	1.633433
0.973145	1.626953
0.973242	1.623450
0.973340	1.625919
0.973437	1.634534
0.973535	1.639611
0.973633	1.632734
0.973730	1.628800
0.973828	1.629952
0.973926	1.636570
0.974023	1.629332
0.974121	1.623031
0.974219	1.622476
0.974316	1.618523
0.974414	1.621210
0.974512	1.624004
0.974609	1.633283
0.974707	1.639646
0.974805	1.638371
0.974902	1.643268
0.975000	1.635527
0.975098	1.627110
0.975195	1.623820
0.975293	1.623568
0.975391	1.625313
0.975488	1.629811
0.975586	1.633682
0.975684	1.636607
0.975781	1.629462
0.975879	1.615756
0.975977	1.595115
0.976074	1.589094
0.976172	1.599603
0.976270	1.592747
0.976367	1.596137
0.976465	1.613445

