LabVIEW Measurement	
Writer_Version	2
Reader_Version	2
Separator	Tab
Decimal_Separator	.
Multi_Headings	Yes
X_Columns	One
Time_Pref	Absolute
Operator	W-Tunnel
Date	1904/01/01
Time	01:00:00
***End_of_Header***	
	
Channels	1	
Samples	10000	
Date	2024/05/17	
Time	18:32:37.6492386562496762312	
Y_Unit_Label	Volts	
X_Dimension	Time	
X0	0.0000000000000000E+0	
Delta_X	9.765625E-5	
***End_of_Header***		
X_Value	Voltage	Comment
0.000000	1.435437
9.765625E-5	1.434522
0.000195	1.415976
0.000293	1.406937
0.000391	1.395935
0.000488	1.389464
0.000586	1.387134
0.000684	1.388214
0.000781	1.383596
0.000879	1.391730
0.000977	1.407689
0.001074	1.418315
0.001172	1.428794
0.001270	1.432815
0.001367	1.426595
0.001465	1.408856
0.001562	1.383826
0.001660	1.358397
0.001758	1.338030
0.001855	1.324325
0.001953	1.314750
0.002051	1.301428
0.002148	1.284385
0.002246	1.278017
0.002344	1.289987
0.002441	1.318880
0.002539	1.360586
0.002637	1.416592
0.002734	1.468608
0.002832	1.490381
0.002930	1.517815
0.003027	1.498075
0.003125	1.458765
0.003223	1.445433
0.003320	1.446255
0.003418	1.438631
0.003516	1.420991
0.003613	1.426344
0.003711	1.431445
0.003809	1.439312
0.003906	1.436687
0.004004	1.438424
0.004102	1.469814
0.004199	1.461592
0.004297	1.432790
0.004395	1.418120
0.004492	1.403438
0.004590	1.416902
0.004687	1.424799
0.004785	1.456070
0.004883	1.498115
0.004980	1.514297
0.005078	1.478150
0.005176	1.430917
0.005273	1.426358
0.005371	1.445488
0.005469	1.459884
0.005566	1.467137
0.005664	1.439085
0.005762	1.421851
0.005859	1.390475
0.005957	1.364932
0.006055	1.368947
0.006152	1.384365
0.006250	1.397579
0.006348	1.396464
0.006445	1.388754
0.006543	1.397927
0.006641	1.437331
0.006738	1.440406
0.006836	1.434272
0.006934	1.434246
0.007031	1.427563
0.007129	1.437243
0.007227	1.448554
0.007324	1.447133
0.007422	1.443679
0.007520	1.442865
0.007617	1.445839
0.007715	1.447661
0.007812	1.440948
0.007910	1.424287
0.008008	1.399443
0.008105	1.368833
0.008203	1.329516
0.008301	1.288008
0.008398	1.264499
0.008496	1.267100
0.008594	1.287783
0.008691	1.322994
0.008789	1.345108
0.008887	1.343635
0.008984	1.338935
0.009082	1.326189
0.009180	1.323415
0.009277	1.341172
0.009375	1.408656
0.009473	1.462681
0.009570	1.465261
0.009668	1.460751
0.009766	1.461931
0.009863	1.487509
0.009961	1.508262
0.010059	1.495529
0.010156	1.470261
0.010254	1.464613
0.010352	1.478304
0.010449	1.483657
0.010547	1.490616
0.010645	1.494348
0.010742	1.491184
0.010840	1.471835
0.010937	1.468916
0.011035	1.460468
0.011133	1.432128
0.011230	1.400304
0.011328	1.360378
0.011426	1.330468
0.011523	1.309555
0.011621	1.298900
0.011719	1.311269
0.011816	1.335275
0.011914	1.347744
0.012012	1.354810
0.012109	1.359708
0.012207	1.363557
0.012305	1.363168
0.012402	1.359810
0.012500	1.353810
0.012598	1.349978
0.012695	1.353629
0.012793	1.366438
0.012891	1.379020
0.012988	1.388293
0.013086	1.389684
0.013184	1.379931
0.013281	1.358981
0.013379	1.329864
0.013477	1.297408
0.013574	1.269570
0.013672	1.254748
0.013770	1.256089
0.013867	1.270492
0.013965	1.283912
0.014062	1.284266
0.014160	1.272366
0.014258	1.259881
0.014355	1.257351
0.014453	1.266996
0.014551	1.283023
0.014648	1.296603
0.014746	1.297670
0.014844	1.282813
0.014941	1.259596
0.015039	1.249594
0.015137	1.273090
0.015234	1.316109
0.015332	1.341484
0.015430	1.353571
0.015527	1.368993
0.015625	1.386764
0.015723	1.399619
0.015820	1.401607
0.015918	1.372047
0.016016	1.315284
0.016113	1.289918
0.016211	1.310744
0.016309	1.324628
0.016406	1.317862
0.016504	1.309105
0.016602	1.292279
0.016699	1.282193
0.016797	1.302325
0.016895	1.350287
0.016992	1.401499
0.017090	1.422768
0.017187	1.425584
0.017285	1.413796
0.017383	1.387860
0.017480	1.358671
0.017578	1.334813
0.017676	1.328207
0.017773	1.357812
0.017871	1.403674
0.017969	1.424272
0.018066	1.428806
0.018164	1.434155
0.018262	1.435742
0.018359	1.426143
0.018457	1.430443
0.018555	1.461437
0.018652	1.473986
0.018750	1.465650
0.018848	1.431863
0.018945	1.428192
0.019043	1.419690
0.019141	1.394866
0.019238	1.389585
0.019336	1.406771
0.019434	1.419925
0.019531	1.425290
0.019629	1.429970
0.019727	1.418228
0.019824	1.386343
0.019922	1.386263
0.020020	1.421501
0.020117	1.424976
0.020215	1.426632
0.020312	1.426409
0.020410	1.419749
0.020508	1.424724
0.020605	1.453646
0.020703	1.459996
0.020801	1.422475
0.020898	1.435710
0.020996	1.484265
0.021094	1.485603
0.021191	1.470970
0.021289	1.460066
0.021387	1.474030
0.021484	1.507903
0.021582	1.515252
0.021680	1.502662
0.021777	1.496211
0.021875	1.458827
0.021973	1.426313
0.022070	1.420566
0.022168	1.448263
0.022266	1.501851
0.022363	1.513949
0.022461	1.498350
0.022559	1.499841
0.022656	1.503072
0.022754	1.498358
0.022852	1.502295
0.022949	1.522850
0.023047	1.535236
0.023145	1.539161
0.023242	1.553076
0.023340	1.562980
0.023437	1.564174
0.023535	1.558524
0.023633	1.540922
0.023730	1.520140
0.023828	1.502511
0.023926	1.496780
0.024023	1.501899
0.024121	1.504100
0.024219	1.497718
0.024316	1.509037
0.024414	1.532675
0.024512	1.524035
0.024609	1.552404
0.024707	1.560620
0.024805	1.546337
0.024902	1.539892
0.025000	1.557556
0.025098	1.557894
0.025195	1.545087
0.025293	1.515002
0.025391	1.511768
0.025488	1.501069
0.025586	1.473811
0.025684	1.469543
0.025781	1.486215
0.025879	1.499198
0.025977	1.503985
0.026074	1.500475
0.026172	1.502782
0.026270	1.510831
0.026367	1.551836
0.026465	1.575870
0.026562	1.537190
0.026660	1.507470
0.026758	1.508428
0.026855	1.489718
0.026953	1.469677
0.027051	1.458996
0.027148	1.451806
0.027246	1.458701
0.027344	1.459032
0.027441	1.446841
0.027539	1.445578
0.027637	1.450724
0.027734	1.426847
0.027832	1.392619
0.027930	1.364949
0.028027	1.328929
0.028125	1.305960
0.028223	1.322083
0.028320	1.320260
0.028418	1.315566
0.028516	1.309034
0.028613	1.286438
0.028711	1.274987
0.028809	1.312279
0.028906	1.337320
0.029004	1.339604
0.029102	1.356676
0.029199	1.337761
0.029297	1.316683
0.029395	1.305706
0.029492	1.307200
0.029590	1.309833
0.029687	1.308885
0.029785	1.316958
0.029883	1.343650
0.029980	1.363188
0.030078	1.358837
0.030176	1.341952
0.030273	1.322720
0.030371	1.302083
0.030469	1.280461
0.030566	1.260302
0.030664	1.244117
0.030762	1.249119
0.030859	1.283296
0.030957	1.309820
0.031055	1.331244
0.031152	1.348458
0.031250	1.350050
0.031348	1.349753
0.031445	1.344837
0.031543	1.362651
0.031641	1.406603
0.031738	1.419800
0.031836	1.415821
0.031934	1.418977
0.032031	1.396860
0.032129	1.359096
0.032227	1.337310
0.032324	1.348947
0.032422	1.383115
0.032520	1.397083
0.032617	1.406557
0.032715	1.410366
0.032812	1.428143
0.032910	1.444118
0.033008	1.436765
0.033105	1.414840
0.033203	1.393076
0.033301	1.375629
0.033398	1.390285
0.033496	1.405802
0.033594	1.402863
0.033691	1.402955
0.033789	1.402186
0.033887	1.400866
0.033984	1.394630
0.034082	1.381766
0.034180	1.362212
0.034277	1.349125
0.034375	1.347411
0.034473	1.355929
0.034570	1.369351
0.034668	1.394310
0.034766	1.422322
0.034863	1.439985
0.034961	1.446785
0.035059	1.447400
0.035156	1.445622
0.035254	1.440898
0.035352	1.429597
0.035449	1.416679
0.035547	1.406544
0.035645	1.399160
0.035742	1.395101
0.035840	1.390085
0.035937	1.385468
0.036035	1.381902
0.036133	1.377072
0.036230	1.373159
0.036328	1.370564
0.036426	1.368240
0.036523	1.365475
0.036621	1.362652
0.036719	1.359185
0.036816	1.353842
0.036914	1.344626
0.037012	1.330463
0.037109	1.313594
0.037207	1.298152
0.037305	1.285816
0.037402	1.277521
0.037500	1.273560
0.037598	1.272259
0.037695	1.270274
0.037793	1.267202
0.037891	1.265094
0.037988	1.269905
0.038086	1.291789
0.038184	1.314860
0.038281	1.324376
0.038379	1.326543
0.038477	1.327048
0.038574	1.330788
0.038672	1.339923
0.038770	1.359326
0.038867	1.383592
0.038965	1.396088
0.039062	1.396651
0.039160	1.393590
0.039258	1.392175
0.039355	1.393530
0.039453	1.400293
0.039551	1.412483
0.039648	1.430196
0.039746	1.448028
0.039844	1.455831
0.039941	1.450410
0.040039	1.437131
0.040137	1.423285
0.040234	1.412571
0.040332	1.408979
0.040430	1.407521
0.040527	1.409732
0.040625	1.413753
0.040723	1.410417
0.040820	1.404041
0.040918	1.398030
0.041016	1.394280
0.041113	1.391929
0.041211	1.390563
0.041309	1.386506
0.041406	1.381373
0.041504	1.385734
0.041602	1.395264
0.041699	1.398347
0.041797	1.405951
0.041895	1.424988
0.041992	1.461802
0.042090	1.493038
0.042187	1.479169
0.042285	1.455096
0.042383	1.449541
0.042480	1.446117
0.042578	1.438142
0.042676	1.433285
0.042773	1.424837
0.042871	1.410713
0.042969	1.393246
0.043066	1.374651
0.043164	1.354994
0.043262	1.335221
0.043359	1.315597
0.043457	1.297766
0.043555	1.287008
0.043652	1.286198
0.043750	1.294672
0.043848	1.306891
0.043945	1.320641
0.044043	1.331075
0.044141	1.336789
0.044238	1.347480
0.044336	1.359656
0.044434	1.370584
0.044531	1.390507
0.044629	1.401054
0.044727	1.390513
0.044824	1.377000
0.044922	1.371933
0.045020	1.363138
0.045117	1.345685
0.045215	1.325600
0.045312	1.331850
0.045410	1.344728
0.045508	1.337465
0.045605	1.322859
0.045703	1.306785
0.045801	1.291133
0.045898	1.280942
0.045996	1.282618
0.046094	1.299728
0.046191	1.318034
0.046289	1.332227
0.046387	1.338199
0.046484	1.334884
0.046582	1.335966
0.046680	1.337585
0.046777	1.331217
0.046875	1.324250
0.046973	1.340448
0.047070	1.361468
0.047168	1.371469
0.047266	1.368520
0.047363	1.375122
0.047461	1.389166
0.047559	1.381521
0.047656	1.366550
0.047754	1.344129
0.047852	1.327545
0.047949	1.334612
0.048047	1.361323
0.048145	1.374071
0.048242	1.382465
0.048340	1.398512
0.048437	1.406069
0.048535	1.400552
0.048633	1.396464
0.048730	1.411806
0.048828	1.424544
0.048926	1.427090
0.049023	1.411825
0.049121	1.412366
0.049219	1.420613
0.049316	1.412950
0.049414	1.404310
0.049512	1.411330
0.049609	1.444530
0.049707	1.460687
0.049805	1.463940
0.049902	1.454182
0.050000	1.450649
0.050098	1.430221
0.050195	1.398744
0.050293	1.385115
0.050391	1.392295
0.050488	1.401102
0.050586	1.401989
0.050684	1.395276
0.050781	1.395088
0.050879	1.406889
0.050977	1.422138
0.051074	1.445601
0.051172	1.477217
0.051270	1.489470
0.051367	1.484113
0.051465	1.479489
0.051562	1.485424
0.051660	1.458226
0.051758	1.448698
0.051855	1.464488
0.051953	1.471344
0.052051	1.479743
0.052148	1.486817
0.052246	1.483134
0.052344	1.482429
0.052441	1.489613
0.052539	1.497855
0.052637	1.505330
0.052734	1.520901
0.052832	1.525770
0.052930	1.510573
0.053027	1.488467
0.053125	1.474481
0.053223	1.477690
0.053320	1.490405
0.053418	1.492863
0.053516	1.486324
0.053613	1.485614
0.053711	1.504151
0.053809	1.498995
0.053906	1.497656
0.054004	1.514378
0.054102	1.509682
0.054199	1.510274
0.054297	1.504471
0.054395	1.509100
0.054492	1.513799
0.054590	1.511265
0.054687	1.497534
0.054785	1.485439
0.054883	1.479552
0.054980	1.478708
0.055078	1.476055
0.055176	1.473568
0.055273	1.471221
0.055371	1.440439
0.055469	1.399305
0.055566	1.372977
0.055664	1.351647
0.055762	1.339856
0.055859	1.351287
0.055957	1.380398
0.056055	1.406666
0.056152	1.423984
0.056250	1.430838
0.056348	1.416081
0.056445	1.389900
0.056543	1.377963
0.056641	1.375320
0.056738	1.370619
0.056836	1.359936
0.056934	1.355465
0.057031	1.342222
0.057129	1.326751
0.057227	1.313673
0.057324	1.302515
0.057422	1.290094
0.057520	1.277882
0.057617	1.267932
0.057715	1.262545
0.057812	1.261601
0.057910	1.264531
0.058008	1.267857
0.058105	1.271880
0.058203	1.275947
0.058301	1.279833
0.058398	1.277955
0.058496	1.275233
0.058594	1.282814
0.058691	1.316611
0.058789	1.354789
0.058887	1.386365
0.058984	1.424367
0.059082	1.449540
0.059180	1.464573
0.059277	1.480446
0.059375	1.479099
0.059473	1.464923
0.059570	1.460009
0.059668	1.456827
0.059766	1.464368
0.059863	1.463557
0.059961	1.466409
0.060059	1.482394
0.060156	1.515045
0.060254	1.531597
0.060352	1.545674
0.060449	1.563737
0.060547	1.536587
0.060645	1.478590
0.060742	1.433267
0.060840	1.403225
0.060937	1.404989
0.061035	1.461725
0.061133	1.480181
0.061230	1.482667
0.061328	1.500343
0.061426	1.501683
0.061523	1.496455
0.061621	1.532961
0.061719	1.559041
0.061816	1.565071
0.061914	1.595926
0.062012	1.614337
0.062109	1.628132
0.062207	1.579114
0.062305	1.526857
0.062402	1.520582
0.062500	1.514567
0.062598	1.478338
0.062695	1.486518
0.062793	1.545139
0.062891	1.530208
0.062988	1.490154
0.063086	1.492742
0.063184	1.534909
0.063281	1.539435
0.063379	1.503626
0.063477	1.508975
0.063574	1.528236
0.063672	1.508245
0.063770	1.510889
0.063867	1.484858
0.063965	1.491638
0.064062	1.524382
0.064160	1.514809
0.064258	1.502850
0.064355	1.460816
0.064453	1.412011
0.064551	1.418285
0.064648	1.482174
0.064746	1.501027
0.064844	1.496714
0.064941	1.497558
0.065039	1.483384
0.065137	1.477914
0.065234	1.462685
0.065332	1.519586
0.065430	1.580950
0.065527	1.593735
0.065625	1.599335
0.065723	1.576865
0.065820	1.569788
0.065918	1.598930
0.066016	1.596916
0.066113	1.593242
0.066211	1.603854
0.066309	1.606728
0.066406	1.596168
0.066504	1.593767
0.066602	1.607005
0.066699	1.603062
0.066797	1.568330
0.066895	1.576064
0.066992	1.598188
0.067090	1.627956
0.067187	1.629740
0.067285	1.611694
0.067383	1.617686
0.067480	1.598083
0.067578	1.584294
0.067676	1.567625
0.067773	1.572809
0.067871	1.582695
0.067969	1.576700
0.068066	1.606518
0.068164	1.629952
0.068262	1.627107
0.068359	1.651737
0.068457	1.641965
0.068555	1.598307
0.068652	1.592375
0.068750	1.593276
0.068848	1.566557
0.068945	1.603597
0.069043	1.589840
0.069141	1.538263
0.069238	1.535354
0.069336	1.571278
0.069434	1.578541
0.069531	1.575813
0.069629	1.539201
0.069727	1.519839
0.069824	1.493828
0.069922	1.468352
0.070020	1.442413
0.070117	1.388206
0.070215	1.350945
0.070312	1.336682
0.070410	1.332861
0.070508	1.347926
0.070605	1.403846
0.070703	1.437983
0.070801	1.446782
0.070898	1.443442
0.070996	1.437538
0.071094	1.436645
0.071191	1.437188
0.071289	1.463118
0.071387	1.500956
0.071484	1.508897
0.071582	1.514084
0.071680	1.495878
0.071777	1.456660
0.071875	1.419583
0.071973	1.405948
0.072070	1.406775
0.072168	1.456325
0.072266	1.489650
0.072363	1.495056
0.072461	1.498146
0.072559	1.489849
0.072656	1.450632
0.072754	1.431348
0.072852	1.439575
0.072949	1.452058
0.073047	1.459461
0.073145	1.433646
0.073242	1.422653
0.073340	1.400104
0.073437	1.370566
0.073535	1.360397
0.073633	1.360477
0.073730	1.369840
0.073828	1.369502
0.073926	1.366044
0.074023	1.347724
0.074121	1.346462
0.074219	1.350670
0.074316	1.319072
0.074414	1.318187
0.074512	1.366349
0.074609	1.416792
0.074707	1.416364
0.074805	1.414788
0.074902	1.407402
0.075000	1.387386
0.075098	1.366762
0.075195	1.344969
0.075293	1.321093
0.075391	1.302757
0.075488	1.282349
0.075586	1.259230
0.075684	1.247198
0.075781	1.244024
0.075879	1.256980
0.075977	1.283399
0.076074	1.304670
0.076172	1.339890
0.076270	1.340356
0.076367	1.356668
0.076465	1.394438
0.076562	1.411118
0.076660	1.420770
0.076758	1.419081
0.076855	1.427104
0.076953	1.427541
0.077051	1.384031
0.077148	1.331480
0.077246	1.386613
0.077344	1.449735
0.077441	1.478917
0.077539	1.453045
0.077637	1.468371
0.077734	1.511536
0.077832	1.506230
0.077930	1.505090
0.078027	1.475429
0.078125	1.476373
0.078223	1.526700
0.078320	1.530733
0.078418	1.516070
0.078516	1.512851
0.078613	1.556582
0.078711	1.588806
0.078809	1.599190
0.078906	1.569103
0.079004	1.572144
0.079102	1.593379
0.079199	1.569076
0.079297	1.572240
0.079395	1.587361
0.079492	1.604454
0.079590	1.619491
0.079687	1.624507
0.079785	1.606400
0.079883	1.569073
0.079980	1.579323
0.080078	1.561597
0.080176	1.580114
0.080273	1.567504
0.080371	1.561101
0.080469	1.591554
0.080566	1.586934
0.080664	1.569270
0.080762	1.542231
0.080859	1.528494
0.080957	1.538392
0.081055	1.529576
0.081152	1.529090
0.081250	1.530849
0.081348	1.574460
0.081445	1.562658
0.081543	1.542388
0.081641	1.533732
0.081738	1.533425
0.081836	1.539722
0.081934	1.539985
0.082031	1.534784
0.082129	1.565788
0.082227	1.563463
0.082324	1.557288
0.082422	1.567383
0.082520	1.560700
0.082617	1.524675
0.082715	1.514413
0.082812	1.500724
0.082910	1.517208
0.083008	1.525673
0.083105	1.504913
0.083203	1.518557
0.083301	1.516871
0.083398	1.515525
0.083496	1.510891
0.083594	1.527013
0.083691	1.512620
0.083789	1.488733
0.083887	1.463575
0.083984	1.451364
0.084082	1.492734
0.084180	1.515365
0.084277	1.524613
0.084375	1.552914
0.084473	1.569470
0.084570	1.534377
0.084668	1.497744
0.084766	1.473545
0.084863	1.503956
0.084961	1.556112
0.085059	1.556618
0.085156	1.537633
0.085254	1.526456
0.085352	1.527105
0.085449	1.531385
0.085547	1.549186
0.085645	1.564276
0.085742	1.562389
0.085840	1.528969
0.085937	1.507685
0.086035	1.501247
0.086133	1.520609
0.086230	1.501855
0.086328	1.490383
0.086426	1.508082
0.086523	1.512350
0.086621	1.481215
0.086719	1.502959
0.086816	1.534647
0.086914	1.527667
0.087012	1.516214
0.087109	1.479598
0.087207	1.483247
0.087305	1.477497
0.087402	1.483659
0.087500	1.495994
0.087598	1.495289
0.087695	1.493903
0.087793	1.498276
0.087891	1.505527
0.087988	1.504208
0.088086	1.493306
0.088184	1.468435
0.088281	1.440951
0.088379	1.412988
0.088477	1.389296
0.088574	1.365655
0.088672	1.344056
0.088770	1.328280
0.088867	1.321587
0.088965	1.322662
0.089062	1.329212
0.089160	1.335237
0.089258	1.333729
0.089355	1.323628
0.089453	1.311489
0.089551	1.298867
0.089648	1.287717
0.089746	1.282710
0.089844	1.294522
0.089941	1.326482
0.090039	1.373736
0.090137	1.420317
0.090234	1.452958
0.090332	1.479172
0.090430	1.488547
0.090527	1.488652
0.090625	1.494946
0.090723	1.460914
0.090820	1.443040
0.090918	1.429791
0.091016	1.432094
0.091113	1.445386
0.091211	1.445311
0.091309	1.456824
0.091406	1.459100
0.091504	1.486481
0.091602	1.501409
0.091699	1.512385
0.091797	1.525683
0.091895	1.527690
0.091992	1.491779
0.092090	1.485352
0.092187	1.485861
0.092285	1.518066
0.092383	1.533921
0.092480	1.550013
0.092578	1.554617
0.092676	1.531237
0.092773	1.521815
0.092871	1.529496
0.092969	1.535006
0.093066	1.514967
0.093164	1.527429
0.093262	1.512697
0.093359	1.482665
0.093457	1.462018
0.093555	1.459637
0.093652	1.475152
0.093750	1.488456
0.093848	1.499283
0.093945	1.499338
0.094043	1.496753
0.094141	1.502806
0.094238	1.510305
0.094336	1.511753
0.094434	1.511072
0.094531	1.511522
0.094629	1.511376
0.094727	1.513348
0.094824	1.510918
0.094922	1.514793
0.095020	1.505853
0.095117	1.487239
0.095215	1.477671
0.095312	1.465125
0.095410	1.487563
0.095508	1.470825
0.095605	1.441545
0.095703	1.443224
0.095801	1.435483
0.095898	1.434553
0.095996	1.450748
0.096094	1.459510
0.096191	1.478985
0.096289	1.493117
0.096387	1.505283
0.096484	1.511920
0.096582	1.532281
0.096680	1.549729
0.096777	1.551060
0.096875	1.554821
0.096973	1.555251
0.097070	1.555506
0.097168	1.556459
0.097266	1.561938
0.097363	1.560224
0.097461	1.549626
0.097559	1.552429
0.097656	1.568697
0.097754	1.558631
0.097852	1.567211
0.097949	1.550768
0.098047	1.558957
0.098145	1.613292
0.098242	1.611002
0.098340	1.567482
0.098437	1.556092
0.098535	1.559033
0.098633	1.538893
0.098730	1.510716
0.098828	1.479257
0.098926	1.475523
0.099023	1.503316
0.099121	1.479554
0.099219	1.488371
0.099316	1.497695
0.099414	1.504895
0.099512	1.515983
0.099609	1.509159
0.099707	1.484256
0.099805	1.448149
0.099902	1.426694
0.100000	1.454252
0.100098	1.467772
0.100195	1.464928
0.100293	1.449981
0.100391	1.436574
0.100488	1.439626
0.100586	1.433683
0.100684	1.454303
0.100781	1.461247
0.100879	1.460353
0.100977	1.447320
0.101074	1.429699
0.101172	1.419630
0.101270	1.452104
0.101367	1.492068
0.101465	1.506645
0.101562	1.497724
0.101660	1.479149
0.101758	1.487282
0.101855	1.520516
0.101953	1.548407
0.102051	1.542114
0.102148	1.527698
0.102246	1.515479
0.102344	1.496799
0.102441	1.459626
0.102539	1.396707
0.102637	1.325193
0.102734	1.303188
0.102832	1.305512
0.102930	1.309615
0.103027	1.354889
0.103125	1.401262
0.103223	1.410032
0.103320	1.426254
0.103418	1.464687
0.103516	1.478075
0.103613	1.483133
0.103711	1.507605
0.103809	1.512364
0.103906	1.502038
0.104004	1.504498
0.104102	1.473574
0.104199	1.466962
0.104297	1.496911
0.104395	1.511219
0.104492	1.509728
0.104590	1.509518
0.104687	1.506104
0.104785	1.511152
0.104883	1.517961
0.104980	1.528874
0.105078	1.525873
0.105176	1.503905
0.105273	1.500260
0.105371	1.507063
0.105469	1.526914
0.105566	1.537033
0.105664	1.539547
0.105762	1.548971
0.105859	1.501975
0.105957	1.489054
0.106055	1.516038
0.106152	1.479790
0.106250	1.530585
0.106348	1.557050
0.106445	1.540216
0.106543	1.521223
0.106641	1.510879
0.106738	1.491153
0.106836	1.483359
0.106934	1.497032
0.107031	1.507599
0.107129	1.517269
0.107227	1.544234
0.107324	1.569873
0.107422	1.579432
0.107520	1.576281
0.107617	1.573947
0.107715	1.583733
0.107812	1.588878
0.107910	1.597740
0.108008	1.601164
0.108105	1.605107
0.108203	1.605967
0.108301	1.610903
0.108398	1.614051
0.108496	1.620437
0.108594	1.620743
0.108691	1.628728
0.108789	1.631310
0.108887	1.647834
0.108984	1.638532
0.109082	1.617246
0.109180	1.644170
0.109277	1.670450
0.109375	1.653829
0.109473	1.645244
0.109570	1.636824
0.109668	1.621034
0.109766	1.591611
0.109863	1.580734
0.109961	1.643253
0.110059	1.617636
0.110156	1.631738
0.110254	1.632615
0.110352	1.619148
0.110449	1.599491
0.110547	1.600257
0.110645	1.593514
0.110742	1.584011
0.110840	1.585418
0.110937	1.589862
0.111035	1.588615
0.111133	1.592233
0.111230	1.589830
0.111328	1.604930
0.111426	1.585888
0.111523	1.556616
0.111621	1.515794
0.111719	1.520268
0.111816	1.509740
0.111914	1.486872
0.112012	1.452288
0.112109	1.470365
0.112207	1.467294
0.112305	1.495201
0.112402	1.517740
0.112500	1.523500
0.112598	1.508720
0.112695	1.506407
0.112793	1.484549
0.112891	1.408227
0.112988	1.415663
0.113086	1.398524
0.113184	1.373981
0.113281	1.364013
0.113379	1.339652
0.113477	1.335854
0.113574	1.316457
0.113672	1.327178
0.113770	1.333716
0.113867	1.321223
0.113965	1.314055
0.114062	1.273612
0.114160	1.247899
0.114258	1.243419
0.114355	1.297610
0.114453	1.345160
0.114551	1.324272
0.114648	1.345872
0.114746	1.413052
0.114844	1.520653
0.114941	1.538203
0.115039	1.549629
0.115137	1.554952
0.115234	1.569268
0.115332	1.573168
0.115430	1.577130
0.115527	1.583058
0.115625	1.592850
0.115723	1.578012
0.115820	1.568093
0.115918	1.581971
0.116016	1.591535
0.116113	1.601303
0.116211	1.603476
0.116309	1.566380
0.116406	1.523462
0.116504	1.536070
0.116602	1.542771
0.116699	1.566540
0.116797	1.587787
0.116895	1.583806
0.116992	1.562533
0.117090	1.552325
0.117187	1.542418
0.117285	1.525304
0.117383	1.509582
0.117480	1.491695
0.117578	1.462054
0.117676	1.421846
0.117773	1.387644
0.117871	1.359928
0.117969	1.353079
0.118066	1.356635
0.118164	1.354803
0.118262	1.352147
0.118359	1.347927
0.118457	1.348579
0.118555	1.342774
0.118652	1.333225
0.118750	1.346016
0.118848	1.336536
0.118945	1.314877
0.119043	1.310809
0.119141	1.291851
0.119238	1.263536
0.119336	1.252440
0.119434	1.282768
0.119531	1.316871
0.119629	1.327347
0.119727	1.324811
0.119824	1.309385
0.119922	1.288623
0.120020	1.273366
0.120117	1.269837
0.120215	1.279137
0.120312	1.297850
0.120410	1.319426
0.120508	1.341875
0.120605	1.363225
0.120703	1.375337
0.120801	1.377590
0.120898	1.374981
0.120996	1.371756
0.121094	1.362211
0.121191	1.345256
0.121289	1.330635
0.121387	1.317892
0.121484	1.301839
0.121582	1.288292
0.121680	1.290445
0.121777	1.288554
0.121875	1.286389
0.121973	1.303957
0.122070	1.334500
0.122168	1.357166
0.122266	1.353216
0.122363	1.354103
0.122461	1.378635
0.122559	1.400910
0.122656	1.438845
0.122754	1.482048
0.122852	1.500412
0.122949	1.492801
0.123047	1.467841
0.123145	1.451114
0.123242	1.445276
0.123340	1.456271
0.123437	1.460497
0.123535	1.448091
0.123633	1.429983
0.123730	1.414822
0.123828	1.404107
0.123926	1.401412
0.124023	1.369537
0.124121	1.359506
0.124219	1.423378
0.124316	1.456671
0.124414	1.465761
0.124512	1.467521
0.124609	1.489750
0.124707	1.492381
0.124805	1.465072
0.124902	1.405497
0.125000	1.434470
0.125098	1.448999
0.125195	1.456902
0.125293	1.461515
0.125391	1.463969
0.125488	1.466350
0.125586	1.469318
0.125684	1.477853
0.125781	1.498628
0.125879	1.524342
0.125977	1.516274
0.126074	1.507044
0.126172	1.515847
0.126270	1.513033
0.126367	1.506311
0.126465	1.508959
0.126562	1.497978
0.126660	1.483833
0.126758	1.494700
0.126855	1.525762
0.126953	1.505636
0.127051	1.475196
0.127148	1.505085
0.127246	1.526407
0.127344	1.544133
0.127441	1.521179
0.127539	1.491299
0.127637	1.504380
0.127734	1.502431
0.127832	1.489589
0.127930	1.486191
0.128027	1.496477
0.128125	1.492802
0.128223	1.486921
0.128320	1.468751
0.128418	1.482768
0.128516	1.509552
0.128613	1.497017
0.128711	1.494619
0.128809	1.480661
0.128906	1.464615
0.129004	1.464867
0.129102	1.470825
0.129199	1.554359
0.129297	1.578599
0.129395	1.586101
0.129492	1.585755
0.129590	1.570044
0.129687	1.570205
0.129785	1.585376
0.129883	1.570494
0.129980	1.559931
0.130078	1.545922
0.130176	1.562107
0.130273	1.586777
0.130371	1.607016
0.130469	1.593933
0.130566	1.577270
0.130664	1.563408
0.130762	1.559342
0.130859	1.533326
0.130957	1.519836
0.131055	1.527644
0.131152	1.533252
0.131250	1.532556
0.131348	1.512032
0.131445	1.483432
0.131543	1.461064
0.131641	1.426209
0.131738	1.419075
0.131836	1.469790
0.131934	1.505740
0.132031	1.526705
0.132129	1.534199
0.132227	1.546756
0.132324	1.544510
0.132422	1.551158
0.132520	1.533467
0.132617	1.501986
0.132715	1.478884
0.132812	1.459231
0.132910	1.441146
0.133008	1.429887
0.133105	1.430211
0.133203	1.425564
0.133301	1.420759
0.133398	1.401961
0.133496	1.404080
0.133594	1.426152
0.133691	1.424192
0.133789	1.412861
0.133887	1.412670
0.133984	1.424027
0.134082	1.425880
0.134180	1.430880
0.134277	1.456955
0.134375	1.476630
0.134473	1.505145
0.134570	1.535514
0.134668	1.524288
0.134766	1.541938
0.134863	1.548107
0.134961	1.492975
0.135059	1.458193
0.135156	1.411714
0.135254	1.343149
0.135352	1.322579
0.135449	1.306727
0.135547	1.292815
0.135645	1.310171
0.135742	1.296599
0.135840	1.296637
0.135937	1.336302
0.136035	1.362167
0.136133	1.345072
0.136230	1.342534
0.136328	1.363947
0.136426	1.345768
0.136523	1.321515
0.136621	1.347188
0.136719	1.367351
0.136816	1.376039
0.136914	1.373012
0.137012	1.388130
0.137109	1.399704
0.137207	1.388690
0.137305	1.383554
0.137402	1.370478
0.137500	1.438048
0.137598	1.489378
0.137695	1.483836
0.137793	1.481310
0.137891	1.488821
0.137988	1.489979
0.138086	1.484012
0.138184	1.477707
0.138281	1.446747
0.138379	1.415255
0.138477	1.402414
0.138574	1.408586
0.138672	1.445953
0.138770	1.488280
0.138867	1.522696
0.138965	1.569963
0.139062	1.536664
0.139160	1.562770
0.139258	1.532633
0.139355	1.460075
0.139453	1.453650
0.139551	1.481773
0.139648	1.541013
0.139746	1.573105
0.139844	1.567837
0.139941	1.543966
0.140039	1.520371
0.140137	1.490106
0.140234	1.498275
0.140332	1.477308
0.140430	1.464792
0.140527	1.501130
0.140625	1.509061
0.140723	1.489353
0.140820	1.488093
0.140918	1.510144
0.141016	1.540562
0.141113	1.549205
0.141211	1.533941
0.141309	1.527156
0.141406	1.529575
0.141504	1.538887
0.141602	1.528342
0.141699	1.538154
0.141797	1.537315
0.141895	1.546941
0.141992	1.556600
0.142090	1.534724
0.142187	1.515653
0.142285	1.521029
0.142383	1.524854
0.142480	1.540006
0.142578	1.551736
0.142676	1.557405
0.142773	1.598418
0.142871	1.579610
0.142969	1.570439
0.143066	1.565698
0.143164	1.558214
0.143262	1.547192
0.143359	1.525290
0.143457	1.453104
0.143555	1.395574
0.143652	1.372994
0.143750	1.383038
0.143848	1.513659
0.143945	1.518211
0.144043	1.479354
0.144141	1.534572
0.144238	1.540613
0.144336	1.555299
0.144434	1.510240
0.144531	1.479586
0.144629	1.446137
0.144727	1.393226
0.144824	1.363637
0.144922	1.328282
0.145020	1.291773
0.145117	1.298869
0.145215	1.310429
0.145312	1.437111
0.145410	1.510586
0.145508	1.484615
0.145605	1.540984
0.145703	1.568108
0.145801	1.504814
0.145898	1.510408
0.145996	1.545064
0.146094	1.567548
0.146191	1.554818
0.146289	1.573133
0.146387	1.545137
0.146484	1.516657
0.146582	1.544067
0.146680	1.568728
0.146777	1.574712
0.146875	1.543694
0.146973	1.527504
0.147070	1.546053
0.147168	1.524709
0.147266	1.498042
0.147363	1.504598
0.147461	1.500172
0.147559	1.501991
0.147656	1.511785
0.147754	1.487178
0.147852	1.509606
0.147949	1.542157
0.148047	1.528561
0.148145	1.519684
0.148242	1.526414
0.148340	1.546367
0.148437	1.531063
0.148535	1.517493
0.148633	1.474607
0.148730	1.423486
0.148828	1.369954
0.148926	1.363390
0.149023	1.360740
0.149121	1.335712
0.149219	1.321218
0.149316	1.285661
0.149414	1.280760
0.149512	1.352005
0.149609	1.405996
0.149707	1.410361
0.149805	1.424468
0.149902	1.441717
0.150000	1.462182
0.150098	1.484707
0.150195	1.501563
0.150293	1.480326
0.150391	1.457644
0.150488	1.451107
0.150586	1.452072
0.150684	1.475818
0.150781	1.442168
0.150879	1.405571
0.150977	1.326475
0.151074	1.288771
0.151172	1.302070
0.151270	1.330205
0.151367	1.341384
0.151465	1.326945
0.151562	1.318022
0.151660	1.290660
0.151758	1.329728
0.151855	1.397228
0.151953	1.424319
0.152051	1.416270
0.152148	1.343785
0.152246	1.298863
0.152344	1.293896
0.152441	1.307373
0.152539	1.323222
0.152637	1.307226
0.152734	1.294003
0.152832	1.287166
0.152930	1.282688
0.153027	1.278022
0.153125	1.288320
0.153223	1.313342
0.153320	1.323710
0.153418	1.318947
0.153516	1.310639
0.153613	1.299585
0.153711	1.296820
0.153809	1.311823
0.153906	1.338398
0.154004	1.368606
0.154102	1.380895
0.154199	1.373663
0.154297	1.363076
0.154395	1.356535
0.154492	1.356434
0.154590	1.362431
0.154687	1.369470
0.154785	1.368810
0.154883	1.364861
0.154980	1.372995
0.155078	1.385693
0.155176	1.391490
0.155273	1.392517
0.155371	1.382995
0.155469	1.356212
0.155566	1.333658
0.155664	1.325640
0.155762	1.323919
0.155859	1.331285
0.155957	1.350014
0.156055	1.354540
0.156152	1.362786
0.156250	1.382166
0.156348	1.390381
0.156445	1.364220
0.156543	1.373070
0.156641	1.409710
0.156738	1.419046
0.156836	1.414333
0.156934	1.419742
0.157031	1.428541
0.157129	1.419455
0.157227	1.391624
0.157324	1.389936
0.157422	1.417300
0.157520	1.434744
0.157617	1.446159
0.157715	1.452182
0.157812	1.460615
0.157910	1.459040
0.158008	1.456923
0.158105	1.443660
0.158203	1.417501
0.158301	1.377325
0.158398	1.340583
0.158496	1.362433
0.158594	1.422250
0.158691	1.462145
0.158789	1.477887
0.158887	1.495634
0.158984	1.505534
0.159082	1.511800
0.159180	1.513925
0.159277	1.506698
0.159375	1.503441
0.159473	1.501497
0.159570	1.499385
0.159668	1.484290
0.159766	1.473413
0.159863	1.474905
0.159961	1.485768
0.160059	1.499115
0.160156	1.510462
0.160254	1.505948
0.160352	1.498855
0.160449	1.497093
0.160547	1.502283
0.160645	1.520693
0.160742	1.488387
0.160840	1.445319
0.160937	1.396832
0.161035	1.402021
0.161133	1.441138
0.161230	1.429482
0.161328	1.410939
0.161426	1.412290
0.161523	1.411283
0.161621	1.435187
0.161719	1.484933
0.161816	1.485656
0.161914	1.484799
0.162012	1.488878
0.162109	1.488362
0.162207	1.460927
0.162305	1.418428
0.162402	1.380963
0.162500	1.368532
0.162598	1.372855
0.162695	1.385092
0.162793	1.383576
0.162891	1.374304
0.162988	1.358880
0.163086	1.342502
0.163184	1.330271
0.163281	1.325878
0.163379	1.326800
0.163477	1.329822
0.163574	1.328767
0.163672	1.328351
0.163770	1.351426
0.163867	1.384637
0.163965	1.389996
0.164062	1.393965
0.164160	1.399104
0.164258	1.408765
0.164355	1.447062
0.164453	1.489858
0.164551	1.484767
0.164648	1.435365
0.164746	1.419485
0.164844	1.411028
0.164941	1.404088
0.165039	1.412007
0.165137	1.443569
0.165234	1.466840
0.165332	1.466221
0.165430	1.459189
0.165527	1.447970
0.165625	1.431642
0.165723	1.402168
0.165820	1.389084
0.165918	1.389159
0.166016	1.389287
0.166113	1.376971
0.166211	1.352671
0.166309	1.363103
0.166406	1.405639
0.166504	1.429196
0.166602	1.431801
0.166699	1.437211
0.166797	1.435439
0.166895	1.435954
0.166992	1.435897
0.167090	1.439628
0.167187	1.441323
0.167285	1.443224
0.167383	1.448755
0.167480	1.464059
0.167578	1.455786
0.167676	1.447556
0.167773	1.437922
0.167871	1.440517
0.167969	1.454968
0.168066	1.450816
0.168164	1.433970
0.168262	1.423645
0.168359	1.429858
0.168457	1.441729
0.168555	1.470439
0.168652	1.475163
0.168750	1.509429
0.168848	1.491979
0.168945	1.467408
0.169043	1.495629
0.169141	1.503173
0.169238	1.523431
0.169336	1.520901
0.169434	1.528513
0.169531	1.524727
0.169629	1.550211
0.169727	1.549875
0.169824	1.526917
0.169922	1.531649
0.170020	1.509171
0.170117	1.492892
0.170215	1.505064
0.170312	1.516919
0.170410	1.509421
0.170508	1.507401
0.170605	1.527553
0.170703	1.564896
0.170801	1.569810
0.170898	1.530788
0.170996	1.537383
0.171094	1.525780
0.171191	1.528889
0.171289	1.554093
0.171387	1.558485
0.171484	1.554524
0.171582	1.534718
0.171680	1.530197
0.171777	1.529799
0.171875	1.524916
0.171973	1.506424
0.172070	1.483327
0.172168	1.505161
0.172266	1.533844
0.172363	1.515981
0.172461	1.507142
0.172559	1.507962
0.172656	1.519553
0.172754	1.514110
0.172852	1.515200
0.172949	1.511404
0.173047	1.511006
0.173145	1.496589
0.173242	1.506070
0.173340	1.537581
0.173437	1.548477
0.173535	1.564015
0.173633	1.582777
0.173730	1.620997
0.173828	1.610397
0.173926	1.591633
0.174023	1.568550
0.174121	1.552164
0.174219	1.589612
0.174316	1.587244
0.174414	1.569792
0.174512	1.568293
0.174609	1.599241
0.174707	1.605490
0.174805	1.575158
0.174902	1.630996
0.175000	1.642877
0.175098	1.624409
0.175195	1.606897
0.175293	1.613181
0.175391	1.614034
0.175488	1.611766
0.175586	1.622641
0.175684	1.596748
0.175781	1.607034
0.175879	1.605838
0.175977	1.602198
0.176074	1.595735
0.176172	1.588439
0.176270	1.574671
0.176367	1.580751
0.176465	1.572382
0.176562	1.527820
0.176660	1.519432
0.176758	1.504219
0.176855	1.496845
0.176953	1.486725
0.177051	1.468076
0.177148	1.450442
0.177246	1.452119
0.177344	1.456604
0.177441	1.437125
0.177539	1.413769
0.177637	1.391567
0.177734	1.368351
0.177832	1.363019
0.177930	1.380723
0.178027	1.406917
0.178125	1.426932
0.178223	1.426500
0.178320	1.415364
0.178418	1.410017
0.178516	1.415558
0.178613	1.424889
0.178711	1.425040
0.178809	1.432044
0.178906	1.439734
0.179004	1.439995
0.179102	1.437536
0.179199	1.441795
0.179297	1.443809
0.179395	1.434177
0.179492	1.423462
0.179590	1.413409
0.179687	1.404524
0.179785	1.396921
0.179883	1.391768
0.179980	1.388500
0.180078	1.384817
0.180176	1.380155
0.180273	1.375908
0.180371	1.374039
0.180469	1.376114
0.180566	1.379918
0.180664	1.383122
0.180762	1.382354
0.180859	1.377476
0.180957	1.373576
0.181055	1.372521
0.181152	1.373436
0.181250	1.375853
0.181348	1.377548
0.181445	1.376058
0.181543	1.381102
0.181641	1.386239
0.181738	1.375294
0.181836	1.346602
0.181934	1.310781
0.182031	1.279637
0.182129	1.258420
0.182227	1.254514
0.182324	1.279730
0.182422	1.316653
0.182520	1.337334
0.182617	1.342160
0.182715	1.339887
0.182812	1.341183
0.182910	1.347012
0.183008	1.357556
0.183105	1.374704
0.183203	1.390781
0.183301	1.396539
0.183398	1.393396
0.183496	1.382426
0.183594	1.382660
0.183691	1.392851
0.183789	1.387559
0.183887	1.384070
0.183984	1.390012
0.184082	1.394175
0.184180	1.391226
0.184277	1.384822
0.184375	1.379770
0.184473	1.369979
0.184570	1.355664
0.184668	1.350159
0.184766	1.358964
0.184863	1.382589
0.184961	1.414785
0.185059	1.452875
0.185156	1.468677
0.185254	1.469696
0.185352	1.472890
0.185449	1.478421
0.185547	1.481970
0.185645	1.489790
0.185742	1.502511
0.185840	1.518318
0.185937	1.527273
0.186035	1.533998
0.186133	1.528711
0.186230	1.518492
0.186328	1.507757
0.186426	1.511703
0.186523	1.521608
0.186621	1.521965
0.186719	1.520091
0.186816	1.522107
0.186914	1.522252
0.187012	1.517547
0.187109	1.497914
0.187207	1.482913
0.187305	1.484400
0.187402	1.487002
0.187500	1.489701
0.187598	1.483085
0.187695	1.473396
0.187793	1.465447
0.187891	1.459168
0.187988	1.443067
0.188086	1.453882
0.188184	1.456845
0.188281	1.444060
0.188379	1.445936
0.188477	1.442480
0.188574	1.434990
0.188672	1.422470
0.188770	1.416036
0.188867	1.403813
0.188965	1.393245
0.189062	1.397104
0.189160	1.412200
0.189258	1.418822
0.189355	1.418472
0.189453	1.405843
0.189551	1.389023
0.189648	1.381118
0.189746	1.379903
0.189844	1.389227
0.189941	1.403302
0.190039	1.405293
0.190137	1.396935
0.190234	1.374529
0.190332	1.342082
0.190430	1.323304
0.190527	1.333008
0.190625	1.356282
0.190723	1.376213
0.190820	1.380377
0.190918	1.370588
0.191016	1.358774
0.191113	1.348346
0.191211	1.336776
0.191309	1.325319
0.191406	1.317062
0.191504	1.312970
0.191602	1.312281
0.191699	1.311512
0.191797	1.310340
0.191895	1.313126
0.191992	1.326342
0.192090	1.339814
0.192187	1.345869
0.192285	1.349833
0.192383	1.352591
0.192480	1.353216
0.192578	1.355419
0.192676	1.356170
0.192773	1.353971
0.192871	1.346782
0.192969	1.332916
0.193066	1.315338
0.193164	1.296595
0.193262	1.282709
0.193359	1.278772
0.193457	1.283181
0.193555	1.287028
0.193652	1.286012
0.193750	1.282160
0.193848	1.278985
0.193945	1.278145
0.194043	1.280061
0.194141	1.285699
0.194238	1.293459
0.194336	1.300530
0.194434	1.307069
0.194531	1.312766
0.194629	1.315340
0.194727	1.311986
0.194824	1.304195
0.194922	1.297509
0.195020	1.298536
0.195117	1.309847
0.195215	1.329004
0.195312	1.353283
0.195410	1.374356
0.195508	1.378150
0.195605	1.374980
0.195703	1.376468
0.195801	1.377338
0.195898	1.375467
0.195996	1.377468
0.196094	1.380720
0.196191	1.380964
0.196289	1.380799
0.196387	1.381064
0.196484	1.382691
0.196582	1.386371
0.196680	1.387228
0.196777	1.369849
0.196875	1.351600
0.196973	1.344812
0.197070	1.333714
0.197168	1.319622
0.197266	1.301712
0.197363	1.279254
0.197461	1.256205
0.197559	1.295233
0.197656	1.383959
0.197754	1.415934
0.197852	1.415604
0.197949	1.379758
0.198047	1.381277
0.198145	1.421652
0.198242	1.454454
0.198340	1.514244
0.198437	1.535216
0.198535	1.504381
0.198633	1.517754
0.198730	1.541928
0.198828	1.571559
0.198926	1.562341
0.199023	1.542018
0.199121	1.527069
0.199219	1.516901
0.199316	1.514921
0.199414	1.538282
0.199512	1.540288
0.199609	1.514413
0.199707	1.516575
0.199805	1.539954
0.199902	1.558553
0.200000	1.579029
0.200098	1.607979
0.200195	1.607749
0.200293	1.592729
0.200391	1.569400
0.200488	1.541500
0.200586	1.546832
0.200684	1.531389
0.200781	1.548525
0.200879	1.568216
0.200977	1.538748
0.201074	1.505831
0.201172	1.507173
0.201270	1.493799
0.201367	1.449171
0.201465	1.450843
0.201562	1.471432
0.201660	1.462527
0.201758	1.455628
0.201855	1.413434
0.201953	1.414423
0.202051	1.466181
0.202148	1.495687
0.202246	1.499474
0.202344	1.536092
0.202441	1.558062
0.202539	1.530266
0.202637	1.509181
0.202734	1.532562
0.202832	1.517607
0.202930	1.527056
0.203027	1.556623
0.203125	1.549897
0.203223	1.529221
0.203320	1.497116
0.203418	1.491312
0.203516	1.469767
0.203613	1.478208
0.203711	1.492840
0.203809	1.494451
0.203906	1.497323
0.204004	1.503635
0.204102	1.505627
0.204199	1.496410
0.204297	1.499884
0.204395	1.482563
0.204492	1.475200
0.204590	1.520744
0.204687	1.536922
0.204785	1.502379
0.204883	1.501652
0.204980	1.491771
0.205078	1.455497
0.205176	1.388303
0.205273	1.443662
0.205371	1.480107
0.205469	1.420683
0.205566	1.406994
0.205664	1.440188
0.205762	1.467675
0.205859	1.467096
0.205957	1.459959
0.206055	1.446074
0.206152	1.435211
0.206250	1.410849
0.206348	1.390484
0.206445	1.364988
0.206543	1.359877
0.206641	1.359668
0.206738	1.365055
0.206836	1.392530
0.206934	1.422775
0.207031	1.422966
0.207129	1.409163
0.207227	1.398426
0.207324	1.374151
0.207422	1.346027
0.207520	1.326621
0.207617	1.334410
0.207715	1.366767
0.207812	1.391505
0.207910	1.402987
0.208008	1.402179
0.208105	1.386119
0.208203	1.378579
0.208301	1.392812
0.208398	1.400436
0.208496	1.412481
0.208594	1.410931
0.208691	1.397793
0.208789	1.390771
0.208887	1.367189
0.208984	1.372656
0.209082	1.416792
0.209180	1.432292
0.209277	1.400905
0.209375	1.409481
0.209473	1.459550
0.209570	1.473201
0.209668	1.496725
0.209766	1.510659
0.209863	1.492368
0.209961	1.510714
0.210059	1.533806
0.210156	1.510070
0.210254	1.516064
0.210352	1.526093
0.210449	1.526909
0.210547	1.495870
0.210645	1.475748
0.210742	1.480638
0.210840	1.506578
0.210937	1.504539
0.211035	1.482696
0.211133	1.476488
0.211230	1.488306
0.211328	1.472530
0.211426	1.395082
0.211523	1.421478
0.211621	1.496034
0.211719	1.480826
0.211816	1.454573
0.211914	1.431782
0.212012	1.424875
0.212109	1.426946
0.212207	1.438802
0.212305	1.425648
0.212402	1.394571
0.212500	1.376618
0.212598	1.380515
0.212695	1.396622
0.212793	1.409285
0.212891	1.409554
0.212988	1.401372
0.213086	1.384579
0.213184	1.373802
0.213281	1.366083
0.213379	1.377365
0.213477	1.400578
0.213574	1.402117
0.213672	1.400170
0.213770	1.411657
0.213867	1.426141
0.213965	1.437859
0.214062	1.427736
0.214160	1.400259
0.214258	1.372563
0.214355	1.356730
0.214453	1.348093
0.214551	1.356843
0.214648	1.395005
0.214746	1.388612
0.214844	1.405815
0.214941	1.433731
0.215039	1.445361
0.215137	1.445514
0.215234	1.433692
0.215332	1.412592
0.215430	1.395795
0.215527	1.390386
0.215625	1.389035
0.215723	1.393336
0.215820	1.403284
0.215918	1.418189
0.216016	1.418737
0.216113	1.406805
0.216211	1.398610
0.216309	1.379773
0.216406	1.336957
0.216504	1.298293
0.216602	1.262481
0.216699	1.281664
0.216797	1.368771
0.216895	1.407413
0.216992	1.416551
0.217090	1.404179
0.217187	1.388903
0.217285	1.368584
0.217383	1.348320
0.217480	1.347272
0.217578	1.337107
0.217676	1.389559
0.217773	1.473367
0.217871	1.499669
0.217969	1.519990
0.218066	1.507690
0.218164	1.485724
0.218262	1.438113
0.218359	1.409484
0.218457	1.385760
0.218555	1.334698
0.218652	1.367154
0.218750	1.346727
0.218848	1.314318
0.218945	1.321499
0.219043	1.295031
0.219141	1.269783
0.219238	1.279082
0.219336	1.360589
0.219434	1.416845
0.219531	1.429315
0.219629	1.415264
0.219727	1.375616
0.219824	1.321651
0.219922	1.285965
0.220020	1.291180
0.220117	1.297864
0.220215	1.296308
0.220312	1.312573
0.220410	1.329747
0.220508	1.354855
0.220605	1.399090
0.220703	1.441031
0.220801	1.450475
0.220898	1.454360
0.220996	1.470445
0.221094	1.484163
0.221191	1.479614
0.221289	1.467382
0.221387	1.460770
0.221484	1.449486
0.221582	1.430437
0.221680	1.394331
0.221777	1.351885
0.221875	1.339663
0.221973	1.324911
0.222070	1.287195
0.222168	1.269650
0.222266	1.298855
0.222363	1.317589
0.222461	1.321154
0.222559	1.312177
0.222656	1.290178
0.222754	1.268596
0.222852	1.260072
0.222949	1.260012
0.223047	1.261012
0.223145	1.253257
0.223242	1.246278
0.223340	1.248765
0.223437	1.288392
0.223535	1.354865
0.223633	1.407025
0.223730	1.412380
0.223828	1.428746
0.223926	1.462936
0.224023	1.469871
0.224121	1.448942
0.224219	1.432044
0.224316	1.439091
0.224414	1.425479
0.224512	1.411193
0.224609	1.426816
0.224707	1.430030
0.224805	1.404009
0.224902	1.403200
0.225000	1.419897
0.225098	1.430402
0.225195	1.411464
0.225293	1.410720
0.225391	1.437841
0.225488	1.447502
0.225586	1.452106
0.225684	1.445809
0.225781	1.434588
0.225879	1.413689
0.225977	1.409412
0.226074	1.442806
0.226172	1.478027
0.226270	1.482111
0.226367	1.468512
0.226465	1.465082
0.226562	1.482266
0.226660	1.499679
0.226758	1.519157
0.226855	1.551790
0.226953	1.567952
0.227051	1.581197
0.227148	1.586943
0.227246	1.580567
0.227344	1.580556
0.227441	1.562076
0.227539	1.560979
0.227637	1.577119
0.227734	1.580501
0.227832	1.551064
0.227930	1.523457
0.228027	1.507392
0.228125	1.501365
0.228223	1.485987
0.228320	1.482901
0.228418	1.495915
0.228516	1.512582
0.228613	1.520990
0.228711	1.539720
0.228809	1.565394
0.228906	1.565484
0.229004	1.563103
0.229102	1.555414
0.229199	1.534336
0.229297	1.521361
0.229395	1.515116
0.229492	1.519939
0.229590	1.507080
0.229687	1.496433
0.229785	1.517447
0.229883	1.539693
0.229980	1.530915
0.230078	1.535588
0.230176	1.549000
0.230273	1.550425
0.230371	1.561822
0.230469	1.578736
0.230566	1.600998
0.230664	1.622182
0.230762	1.575923
0.230859	1.512870
0.230957	1.479710
0.231055	1.453851
0.231152	1.429033
0.231250	1.415230
0.231348	1.398914
0.231445	1.415440
0.231543	1.400401
0.231641	1.387148
0.231738	1.403338
0.231836	1.373736
0.231934	1.363177
0.232031	1.390662
0.232129	1.422999
0.232227	1.456299
0.232324	1.465330
0.232422	1.464850
0.232520	1.436564
0.232617	1.406291
0.232715	1.397661
0.232812	1.383427
0.232910	1.382963
0.233008	1.395064
0.233105	1.426688
0.233203	1.451467
0.233301	1.456169
0.233398	1.466125
0.233496	1.480650
0.233594	1.464043
0.233691	1.433209
0.233789	1.425708
0.233887	1.438441
0.233984	1.427356
0.234082	1.414478
0.234180	1.417169
0.234277	1.421385
0.234375	1.424943
0.234473	1.437563
0.234570	1.450181
0.234668	1.453216
0.234766	1.462744
0.234863	1.469234
0.234961	1.468245
0.235059	1.465707
0.235156	1.470601
0.235254	1.467902
0.235352	1.447852
0.235449	1.410464
0.235547	1.383693
0.235645	1.384125
0.235742	1.397906
0.235840	1.420430
0.235937	1.434061
0.236035	1.445761
0.236133	1.443574
0.236230	1.448365
0.236328	1.456063
0.236426	1.463580
0.236523	1.471232
0.236621	1.477338
0.236719	1.469332
0.236816	1.451637
0.236914	1.434936
0.237012	1.417193
0.237109	1.420299
0.237207	1.437320
0.237305	1.441152
0.237402	1.439262
0.237500	1.440105
0.237598	1.447336
0.237695	1.435786
0.237793	1.422881
0.237891	1.399183
0.237988	1.370130
0.238086	1.374486
0.238184	1.413994
0.238281	1.460635
0.238379	1.458584
0.238477	1.439872
0.238574	1.422655
0.238672	1.405607
0.238770	1.407889
0.238867	1.419748
0.238965	1.433917
0.239062	1.441758
0.239160	1.455504
0.239258	1.457445
0.239355	1.445347
0.239453	1.444513
0.239551	1.500550
0.239648	1.524218
0.239746	1.506516
0.239844	1.490016
0.239941	1.499184
0.240039	1.518692
0.240137	1.508331
0.240234	1.505020
0.240332	1.458161
0.240430	1.461997
0.240527	1.540855
0.240625	1.507834
0.240723	1.496477
0.240820	1.482397
0.240918	1.476201
0.241016	1.479404
0.241113	1.488889
0.241211	1.482454
0.241309	1.448426
0.241406	1.439775
0.241504	1.449024
0.241602	1.449276
0.241699	1.450995
0.241797	1.458479
0.241895	1.462871
0.241992	1.456380
0.242090	1.446985
0.242187	1.450660
0.242285	1.448542
0.242383	1.423150
0.242480	1.395180
0.242578	1.380778
0.242676	1.377529
0.242773	1.375494
0.242871	1.367822
0.242969	1.365270
0.243066	1.377521
0.243164	1.414846
0.243262	1.445108
0.243359	1.453093
0.243457	1.457184
0.243555	1.456718
0.243652	1.463305
0.243750	1.478181
0.243848	1.489107
0.243945	1.486456
0.244043	1.475133
0.244141	1.455718
0.244238	1.465607
0.244336	1.492183
0.244434	1.486462
0.244531	1.472905
0.244629	1.462321
0.244727	1.454044
0.244824	1.452172
0.244922	1.468694
0.245020	1.505895
0.245117	1.517187
0.245215	1.512629
0.245312	1.506555
0.245410	1.488562
0.245508	1.472606
0.245605	1.449209
0.245703	1.406503
0.245801	1.380132
0.245898	1.379312
0.245996	1.375938
0.246094	1.369244
0.246191	1.370754
0.246289	1.393006
0.246387	1.429365
0.246484	1.451879
0.246582	1.464496
0.246680	1.465814
0.246777	1.462253
0.246875	1.475463
0.246973	1.500927
0.247070	1.494996
0.247168	1.490432
0.247266	1.506523
0.247363	1.505815
0.247461	1.513158
0.247559	1.530172
0.247656	1.521885
0.247754	1.505953
0.247852	1.482275
0.247949	1.483817
0.248047	1.468523
0.248145	1.460332
0.248242	1.510146
0.248340	1.527990
0.248437	1.504449
0.248535	1.494885
0.248633	1.471545
0.248730	1.455245
0.248828	1.443463
0.248926	1.448788
0.249023	1.460037
0.249121	1.473266
0.249219	1.495635
0.249316	1.517920
0.249414	1.518093
0.249512	1.504512
0.249609	1.509796
0.249707	1.488406
0.249805	1.514755
0.249902	1.542422
0.250000	1.539207
0.250098	1.527607
0.250195	1.497357
0.250293	1.481137
0.250391	1.456139
0.250488	1.425335
0.250586	1.465329
0.250684	1.515147
0.250781	1.536434
0.250879	1.528940
0.250977	1.527716
0.251074	1.502666
0.251172	1.479931
0.251270	1.455865
0.251367	1.455285
0.251465	1.456570
0.251562	1.450069
0.251660	1.430647
0.251758	1.433655
0.251855	1.469485
0.251953	1.489819
0.252051	1.493690
0.252148	1.499028
0.252246	1.521855
0.252344	1.529761
0.252441	1.537666
0.252539	1.522145
0.252637	1.486139
0.252734	1.461927
0.252832	1.440810
0.252930	1.429471
0.253027	1.419192
0.253125	1.402368
0.253223	1.376542
0.253320	1.342498
0.253418	1.313900
0.253516	1.311141
0.253613	1.324655
0.253711	1.325504
0.253809	1.307790
0.253906	1.304551
0.254004	1.321643
0.254102	1.343481
0.254199	1.358148
0.254297	1.381221
0.254395	1.410111
0.254492	1.429159
0.254590	1.426852
0.254687	1.406454
0.254785	1.404324
0.254883	1.359577
0.254980	1.343938
0.255078	1.344682
0.255176	1.350608
0.255273	1.341928
0.255371	1.362765
0.255469	1.387301
0.255566	1.358875
0.255664	1.349028
0.255762	1.399518
0.255859	1.396549
0.255957	1.349064
0.256055	1.315451
0.256152	1.288327
0.256250	1.302440
0.256348	1.309712
0.256445	1.340636
0.256543	1.394436
0.256641	1.425676
0.256738	1.445823
0.256836	1.430541
0.256934	1.422953
0.257031	1.423299
0.257129	1.425216
0.257227	1.440525
0.257324	1.458262
0.257422	1.464813
0.257520	1.458545
0.257617	1.456066
0.257715	1.452252
0.257812	1.430549
0.257910	1.412341
0.258008	1.407578
0.258105	1.418779
0.258203	1.422486
0.258301	1.407488
0.258398	1.422786
0.258496	1.445309
0.258594	1.451761
0.258691	1.429703
0.258789	1.397945
0.258887	1.395737
0.258984	1.414633
0.259082	1.481480
0.259180	1.484570
0.259277	1.475623
0.259375	1.490358
0.259473	1.501740
0.259570	1.498790
0.259668	1.486126
0.259766	1.474699
0.259863	1.465213
0.259961	1.448807
0.260059	1.444458
0.260156	1.471489
0.260254	1.482825
0.260352	1.452305
0.260449	1.461190
0.260547	1.467022
0.260645	1.455695
0.260742	1.453719
0.260840	1.464706
0.260937	1.461609
0.261035	1.434377
0.261133	1.411098
0.261230	1.426350
0.261328	1.461681
0.261426	1.458235
0.261523	1.443334
0.261621	1.432734
0.261719	1.435711
0.261816	1.453095
0.261914	1.455682
0.262012	1.438039
0.262109	1.423201
0.262207	1.417413
0.262305	1.403663
0.262402	1.399837
0.262500	1.362193
0.262598	1.320117
0.262695	1.286396
0.262793	1.273403
0.262891	1.285103
0.262988	1.339120
0.263086	1.400951
0.263184	1.427634
0.263281	1.427727
0.263379	1.430492
0.263477	1.462159
0.263574	1.453436
0.263672	1.488734
0.263770	1.531136
0.263867	1.533035
0.263965	1.517014
0.264062	1.477858
0.264160	1.441279
0.264258	1.411175
0.264355	1.405633
0.264453	1.429346
0.264551	1.448484
0.264648	1.449750
0.264746	1.468261
0.264844	1.520492
0.264941	1.541954
0.265039	1.553658
0.265137	1.560273
0.265234	1.532315
0.265332	1.538076
0.265430	1.535342
0.265527	1.535713
0.265625	1.550013
0.265723	1.540277
0.265820	1.501711
0.265918	1.498456
0.266016	1.517817
0.266113	1.525846
0.266211	1.508103
0.266309	1.522126
0.266406	1.449420
0.266504	1.423568
0.266602	1.466057
0.266699	1.509111
0.266797	1.528235
0.266895	1.505750
0.266992	1.488127
0.267090	1.457773
0.267187	1.432470
0.267285	1.421031
0.267383	1.379813
0.267480	1.340561
0.267578	1.328253
0.267676	1.448002
0.267773	1.511973
0.267871	1.537231
0.267969	1.520811
0.268066	1.489860
0.268164	1.429709
0.268262	1.352935
0.268359	1.402880
0.268457	1.533395
0.268555	1.568316
0.268652	1.565757
0.268750	1.562416
0.268848	1.588493
0.268945	1.561765
0.269043	1.512015
0.269141	1.486100
0.269238	1.445954
0.269336	1.425974
0.269434	1.380813
0.269531	1.374611
0.269629	1.374698
0.269727	1.361829
0.269824	1.361027
0.269922	1.371859
0.270020	1.387815
0.270117	1.379223
0.270215	1.355176
0.270312	1.330023
0.270410	1.306273
0.270508	1.284559
0.270605	1.271652
0.270703	1.270579
0.270801	1.282518
0.270898	1.299308
0.270996	1.320454
0.271094	1.339849
0.271191	1.361256
0.271289	1.369437
0.271387	1.370492
0.271484	1.342122
0.271582	1.357871
0.271680	1.424926
0.271777	1.451267
0.271875	1.444655
0.271973	1.416700
0.272070	1.415083
0.272168	1.404771
0.272266	1.396195
0.272363	1.390938
0.272461	1.389195
0.272559	1.384018
0.272656	1.390287
0.272754	1.412882
0.272852	1.445503
0.272949	1.469836
0.273047	1.465658
0.273145	1.461106
0.273242	1.464614
0.273340	1.462310
0.273437	1.458050
0.273535	1.451970
0.273633	1.444741
0.273730	1.429959
0.273828	1.411630
0.273926	1.394164
0.274023	1.371073
0.274121	1.354650
0.274219	1.364468
0.274316	1.377586
0.274414	1.375082
0.274512	1.376028
0.274609	1.384568
0.274707	1.388022
0.274805	1.385224
0.274902	1.377844
0.275000	1.371626
0.275098	1.371977
0.275195	1.377766
0.275293	1.384006
0.275391	1.389029
0.275488	1.392352
0.275586	1.395615
0.275684	1.400421
0.275781	1.406381
0.275879	1.410541
0.275977	1.411837
0.276074	1.411649
0.276172	1.411433
0.276270	1.412582
0.276367	1.418457
0.276465	1.429017
0.276562	1.439353
0.276660	1.447630
0.276758	1.452631
0.276855	1.452771
0.276953	1.457400
0.277051	1.472434
0.277148	1.483307
0.277246	1.481534
0.277344	1.475204
0.277441	1.469984
0.277539	1.467101
0.277637	1.464117
0.277734	1.451530
0.277832	1.426492
0.277930	1.443951
0.278027	1.455717
0.278125	1.453918
0.278223	1.458403
0.278320	1.462029
0.278418	1.467572
0.278516	1.473245
0.278613	1.480995
0.278711	1.488523
0.278809	1.490970
0.278906	1.484589
0.279004	1.478549
0.279102	1.477646
0.279199	1.480941
0.279297	1.480068
0.279395	1.473980
0.279492	1.464178
0.279590	1.469916
0.279687	1.478128
0.279785	1.480782
0.279883	1.473015
0.279980	1.463730
0.280078	1.473551
0.280176	1.494343
0.280273	1.512492
0.280371	1.514812
0.280469	1.506367
0.280566	1.489052
0.280664	1.468208
0.280762	1.466752
0.280859	1.492127
0.280957	1.496559
0.281055	1.510133
0.281152	1.521283
0.281250	1.476900
0.281348	1.434604
0.281445	1.404971
0.281543	1.418707
0.281641	1.435174
0.281738	1.436520
0.281836	1.441469
0.281934	1.459872
0.282031	1.450654
0.282129	1.440675
0.282227	1.443658
0.282324	1.456336
0.282422	1.463090
0.282520	1.456168
0.282617	1.449203
0.282715	1.440019
0.282812	1.428572
0.282910	1.419790
0.283008	1.437305
0.283105	1.451614
0.283203	1.457645
0.283301	1.468953
0.283398	1.487812
0.283496	1.490597
0.283594	1.480987
0.283691	1.470359
0.283789	1.455439
0.283887	1.450740
0.283984	1.458857
0.284082	1.472480
0.284180	1.477762
0.284277	1.468281
0.284375	1.438748
0.284473	1.418527
0.284570	1.430741
0.284668	1.481488
0.284766	1.500098
0.284863	1.512630
0.284961	1.519608
0.285059	1.487231
0.285156	1.460614
0.285254	1.453745
0.285352	1.442615
0.285449	1.404668
0.285547	1.404478
0.285645	1.415508
0.285742	1.445702
0.285840	1.470201
0.285937	1.463196
0.286035	1.428732
0.286133	1.402998
0.286230	1.387376
0.286328	1.369878
0.286426	1.361541
0.286523	1.364110
0.286621	1.381378
0.286719	1.398509
0.286816	1.414261
0.286914	1.434481
0.287012	1.442914
0.287109	1.433217
0.287207	1.424178
0.287305	1.454503
0.287402	1.500977
0.287500	1.522325
0.287598	1.521674
0.287695	1.509724
0.287793	1.510357
0.287891	1.492050
0.287988	1.483364
0.288086	1.482471
0.288184	1.456830
0.288281	1.426125
0.288379	1.422749
0.288477	1.431233
0.288574	1.434047
0.288672	1.425866
0.288770	1.412753
0.288867	1.419198
0.288965	1.447308
0.289062	1.480538
0.289160	1.492482
0.289258	1.464122
0.289355	1.433048
0.289453	1.428368
0.289551	1.423236
0.289648	1.449257
0.289746	1.446940
0.289844	1.420106
0.289941	1.414576
0.290039	1.417079
0.290137	1.416180
0.290234	1.403621
0.290332	1.376081
0.290430	1.388770
0.290527	1.414081
0.290625	1.434117
0.290723	1.443187
0.290820	1.435536
0.290918	1.421336
0.291016	1.423144
0.291113	1.413182
0.291211	1.414655
0.291309	1.424179
0.291406	1.456711
0.291504	1.476741
0.291602	1.473198
0.291699	1.491803
0.291797	1.534400
0.291895	1.548214
0.291992	1.526556
0.292090	1.506954
0.292187	1.485590
0.292285	1.469449
0.292383	1.466343
0.292480	1.470186
0.292578	1.474899
0.292676	1.473886
0.292773	1.476853
0.292871	1.485168
0.292969	1.482779
0.293066	1.469138
0.293164	1.452975
0.293262	1.465785
0.293359	1.453579
0.293457	1.454776
0.293555	1.468242
0.293652	1.511976
0.293750	1.539620
0.293848	1.533970
0.293945	1.479318
0.294043	1.431844
0.294141	1.503370
0.294238	1.547456
0.294336	1.524065
0.294434	1.494404
0.294531	1.483302
0.294629	1.461417
0.294727	1.385276
0.294824	1.411474
0.294922	1.453924
0.295020	1.450534
0.295117	1.464213
0.295215	1.456875
0.295312	1.456319
0.295410	1.446859
0.295508	1.426429
0.295605	1.432527
0.295703	1.522458
0.295801	1.538710
0.295898	1.498712
0.295996	1.442286
0.296094	1.456292
0.296191	1.471979
0.296289	1.443058
0.296387	1.373119
0.296484	1.381848
0.296582	1.466706
0.296680	1.520854
0.296777	1.538259
0.296875	1.524398
0.296973	1.515591
0.297070	1.500501
0.297168	1.490237
0.297266	1.475192
0.297363	1.472494
0.297461	1.487136
0.297559	1.486813
0.297656	1.493588
0.297754	1.512313
0.297852	1.503508
0.297949	1.519702
0.298047	1.517372
0.298145	1.475342
0.298242	1.470306
0.298340	1.477868
0.298437	1.481206
0.298535	1.486368
0.298633	1.493929
0.298730	1.491810
0.298828	1.496489
0.298926	1.528530
0.299023	1.546514
0.299121	1.530915
0.299219	1.515165
0.299316	1.504988
0.299414	1.491087
0.299512	1.469488
0.299609	1.459568
0.299707	1.463925
0.299805	1.458738
0.299902	1.449004
0.300000	1.451088
0.300098	1.473859
0.300195	1.489312
0.300293	1.474384
0.300391	1.464676
0.300488	1.468355
0.300586	1.470739
0.300684	1.476435
0.300781	1.491995
0.300879	1.478610
0.300977	1.480603
0.301074	1.502265
0.301172	1.503107
0.301270	1.507992
0.301367	1.498381
0.301465	1.492961
0.301562	1.470948
0.301660	1.451870
0.301758	1.432373
0.301855	1.421042
0.301953	1.419860
0.302051	1.418757
0.302148	1.407251
0.302246	1.407116
0.302344	1.411904
0.302441	1.402740
0.302539	1.373467
0.302637	1.330092
0.302734	1.284680
0.302832	1.253712
0.302930	1.240608
0.303027	1.239168
0.303125	1.238950
0.303223	1.235724
0.303320	1.232140
0.303418	1.225898
0.303516	1.224141
0.303613	1.234322
0.303711	1.268498
0.303809	1.320800
0.303906	1.385213
0.304004	1.430721
0.304102	1.457927
0.304199	1.477061
0.304297	1.476072
0.304395	1.477140
0.304492	1.483152
0.304590	1.492642
0.304687	1.491994
0.304785	1.495059
0.304883	1.494018
0.304980	1.497018
0.305078	1.532090
0.305176	1.558360
0.305273	1.559794
0.305371	1.561716
0.305469	1.578426
0.305566	1.586180
0.305664	1.595108
0.305762	1.611942
0.305859	1.624525
0.305957	1.626054
0.306055	1.619677
0.306152	1.628476
0.306250	1.617076
0.306348	1.607987
0.306445	1.608067
0.306543	1.600898
0.306641	1.602353
0.306738	1.604154
0.306836	1.605178
0.306934	1.599889
0.307031	1.596147
0.307129	1.596846
0.307227	1.599515
0.307324	1.605486
0.307422	1.591653
0.307520	1.585467
0.307617	1.589975
0.307715	1.588130
0.307812	1.584646
0.307910	1.582552
0.308008	1.584089
0.308105	1.586768
0.308203	1.590382
0.308301	1.585486
0.308398	1.579084
0.308496	1.567140
0.308594	1.579430
0.308691	1.588815
0.308789	1.596874
0.308887	1.610300
0.308984	1.610048
0.309082	1.586960
0.309180	1.564611
0.309277	1.573511
0.309375	1.541758
0.309473	1.515361
0.309570	1.541359
0.309668	1.541164
0.309766	1.545226
0.309863	1.555656
0.309961	1.550706
0.310059	1.538550
0.310156	1.505810
0.310254	1.506378
0.310352	1.550410
0.310449	1.568961
0.310547	1.607308
0.310645	1.605344
0.310742	1.611068
0.310840	1.602295
0.310937	1.604927
0.311035	1.585648
0.311133	1.529033
0.311230	1.578940
0.311328	1.583835
0.311426	1.559763
0.311523	1.599055
0.311621	1.585166
0.311719	1.600755
0.311816	1.630691
0.311914	1.587870
0.312012	1.522349
0.312109	1.523767
0.312207	1.517878
0.312305	1.537827
0.312402	1.556136
0.312500	1.547416
0.312598	1.547314
0.312695	1.544216
0.312793	1.588842
0.312891	1.601104
0.312988	1.594189
0.313086	1.631943
0.313184	1.627021
0.313281	1.594354
0.313379	1.609393
0.313477	1.642361
0.313574	1.599111
0.313672	1.635149
0.313770	1.655980
0.313867	1.689624
0.313965	1.616115
0.314062	1.577564
0.314160	1.605661
0.314258	1.643497
0.314355	1.593350
0.314453	1.620580
0.314551	1.630251
0.314648	1.666642
0.314746	1.645192
0.314844	1.619782
0.314941	1.605523
0.315039	1.613573
0.315137	1.643678
0.315234	1.676849
0.315332	1.683622
0.315430	1.615012
0.315527	1.589620
0.315625	1.592374
0.315723	1.584203
0.315820	1.554074
0.315918	1.530276
0.316016	1.551599
0.316113	1.576429
0.316211	1.567174
0.316309	1.605381
0.316406	1.598166
0.316504	1.596121
0.316602	1.570747
0.316699	1.584537
0.316797	1.601327
0.316895	1.616525
0.316992	1.563366
0.317090	1.578525
0.317187	1.601277
0.317285	1.566808
0.317383	1.543199
0.317480	1.491660
0.317578	1.471872
0.317676	1.460981
0.317773	1.453686
0.317871	1.440947
0.317969	1.431611
0.318066	1.415214
0.318164	1.405223
0.318262	1.404630
0.318359	1.397174
0.318457	1.393020
0.318555	1.410119
0.318652	1.421449
0.318750	1.427289
0.318848	1.421529
0.318945	1.416906
0.319043	1.410928
0.319141	1.409083
0.319238	1.412445
0.319336	1.420839
0.319434	1.427893
0.319531	1.424746
0.319629	1.399068
0.319727	1.361674
0.319824	1.317960
0.319922	1.294066
0.320020	1.299848
0.320117	1.359069
0.320215	1.399330
0.320312	1.403164
0.320410	1.411579
0.320508	1.401182
0.320605	1.384953
0.320703	1.363839
0.320801	1.345147
0.320898	1.326890
0.320996	1.310508
0.321094	1.292988
0.321191	1.275601
0.321289	1.257842
0.321387	1.244727
0.321484	1.238443
0.321582	1.239438
0.321680	1.245036
0.321777	1.252900
0.321875	1.261855
0.321973	1.272735
0.322070	1.290520
0.322168	1.318726
0.322266	1.349473
0.322363	1.372072
0.322461	1.384153
0.322559	1.391640
0.322656	1.409801
0.322754	1.407354
0.322852	1.419271
0.322949	1.433040
0.323047	1.434521
0.323145	1.437403
0.323242	1.452761
0.323340	1.468818
0.323437	1.470563
0.323535	1.479149
0.323633	1.489659
0.323730	1.497767
0.323828	1.500425
0.323926	1.491891
0.324023	1.484422
0.324121	1.476727
0.324219	1.465581
0.324316	1.461887
0.324414	1.470927
0.324512	1.486118
0.324609	1.495283
0.324707	1.503262
0.324805	1.510899
0.324902	1.508556
0.325000	1.496976
0.325098	1.510702
0.325195	1.522852
0.325293	1.530078
0.325391	1.534207
0.325488	1.551480
0.325586	1.559933
0.325684	1.556456
0.325781	1.543810
0.325879	1.540884
0.325977	1.546113
0.326074	1.563747
0.326172	1.566397
0.326270	1.563053
0.326367	1.542015
0.326465	1.547355
0.326562	1.555451
0.326660	1.539045
0.326758	1.544185
0.326855	1.550931
0.326953	1.549662
0.327051	1.563454
0.327148	1.583770
0.327246	1.556816
0.327344	1.538550
0.327441	1.566654
0.327539	1.585887
0.327637	1.576104
0.327734	1.542384
0.327832	1.531095
0.327930	1.533424
0.328027	1.530727
0.328125	1.561325
0.328223	1.614621
0.328320	1.594485
0.328418	1.563445
0.328516	1.579869
0.328613	1.560559
0.328711	1.574527
0.328809	1.568302
0.328906	1.570899
0.329004	1.538803
0.329102	1.486490
0.329199	1.503175
0.329297	1.526782
0.329395	1.549164
0.329492	1.513704
0.329590	1.488433
0.329687	1.502932
0.329785	1.504144
0.329883	1.504364
0.329980	1.498215
0.330078	1.493523
0.330176	1.489746
0.330273	1.493572
0.330371	1.507980
0.330469	1.497778
0.330566	1.483274
0.330664	1.500665
0.330762	1.488619
0.330859	1.481072
0.330957	1.494158
0.331055	1.481960
0.331152	1.480519
0.331250	1.474899
0.331348	1.456067
0.331445	1.446566
0.331543	1.431957
0.331641	1.419200
0.331738	1.412873
0.331836	1.410229
0.331934	1.406667
0.332031	1.404823
0.332129	1.392953
0.332227	1.370826
0.332324	1.347787
0.332422	1.334317
0.332520	1.344574
0.332617	1.375997
0.332715	1.386211
0.332812	1.378689
0.332910	1.365684
0.333008	1.352521
0.333105	1.341714
0.333203	1.339912
0.333301	1.346194
0.333398	1.357654
0.333496	1.365464
0.333594	1.359365
0.333691	1.345069
0.333789	1.327111
0.333887	1.306403
0.333984	1.292815
0.334082	1.296999
0.334180	1.311727
0.334277	1.323644
0.334375	1.338512
0.334473	1.368112
0.334570	1.412952
0.334668	1.434507
0.334766	1.433397
0.334863	1.425548
0.334961	1.410910
0.335059	1.401019
0.335156	1.394489
0.335254	1.393153
0.335352	1.414279
0.335449	1.422831
0.335547	1.419582
0.335645	1.421008
0.335742	1.424712
0.335840	1.429075
0.335937	1.432618
0.336035	1.436556
0.336133	1.441689
0.336230	1.440851
0.336328	1.428704
0.336426	1.407331
0.336523	1.402459
0.336621	1.402695
0.336719	1.404395
0.336816	1.390291
0.336914	1.396433
0.337012	1.417205
0.337109	1.427195
0.337207	1.415955
0.337305	1.419878
0.337402	1.469603
0.337500	1.452207
0.337598	1.473670
0.337695	1.464042
0.337793	1.475727
0.337891	1.502214
0.337988	1.495907
0.338086	1.499258
0.338184	1.507215
0.338281	1.504028
0.338379	1.500762
0.338477	1.497527
0.338574	1.510385
0.338672	1.502242
0.338770	1.498707
0.338867	1.511926
0.338965	1.530153
0.339062	1.533572
0.339160	1.515931
0.339258	1.505208
0.339355	1.504894
0.339453	1.522639
0.339551	1.548588
0.339648	1.556719
0.339746	1.556214
0.339844	1.564163
0.339941	1.562018
0.340039	1.530964
0.340137	1.526876
0.340234	1.549764
0.340332	1.555055
0.340430	1.543070
0.340527	1.522648
0.340625	1.545405
0.340723	1.569743
0.340820	1.572613
0.340918	1.581598
0.341016	1.569214
0.341113	1.536721
0.341211	1.522762
0.341309	1.534633
0.341406	1.526139
0.341504	1.529492
0.341602	1.526119
0.341699	1.533747
0.341797	1.531855
0.341895	1.537515
0.341992	1.559409
0.342090	1.586503
0.342187	1.604198
0.342285	1.599924
0.342383	1.587074
0.342480	1.573353
0.342578	1.574414
0.342676	1.571645
0.342773	1.548164
0.342871	1.493094
0.342969	1.472237
0.343066	1.472431
0.343164	1.461303
0.343262	1.397060
0.343359	1.385106
0.343457	1.429913
0.343555	1.468873
0.343652	1.514031
0.343750	1.512252
0.343848	1.509197
0.343945	1.500441
0.344043	1.521094
0.344141	1.538681
0.344238	1.563682
0.344336	1.556794
0.344434	1.554861
0.344531	1.561782
0.344629	1.528241
0.344727	1.510222
0.344824	1.510979
0.344922	1.535627
0.345020	1.539199
0.345117	1.537457
0.345215	1.520764
0.345312	1.537998
0.345410	1.587492
0.345508	1.581104
0.345605	1.553109
0.345703	1.558418
0.345801	1.533025
0.345898	1.496067
0.345996	1.468659
0.346094	1.413190
0.346191	1.376651
0.346289	1.357510
0.346387	1.350911
0.346484	1.364806
0.346582	1.366887
0.346680	1.355418
0.346777	1.342982
0.346875	1.361487
0.346973	1.365828
0.347070	1.329156
0.347168	1.321117
0.347266	1.326583
0.347363	1.336205
0.347461	1.372282
0.347559	1.379649
0.347656	1.360589
0.347754	1.337943
0.347852	1.354357
0.347949	1.361793
0.348047	1.399880
0.348145	1.446677
0.348242	1.444219
0.348340	1.461113
0.348437	1.463225
0.348535	1.456782
0.348633	1.447806
0.348730	1.434000
0.348828	1.422906
0.348926	1.432820
0.349023	1.441233
0.349121	1.409767
0.349219	1.443055
0.349316	1.511026
0.349414	1.489016
0.349512	1.486510
0.349609	1.519868
0.349707	1.517268
0.349805	1.546381
0.349902	1.556203
0.350000	1.540225
0.350098	1.509111
0.350195	1.505446
0.350293	1.491429
0.350391	1.450758
0.350488	1.489696
0.350586	1.534735
0.350684	1.588800
0.350781	1.553235
0.350879	1.528916
0.350977	1.562959
0.351074	1.580502
0.351172	1.608937
0.351270	1.585016
0.351367	1.519790
0.351465	1.532761
0.351562	1.567072
0.351660	1.516758
0.351758	1.532931
0.351855	1.564170
0.351953	1.545660
0.352051	1.522739
0.352148	1.502199
0.352246	1.493700
0.352344	1.485025
0.352441	1.509421
0.352539	1.514538
0.352637	1.526363
0.352734	1.519219
0.352832	1.514841
0.352930	1.490658
0.353027	1.442173
0.353125	1.389858
0.353223	1.399781
0.353320	1.464796
0.353418	1.496873
0.353516	1.499571
0.353613	1.472291
0.353711	1.460858
0.353809	1.489822
0.353906	1.491203
0.354004	1.500017
0.354102	1.535853
0.354199	1.488965
0.354297	1.486097
0.354395	1.504026
0.354492	1.493893
0.354590	1.449628
0.354687	1.460740
0.354785	1.450990
0.354883	1.416481
0.354980	1.430072
0.355078	1.463387
0.355176	1.503876
0.355273	1.524154
0.355371	1.499040
0.355469	1.455076
0.355566	1.471717
0.355664	1.491535
0.355762	1.478354
0.355859	1.459686
0.355957	1.450624
0.356055	1.451166
0.356152	1.480647
0.356250	1.497265
0.356348	1.488702
0.356445	1.511369
0.356543	1.549131
0.356641	1.547992
0.356738	1.554413
0.356836	1.564613
0.356934	1.566814
0.357031	1.558005
0.357129	1.550902
0.357227	1.554544
0.357324	1.549324
0.357422	1.560287
0.357520	1.579655
0.357617	1.592845
0.357715	1.581224
0.357812	1.563289
0.357910	1.588236
0.358008	1.581158
0.358105	1.553563
0.358203	1.481359
0.358301	1.476103
0.358398	1.533378
0.358496	1.553831
0.358594	1.549969
0.358691	1.531034
0.358789	1.521744
0.358887	1.508868
0.358984	1.507563
0.359082	1.502004
0.359180	1.485091
0.359277	1.497512
0.359375	1.516122
0.359473	1.516724
0.359570	1.506338
0.359668	1.485232
0.359766	1.457256
0.359863	1.430158
0.359961	1.408703
0.360059	1.393163
0.360156	1.412739
0.360254	1.455885
0.360352	1.464816
0.360449	1.462888
0.360547	1.462968
0.360645	1.450136
0.360742	1.430191
0.360840	1.408774
0.360937	1.392092
0.361035	1.380313
0.361133	1.375665
0.361230	1.368828
0.361328	1.346637
0.361426	1.312024
0.361523	1.360337
0.361621	1.413595
0.361719	1.440500
0.361816	1.437656
0.361914	1.432612
0.362012	1.443429
0.362109	1.451157
0.362207	1.448913
0.362305	1.449399
0.362402	1.428956
0.362500	1.396190
0.362598	1.381017
0.362695	1.372534
0.362793	1.366173
0.362891	1.365743
0.362988	1.372621
0.363086	1.387985
0.363184	1.373295
0.363281	1.338911
0.363379	1.306470
0.363477	1.307541
0.363574	1.355026
0.363672	1.358466
0.363770	1.352295
0.363867	1.362666
0.363965	1.375953
0.364062	1.389553
0.364160	1.402131
0.364258	1.420933
0.364355	1.432152
0.364453	1.433031
0.364551	1.425903
0.364648	1.413082
0.364746	1.403449
0.364844	1.383383
0.364941	1.393662
0.365039	1.424335
0.365137	1.428472
0.365234	1.423202
0.365332	1.412834
0.365430	1.413680
0.365527	1.424726
0.365625	1.432363
0.365723	1.441413
0.365820	1.441693
0.365918	1.434902
0.366016	1.404970
0.366113	1.394026
0.366211	1.389602
0.366309	1.396857
0.366406	1.398826
0.366504	1.349702
0.366602	1.401937
0.366699	1.391028
0.366797	1.484882
0.366895	1.492845
0.366992	1.448722
0.367090	1.426151
0.367187	1.433050
0.367285	1.447265
0.367383	1.457794
0.367480	1.453672
0.367578	1.451750
0.367676	1.448463
0.367773	1.446499
0.367871	1.427527
0.367969	1.445434
0.368066	1.472478
0.368164	1.485711
0.368262	1.469838
0.368359	1.427251
0.368457	1.415465
0.368555	1.403487
0.368652	1.368244
0.368750	1.371491
0.368848	1.358654
0.368945	1.336124
0.369043	1.326341
0.369141	1.338240
0.369238	1.351365
0.369336	1.353276
0.369434	1.351811
0.369531	1.372410
0.369629	1.415912
0.369727	1.443517
0.369824	1.471877
0.369922	1.486715
0.370020	1.506518
0.370117	1.533809
0.370215	1.531222
0.370312	1.514969
0.370410	1.502796
0.370508	1.494173
0.370605	1.486933
0.370703	1.487706
0.370801	1.497564
0.370898	1.505258
0.370996	1.505434
0.371094	1.499861
0.371191	1.499968
0.371289	1.500181
0.371387	1.516534
0.371484	1.517715
0.371582	1.514991
0.371680	1.513345
0.371777	1.488521
0.371875	1.450859
0.371973	1.436209
0.372070	1.438891
0.372168	1.473368
0.372266	1.505751
0.372363	1.512164
0.372461	1.511455
0.372559	1.514471
0.372656	1.512018
0.372754	1.526820
0.372852	1.531564
0.372949	1.524192
0.373047	1.521060
0.373145	1.525841
0.373242	1.531532
0.373340	1.518681
0.373437	1.516698
0.373535	1.516165
0.373633	1.489571
0.373730	1.454934
0.373828	1.437487
0.373926	1.448846
0.374023	1.437726
0.374121	1.435063
0.374219	1.439215
0.374316	1.428691
0.374414	1.411047
0.374512	1.422649
0.374609	1.428004
0.374707	1.424433
0.374805	1.424809
0.374902	1.436585
0.375000	1.443045
0.375098	1.447607
0.375195	1.451821
0.375293	1.441899
0.375391	1.437954
0.375488	1.445214
0.375586	1.450062
0.375684	1.447819
0.375781	1.443423
0.375879	1.433203
0.375977	1.417732
0.376074	1.397984
0.376172	1.376703
0.376270	1.360029
0.376367	1.351746
0.376465	1.348584
0.376562	1.346043
0.376660	1.342235
0.376758	1.336950
0.376855	1.330392
0.376953	1.323860
0.377051	1.317719
0.377148	1.311232
0.377246	1.303558
0.377344	1.294843
0.377441	1.286970
0.377539	1.283892
0.377637	1.287603
0.377734	1.299629
0.377832	1.316255
0.377930	1.332901
0.378027	1.340822
0.378125	1.338780
0.378223	1.330807
0.378320	1.337763
0.378418	1.349269
0.378516	1.360036
0.378613	1.371200
0.378711	1.388839
0.378809	1.399529
0.378906	1.377285
0.379004	1.373649
0.379102	1.404775
0.379199	1.410032
0.379297	1.379871
0.379395	1.370566
0.379492	1.355846
0.379590	1.339993
0.379687	1.350271
0.379785	1.405494
0.379883	1.457244
0.379980	1.462880
0.380078	1.448692
0.380176	1.437136
0.380273	1.426750
0.380371	1.411829
0.380469	1.433297
0.380566	1.458197
0.380664	1.489118
0.380762	1.496416
0.380859	1.473905
0.380957	1.455529
0.381055	1.453259
0.381152	1.442230
0.381250	1.426494
0.381348	1.418599
0.381445	1.413287
0.381543	1.428744
0.381641	1.434745
0.381738	1.425270
0.381836	1.425522
0.381934	1.451348
0.382031	1.467929
0.382129	1.470214
0.382227	1.443172
0.382324	1.440848
0.382422	1.457729
0.382520	1.463331
0.382617	1.465014
0.382715	1.459469
0.382812	1.451814
0.382910	1.446978
0.383008	1.465438
0.383105	1.478922
0.383203	1.473798
0.383301	1.435736
0.383398	1.426082
0.383496	1.448324
0.383594	1.482417
0.383691	1.501812
0.383789	1.471696
0.383887	1.456438
0.383984	1.464063
0.384082	1.472405
0.384180	1.475339
0.384277	1.468783
0.384375	1.471617
0.384473	1.472033
0.384570	1.468711
0.384668	1.459537
0.384766	1.427754
0.384863	1.427051
0.384961	1.432656
0.385059	1.452008
0.385156	1.463855
0.385254	1.503233
0.385352	1.514230
0.385449	1.512046
0.385547	1.457961
0.385645	1.454154
0.385742	1.492698
0.385840	1.413438
0.385937	1.403354
0.386035	1.404976
0.386133	1.377097
0.386230	1.362188
0.386328	1.401231
0.386426	1.483894
0.386523	1.524039
0.386621	1.567502
0.386719	1.590806
0.386816	1.580628
0.386914	1.561211
0.387012	1.548750
0.387109	1.545672
0.387207	1.529813
0.387305	1.521907
0.387402	1.516013
0.387500	1.512647
0.387598	1.501541
0.387695	1.502237
0.387793	1.503586
0.387891	1.489140
0.387988	1.483634
0.388086	1.491621
0.388184	1.497948
0.388281	1.495542
0.388379	1.503765
0.388477	1.494408
0.388574	1.477261
0.388672	1.465495
0.388770	1.444830
0.388867	1.435975
0.388965	1.447129
0.389062	1.458447
0.389160	1.465257
0.389258	1.472646
0.389355	1.475944
0.389453	1.473786
0.389551	1.476431
0.389648	1.491301
0.389746	1.490464
0.389844	1.471162
0.389941	1.440040
0.390039	1.399093
0.390137	1.372139
0.390234	1.380004
0.390332	1.397308
0.390430	1.404055
0.390527	1.401653
0.390625	1.397923
0.390723	1.393921
0.390820	1.389402
0.390918	1.385443
0.391016	1.382501
0.391113	1.381011
0.391211	1.379469
0.391309	1.374934
0.391406	1.365290
0.391504	1.353269
0.391602	1.341755
0.391699	1.334899
0.391797	1.335414
0.391895	1.344721
0.391992	1.358185
0.392090	1.381295
0.392187	1.413553
0.392285	1.415251
0.392383	1.392551
0.392480	1.369141
0.392578	1.344285
0.392676	1.348609
0.392773	1.338118
0.392871	1.354458
0.392969	1.415330
0.393066	1.439902
0.393164	1.437239
0.393262	1.409129
0.393359	1.382888
0.393457	1.378913
0.393555	1.375327
0.393652	1.352819
0.393750	1.329130
0.393848	1.318929
0.393945	1.322652
0.394043	1.331663
0.394141	1.352650
0.394238	1.363369
0.394336	1.361623
0.394434	1.360614
0.394531	1.362006
0.394629	1.364054
0.394727	1.364161
0.394824	1.368286
0.394922	1.381933
0.395020	1.390765
0.395117	1.385177
0.395215	1.380700
0.395312	1.392879
0.395410	1.401082
0.395508	1.401870
0.395605	1.406113
0.395703	1.406855
0.395801	1.403775
0.395898	1.394736
0.395996	1.377047
0.396094	1.352664
0.396191	1.328342
0.396289	1.307559
0.396387	1.298062
0.396484	1.295726
0.396582	1.293148
0.396680	1.289063
0.396777	1.285903
0.396875	1.285172
0.396973	1.297475
0.397070	1.316304
0.397168	1.318233
0.397266	1.305555
0.397363	1.294447
0.397461	1.285563
0.397559	1.276611
0.397656	1.267387
0.397754	1.291121
0.397852	1.353015
0.397949	1.391400
0.398047	1.420485
0.398145	1.425719
0.398242	1.392956
0.398340	1.364260
0.398437	1.359184
0.398535	1.371339
0.398633	1.385870
0.398730	1.402339
0.398828	1.407460
0.398926	1.396702
0.399023	1.360502
0.399121	1.318333
0.399219	1.288251
0.399316	1.263525
0.399414	1.245425
0.399512	1.278837
0.399609	1.350416
0.399707	1.362901
0.399805	1.344092
0.399902	1.308559
0.400000	1.277029
0.400098	1.254381
0.400195	1.262528
0.400293	1.346703
0.400391	1.402477
0.400488	1.428928
0.400586	1.401060
0.400684	1.359420
0.400781	1.360905
0.400879	1.337426
0.400977	1.322062
0.401074	1.307900
0.401172	1.297149
0.401270	1.290129
0.401367	1.286239
0.401465	1.279537
0.401562	1.281209
0.401660	1.295716
0.401758	1.325544
0.401855	1.366950
0.401953	1.400866
0.402051	1.412689
0.402148	1.410286
0.402246	1.409243
0.402344	1.409418
0.402441	1.416284
0.402539	1.425081
0.402637	1.428711
0.402734	1.419574
0.402832	1.416819
0.402930	1.417404
0.403027	1.414002
0.403125	1.410331
0.403223	1.403773
0.403320	1.394413
0.403418	1.382901
0.403516	1.371580
0.403613	1.358529
0.403711	1.346763
0.403809	1.346443
0.403906	1.373115
0.404004	1.408987
0.404102	1.439239
0.404199	1.447844
0.404297	1.428836
0.404395	1.400464
0.404492	1.375581
0.404590	1.376069
0.404687	1.392552
0.404785	1.396091
0.404883	1.398089
0.404980	1.392893
0.405078	1.379307
0.405176	1.361952
0.405273	1.344279
0.405371	1.333660
0.405469	1.329514
0.405566	1.331172
0.405664	1.318018
0.405762	1.279648
0.405859	1.251050
0.405957	1.246208
0.406055	1.253343
0.406152	1.257889
0.406250	1.258176
0.406348	1.255566
0.406445	1.252506
0.406543	1.250154
0.406641	1.248453
0.406738	1.245089
0.406836	1.240370
0.406934	1.234749
0.407031	1.228394
0.407129	1.222116
0.407227	1.216683
0.407324	1.212109
0.407422	1.209424
0.407520	1.208925
0.407617	1.210358
0.407715	1.212897
0.407812	1.216048
0.407910	1.219467
0.408008	1.222770
0.408105	1.225993
0.408203	1.229435
0.408301	1.233980
0.408398	1.240161
0.408496	1.247920
0.408594	1.256794
0.408691	1.265834
0.408789	1.274507
0.408887	1.282132
0.408984	1.288329
0.409082	1.292993
0.409180	1.296455
0.409277	1.299325
0.409375	1.303871
0.409473	1.311178
0.409570	1.319640
0.409668	1.325344
0.409766	1.329983
0.409863	1.333474
0.409961	1.339303
0.410059	1.361591
0.410156	1.393151
0.410254	1.403177
0.410352	1.394340
0.410449	1.387639
0.410547	1.386135
0.410645	1.388336
0.410742	1.387269
0.410840	1.380862
0.410937	1.371054
0.411035	1.367211
0.411133	1.371599
0.411230	1.373613
0.411328	1.372355
0.411426	1.381807
0.411523	1.395720
0.411621	1.403794
0.411719	1.410356
0.411816	1.418823
0.411914	1.423159
0.412012	1.422046
0.412109	1.420503
0.412207	1.428167
0.412305	1.432766
0.412402	1.427597
0.412500	1.411920
0.412598	1.406057
0.412695	1.417918
0.412793	1.416338
0.412891	1.407831
0.412988	1.394133
0.413086	1.383574
0.413184	1.383850
0.413281	1.390924
0.413379	1.397992
0.413477	1.401636
0.413574	1.399327
0.413672	1.396894
0.413770	1.400930
0.413867	1.403487
0.413965	1.400904
0.414062	1.398393
0.414160	1.394950
0.414258	1.393400
0.414355	1.394601
0.414453	1.398358
0.414551	1.423492
0.414648	1.456460
0.414746	1.466824
0.414844	1.472727
0.414941	1.478352
0.415039	1.487670
0.415137	1.490376
0.415234	1.496035
0.415332	1.496505
0.415430	1.489787
0.415527	1.475024
0.415625	1.468684
0.415723	1.461661
0.415820	1.450298
0.415918	1.455901
0.416016	1.459328
0.416113	1.446039
0.416211	1.436314
0.416309	1.403701
0.416406	1.371958
0.416504	1.420871
0.416602	1.378630
0.416699	1.376801
0.416797	1.441129
0.416895	1.485076
0.416992	1.499594
0.417090	1.497274
0.417187	1.510207
0.417285	1.551555
0.417383	1.587588
0.417480	1.617470
0.417578	1.600802
0.417676	1.576000
0.417773	1.569265
0.417871	1.566814
0.417969	1.559872
0.418066	1.557960
0.418164	1.506176
0.418262	1.529011
0.418359	1.568344
0.418457	1.541942
0.418555	1.542137
0.418652	1.532211
0.418750	1.546014
0.418848	1.556270
0.418945	1.508667
0.419043	1.483968
0.419141	1.469162
0.419238	1.450411
0.419336	1.475748
0.419434	1.497180
0.419531	1.464397
0.419629	1.439592
0.419727	1.442534
0.419824	1.439814
0.419922	1.427283
0.420020	1.416968
0.420117	1.427293
0.420215	1.455472
0.420312	1.467731
0.420410	1.477203
0.420508	1.486983
0.420605	1.485558
0.420703	1.480066
0.420801	1.475627
0.420898	1.461277
0.420996	1.450677
0.421094	1.455876
0.421191	1.457321
0.421289	1.445974
0.421387	1.438900
0.421484	1.444494
0.421582	1.455028
0.421680	1.451859
0.421777	1.441012
0.421875	1.428361
0.421973	1.447090
0.422070	1.521380
0.422168	1.546718
0.422266	1.538320
0.422363	1.533380
0.422461	1.521912
0.422559	1.501252
0.422656	1.470518
0.422754	1.450612
0.422852	1.447870
0.422949	1.437491
0.423047	1.420184
0.423145	1.387749
0.423242	1.357883
0.423340	1.353762
0.423437	1.373000
0.423535	1.386719
0.423633	1.400032
0.423730	1.401504
0.423828	1.414330
0.423926	1.387246
0.424023	1.338038
0.424121	1.303772
0.424219	1.278476
0.424316	1.270031
0.424414	1.259567
0.424512	1.250273
0.424609	1.248218
0.424707	1.261291
0.424805	1.280942
0.424902	1.291283
0.425000	1.282190
0.425098	1.263574
0.425195	1.248061
0.425293	1.254965
0.425391	1.278184
0.425488	1.284624
0.425586	1.271612
0.425684	1.251414
0.425781	1.235232
0.425879	1.238237
0.425977	1.273654
0.426074	1.306247
0.426172	1.344984
0.426270	1.393937
0.426367	1.444498
0.426465	1.493021
0.426562	1.507698
0.426660	1.503210
0.426758	1.496085
0.426855	1.489377
0.426953	1.483796
0.427051	1.485527
0.427148	1.471452
0.427246	1.430761
0.427344	1.392832
0.427441	1.382761
0.427539	1.380496
0.427637	1.375515
0.427734	1.363698
0.427832	1.350829
0.427930	1.327844
0.428027	1.307511
0.428125	1.324509
0.428223	1.369354
0.428320	1.405653
0.428418	1.443139
0.428516	1.463163
0.428613	1.466858
0.428711	1.458785
0.428809	1.470435
0.428906	1.476476
0.429004	1.454234
0.429102	1.423923
0.429199	1.408881
0.429297	1.421362
0.429395	1.434111
0.429492	1.432941
0.429590	1.413974
0.429687	1.389969
0.429785	1.378040
0.429883	1.382608
0.429980	1.349379
0.430078	1.301161
0.430176	1.269247
0.430273	1.292115
0.430371	1.409829
0.430469	1.453771
0.430566	1.430980
0.430664	1.445799
0.430762	1.481922
0.430859	1.491841
0.430957	1.474866
0.431055	1.458075
0.431152	1.441889
0.431250	1.430040
0.431348	1.427049
0.431445	1.416046
0.431543	1.402666
0.431641	1.400171
0.431738	1.391675
0.431836	1.389084
0.431934	1.398646
0.432031	1.408143
0.432129	1.433468
0.432227	1.459943
0.432324	1.476941
0.432422	1.469369
0.432520	1.489062
0.432617	1.527671
0.432715	1.514240
0.432812	1.504900
0.432910	1.545446
0.433008	1.589815
0.433105	1.589187
0.433203	1.568435
0.433301	1.556979
0.433398	1.564846
0.433496	1.542448
0.433594	1.488110
0.433691	1.497340
0.433789	1.527392
0.433887	1.487648
0.433984	1.517280
0.434082	1.528966
0.434180	1.482353
0.434277	1.468166
0.434375	1.458769
0.434473	1.477906
0.434570	1.473103
0.434668	1.469228
0.434766	1.453647
0.434863	1.482903
0.434961	1.506055
0.435059	1.484356
0.435156	1.475857
0.435254	1.465077
0.435352	1.470870
0.435449	1.467849
0.435547	1.474897
0.435645	1.507786
0.435742	1.526754
0.435840	1.527861
0.435937	1.552684
0.436035	1.574370
0.436133	1.581664
0.436230	1.565718
0.436328	1.554410
0.436426	1.575839
0.436523	1.574326
0.436621	1.585837
0.436719	1.562893
0.436816	1.570183
0.436914	1.580582
0.437012	1.581328
0.437109	1.565944
0.437207	1.558825
0.437305	1.560116
0.437402	1.553076
0.437500	1.584008
0.437598	1.546144
0.437695	1.510266
0.437793	1.546844
0.437891	1.566603
0.437988	1.570846
0.438086	1.587992
0.438184	1.593056
0.438281	1.593366
0.438379	1.580534
0.438477	1.568601
0.438574	1.532564
0.438672	1.500402
0.438770	1.469358
0.438867	1.485934
0.438965	1.474740
0.439062	1.465287
0.439160	1.451433
0.439258	1.426723
0.439355	1.503435
0.439453	1.470648
0.439551	1.469658
0.439648	1.506147
0.439746	1.537534
0.439844	1.545596
0.439941	1.556285
0.440039	1.551349
0.440137	1.537440
0.440234	1.524449
0.440332	1.520426
0.440430	1.508414
0.440527	1.495851
0.440625	1.486874
0.440723	1.475246
0.440820	1.472134
0.440918	1.477251
0.441016	1.479231
0.441113	1.479874
0.441211	1.478801
0.441309	1.476870
0.441406	1.474022
0.441504	1.488180
0.441602	1.489517
0.441699	1.480134
0.441797	1.476548
0.441895	1.460332
0.441992	1.428643
0.442090	1.406095
0.442187	1.414533
0.442285	1.429383
0.442383	1.440724
0.442480	1.449772
0.442578	1.437732
0.442676	1.434193
0.442773	1.455933
0.442871	1.424369
0.442969	1.396587
0.443066	1.452684
0.443164	1.470076
0.443262	1.478989
0.443359	1.516372
0.443457	1.494071
0.443555	1.484317
0.443652	1.458727
0.443750	1.402948
0.443848	1.329415
0.443945	1.307661
0.444043	1.374545
0.444141	1.447470
0.444238	1.520697
0.444336	1.496725
0.444434	1.451657
0.444531	1.409905
0.444629	1.392375
0.444727	1.392209
0.444824	1.338338
0.444922	1.400591
0.445020	1.404544
0.445117	1.402487
0.445215	1.361158
0.445312	1.356441
0.445410	1.375159
0.445508	1.366098
0.445605	1.333769
0.445703	1.326760
0.445801	1.328867
0.445898	1.425627
0.445996	1.520756
0.446094	1.551110
0.446191	1.550704
0.446289	1.526683
0.446387	1.536069
0.446484	1.537808
0.446582	1.542901
0.446680	1.541354
0.446777	1.546358
0.446875	1.547097
0.446973	1.550821
0.447070	1.547997
0.447168	1.544618
0.447266	1.541162
0.447363	1.531343
0.447461	1.524825
0.447559	1.522638
0.447656	1.518920
0.447754	1.517187
0.447852	1.516058
0.447949	1.508044
0.448047	1.508618
0.448145	1.508705
0.448242	1.495606
0.448340	1.468759
0.448437	1.473234
0.448535	1.476088
0.448633	1.473271
0.448730	1.490169
0.448828	1.498312
0.448926	1.527803
0.449023	1.499430
0.449121	1.469350
0.449219	1.471685
0.449316	1.443063
0.449414	1.470906
0.449512	1.495529
0.449609	1.489536
0.449707	1.485699
0.449805	1.503890
0.449902	1.504407
0.450000	1.474377
0.450098	1.448554
0.450195	1.456473
0.450293	1.480263
0.450391	1.469145
0.450488	1.480498
0.450586	1.493274
0.450684	1.452163
0.450781	1.402690
0.450879	1.361216
0.450977	1.346410
0.451074	1.374294
0.451172	1.431732
0.451270	1.449300
0.451367	1.452678
0.451465	1.444014
0.451562	1.433616
0.451660	1.422308
0.451758	1.407349
0.451855	1.409659
0.451953	1.419920
0.452051	1.422894
0.452148	1.436512
0.452246	1.443409
0.452344	1.434683
0.452441	1.449404
0.452539	1.460207
0.452637	1.477297
0.452734	1.475577
0.452832	1.488210
0.452930	1.511909
0.453027	1.492102
0.453125	1.508187
0.453223	1.549518
0.453320	1.534759
0.453418	1.457799
0.453516	1.410694
0.453613	1.455523
0.453711	1.523030
0.453809	1.525967
0.453906	1.582877
0.454004	1.600420
0.454102	1.529279
0.454199	1.434568
0.454297	1.334852
0.454395	1.419185
0.454492	1.549004
0.454590	1.575593
0.454687	1.591293
0.454785	1.568714
0.454883	1.542395
0.454980	1.515257
0.455078	1.502962
0.455176	1.502480
0.455273	1.499432
0.455371	1.450060
0.455469	1.449043
0.455566	1.408047
0.455664	1.406585
0.455762	1.439090
0.455859	1.464862
0.455957	1.502753
0.456055	1.484897
0.456152	1.482000
0.456250	1.476392
0.456348	1.488015
0.456445	1.479399
0.456543	1.458921
0.456641	1.441396
0.456738	1.452675
0.456836	1.495168
0.456934	1.551485
0.457031	1.557142
0.457129	1.513251
0.457227	1.503814
0.457324	1.478604
0.457422	1.443623
0.457520	1.500172
0.457617	1.552430
0.457715	1.524790
0.457812	1.491917
0.457910	1.494882
0.458008	1.484890
0.458105	1.473822
0.458203	1.494525
0.458301	1.500416
0.458398	1.492316
0.458496	1.488834
0.458594	1.521250
0.458691	1.536546
0.458789	1.581838
0.458887	1.603575
0.458984	1.575317
0.459082	1.506654
0.459180	1.597311
0.459277	1.576294
0.459375	1.566707
0.459473	1.619118
0.459570	1.622129
0.459668	1.575458
0.459766	1.562908
0.459863	1.607281
0.459961	1.630475
0.460059	1.660084
0.460156	1.646588
0.460254	1.636858
0.460352	1.608212
0.460449	1.601981
0.460547	1.570040
0.460645	1.564411
0.460742	1.545299
0.460840	1.591874
0.460937	1.614638
0.461035	1.594696
0.461133	1.590976
0.461230	1.573755
0.461328	1.573861
0.461426	1.573511
0.461523	1.557101
0.461621	1.531836
0.461719	1.500952
0.461816	1.495730
0.461914	1.509440
0.462012	1.528706
0.462109	1.524590
0.462207	1.512685
0.462305	1.484812
0.462402	1.449014
0.462500	1.445243
0.462598	1.449004
0.462695	1.439109
0.462793	1.447661
0.462891	1.465225
0.462988	1.467711
0.463086	1.463561
0.463184	1.466892
0.463281	1.462484
0.463379	1.445380
0.463477	1.465826
0.463574	1.477181
0.463672	1.447136
0.463770	1.408010
0.463867	1.399493
0.463965	1.400040
0.464062	1.404054
0.464160	1.416911
0.464258	1.426572
0.464355	1.420509
0.464453	1.414278
0.464551	1.416933
0.464648	1.416189
0.464746	1.417850
0.464844	1.433002
0.464941	1.446793
0.465039	1.439187
0.465137	1.425358
0.465234	1.410781
0.465332	1.400058
0.465430	1.402606
0.465527	1.402707
0.465625	1.416551
0.465723	1.428082
0.465820	1.414966
0.465918	1.405289
0.466016	1.394916
0.466113	1.377551
0.466211	1.350933
0.466309	1.341765
0.466406	1.364606
0.466504	1.387109
0.466602	1.396279
0.466699	1.408238
0.466797	1.417158
0.466895	1.420119
0.466992	1.418591
0.467090	1.417275
0.467187	1.426139
0.467285	1.444413
0.467383	1.452492
0.467480	1.462990
0.467578	1.456585
0.467676	1.443649
0.467773	1.444949
0.467871	1.440480
0.467969	1.433108
0.468066	1.419699
0.468164	1.408774
0.468262	1.435053
0.468359	1.426867
0.468457	1.400715
0.468555	1.389493
0.468652	1.373875
0.468750	1.359514
0.468848	1.355640
0.468945	1.352355
0.469043	1.342935
0.469141	1.329830
0.469238	1.314393
0.469336	1.298653
0.469434	1.286608
0.469531	1.281987
0.469629	1.277915
0.469727	1.272967
0.469824	1.274509
0.469922	1.292354
0.470020	1.322641
0.470117	1.345828
0.470215	1.347118
0.470312	1.334572
0.470410	1.316173
0.470508	1.293276
0.470605	1.271301
0.470703	1.255216
0.470801	1.247018
0.470898	1.241975
0.470996	1.246150
0.471094	1.262238
0.471191	1.285423
0.471289	1.314856
0.471387	1.347448
0.471484	1.362822
0.471582	1.363191
0.471680	1.357616
0.471777	1.347335
0.471875	1.349677
0.471973	1.370931
0.472070	1.380130
0.472168	1.372149
0.472266	1.353014
0.472363	1.339486
0.472461	1.365575
0.472559	1.390014
0.472656	1.398734
0.472754	1.399351
0.472852	1.400351
0.472949	1.403346
0.473047	1.404823
0.473145	1.403847
0.473242	1.406906
0.473340	1.416988
0.473437	1.428872
0.473535	1.433322
0.473633	1.439944
0.473730	1.454093
0.473828	1.449807
0.473926	1.470830
0.474023	1.462948
0.474121	1.459166
0.474219	1.442361
0.474316	1.438307
0.474414	1.468164
0.474512	1.483889
0.474609	1.484304
0.474707	1.470316
0.474805	1.475271
0.474902	1.471630
0.475000	1.462206
0.475098	1.432724
0.475195	1.399220
0.475293	1.383290
0.475391	1.419911
0.475488	1.421806
0.475586	1.375594
0.475684	1.337822
0.475781	1.337639
0.475879	1.342331
0.475977	1.341911
0.476074	1.346903
0.476172	1.338293
0.476270	1.321279
0.476367	1.301415
0.476465	1.282742
0.476562	1.263027
0.476660	1.244717
0.476758	1.230418
0.476855	1.221560
0.476953	1.218688
0.477051	1.222699
0.477148	1.232330
0.477246	1.246779
0.477344	1.264708
0.477441	1.284148
0.477539	1.304499
0.477637	1.326018
0.477734	1.345866
0.477832	1.350467
0.477930	1.348895
0.478027	1.358314
0.478125	1.373606
0.478223	1.390808
0.478320	1.399757
0.478418	1.397536
0.478516	1.398145
0.478613	1.389108
0.478711	1.398346
0.478809	1.422475
0.478906	1.429689
0.479004	1.427989
0.479102	1.424784
0.479199	1.418756
0.479297	1.411913
0.479395	1.416554
0.479492	1.415972
0.479590	1.415708
0.479687	1.411920
0.479785	1.406296
0.479883	1.409850
0.479980	1.411228
0.480078	1.407411
0.480176	1.397805
0.480273	1.385504
0.480371	1.369644
0.480469	1.354365
0.480566	1.340732
0.480664	1.337446
0.480762	1.339406
0.480859	1.346413
0.480957	1.338043
0.481055	1.319196
0.481152	1.311260
0.481250	1.308432
0.481348	1.312425
0.481445	1.333491
0.481543	1.355370
0.481641	1.354315
0.481738	1.351417
0.481836	1.341409
0.481934	1.324859
0.482031	1.323054
0.482129	1.324573
0.482227	1.321895
0.482324	1.323153
0.482422	1.320510
0.482520	1.324426
0.482617	1.381519
0.482715	1.413734
0.482812	1.411761
0.482910	1.414340
0.483008	1.381658
0.483105	1.358645
0.483203	1.373357
0.483301	1.380776
0.483398	1.373803
0.483496	1.376206
0.483594	1.385792
0.483691	1.387090
0.483789	1.371488
0.483887	1.445585
0.483984	1.480918
0.484082	1.457453
0.484180	1.440224
0.484277	1.434918
0.484375	1.410096
0.484473	1.394604
0.484570	1.393391
0.484668	1.378276
0.484766	1.376592
0.484863	1.390223
0.484961	1.394836
0.485059	1.398455
0.485156	1.394356
0.485254	1.412138
0.485352	1.390559
0.485449	1.357508
0.485547	1.350081
0.485645	1.333508
0.485742	1.320601
0.485840	1.318682
0.485937	1.306201
0.486035	1.356642
0.486133	1.445170
0.486230	1.440350
0.486328	1.451104
0.486426	1.447686
0.486523	1.427719
0.486621	1.406276
0.486719	1.395349
0.486816	1.387207
0.486914	1.376992
0.487012	1.365958
0.487109	1.346707
0.487207	1.378174
0.487305	1.437683
0.487402	1.450195
0.487500	1.408354
0.487598	1.396937
0.487695	1.408398
0.487793	1.420729
0.487891	1.457318
0.487988	1.512307
0.488086	1.582145
0.488184	1.533821
0.488281	1.520951
0.488379	1.539137
0.488477	1.540677
0.488574	1.516936
0.488672	1.494467
0.488770	1.492309
0.488867	1.491177
0.488965	1.504768
0.489062	1.526809
0.489160	1.536748
0.489258	1.520682
0.489355	1.497962
0.489453	1.504788
0.489551	1.486153
0.489648	1.452853
0.489746	1.475266
0.489844	1.501502
0.489941	1.490222
0.490039	1.507499
0.490137	1.529440
0.490234	1.534026
0.490332	1.535591
0.490430	1.517571
0.490527	1.527266
0.490625	1.543414
0.490723	1.520906
0.490820	1.495319
0.490918	1.491910
0.491016	1.488392
0.491113	1.481070
0.491211	1.478601
0.491309	1.481917
0.491406	1.482953
0.491504	1.462256
0.491602	1.452851
0.491699	1.458653
0.491797	1.438978
0.491895	1.412246
0.491992	1.440221
0.492090	1.507367
0.492187	1.525992
0.492285	1.525635
0.492383	1.504565
0.492480	1.468495
0.492578	1.431425
0.492676	1.396981
0.492773	1.393432
0.492871	1.416540
0.492969	1.436976
0.493066	1.441104
0.493164	1.436315
0.493262	1.457069
0.493359	1.465324
0.493457	1.447775
0.493555	1.465592
0.493652	1.502754
0.493750	1.492214
0.493848	1.462824
0.493945	1.454508
0.494043	1.477292
0.494141	1.479007
0.494238	1.479543
0.494336	1.462116
0.494434	1.418865
0.494531	1.422180
0.494629	1.460382
0.494727	1.493218
0.494824	1.533146
0.494922	1.550363
0.495020	1.565156
0.495117	1.568645
0.495215	1.568598
0.495312	1.566802
0.495410	1.571683
0.495508	1.585659
0.495605	1.592165
0.495703	1.576338
0.495801	1.588239
0.495898	1.577835
0.495996	1.576322
0.496094	1.560879
0.496191	1.552991
0.496289	1.557209
0.496387	1.538812
0.496484	1.561178
0.496582	1.549257
0.496680	1.510789
0.496777	1.491050
0.496875	1.493953
0.496973	1.517122
0.497070	1.518485
0.497168	1.514911
0.497266	1.519342
0.497363	1.507289
0.497461	1.493108
0.497559	1.477070
0.497656	1.451475
0.497754	1.433128
0.497852	1.421269
0.497949	1.413882
0.498047	1.406463
0.498145	1.402878
0.498242	1.406036
0.498340	1.412285
0.498437	1.415062
0.498535	1.411383
0.498633	1.405099
0.498730	1.397037
0.498828	1.377290
0.498926	1.361295
0.499023	1.359514
0.499121	1.361985
0.499219	1.361142
0.499316	1.355711
0.499414	1.347184
0.499512	1.336152
0.499609	1.322728
0.499707	1.313142
0.499805	1.316414
0.499902	1.336443
0.500000	1.362883
0.500098	1.385913
0.500195	1.400766
0.500293	1.407669
0.500391	1.415192
0.500488	1.423041
0.500586	1.422966
0.500684	1.423258
0.500781	1.422458
0.500879	1.407829
0.500977	1.390312
0.501074	1.400166
0.501172	1.415422
0.501270	1.422306
0.501367	1.440592
0.501465	1.462328
0.501562	1.467729
0.501660	1.461232
0.501758	1.478657
0.501855	1.493492
0.501953	1.495922
0.502051	1.504542
0.502148	1.500438
0.502246	1.483141
0.502344	1.464560
0.502441	1.441795
0.502539	1.437770
0.502637	1.465586
0.502734	1.472265
0.502832	1.490392
0.502930	1.500406
0.503027	1.509156
0.503125	1.506568
0.503223	1.513712
0.503320	1.537983
0.503418	1.547168
0.503516	1.553352
0.503613	1.560499
0.503711	1.518625
0.503809	1.505712
0.503906	1.500507
0.504004	1.492537
0.504102	1.478602
0.504199	1.446790
0.504297	1.459833
0.504395	1.482523
0.504492	1.516282
0.504590	1.513391
0.504687	1.490948
0.504785	1.469889
0.504883	1.443189
0.504980	1.432150
0.505078	1.422386
0.505176	1.438947
0.505273	1.441554
0.505371	1.451517
0.505469	1.464001
0.505566	1.464826
0.505664	1.466335
0.505762	1.467245
0.505859	1.453727
0.505957	1.465064
0.506055	1.501288
0.506152	1.515930
0.506250	1.533730
0.506348	1.553635
0.506445	1.531465
0.506543	1.467462
0.506641	1.467055
0.506738	1.451551
0.506836	1.455828
0.506934	1.473739
0.507031	1.478120
0.507129	1.478340
0.507227	1.490794
0.507324	1.492822
0.507422	1.463832
0.507520	1.442703
0.507617	1.436284
0.507715	1.456770
0.507812	1.491979
0.507910	1.540672
0.508008	1.549757
0.508105	1.553920
0.508203	1.536357
0.508301	1.560946
0.508398	1.565608
0.508496	1.578799
0.508594	1.620681
0.508691	1.539037
0.508789	1.529834
0.508887	1.533608
0.508984	1.534501
0.509082	1.517920
0.509180	1.521621
0.509277	1.535252
0.509375	1.561361
0.509473	1.577135
0.509570	1.545348
0.509668	1.501779
0.509766	1.532093
0.509863	1.525296
0.509961	1.526024
0.510059	1.514386
0.510156	1.501675
0.510254	1.487258
0.510352	1.530593
0.510449	1.560116
0.510547	1.546272
0.510645	1.534719
0.510742	1.526676
0.510840	1.518911
0.510937	1.493534
0.511035	1.482460
0.511133	1.461568
0.511230	1.455225
0.511328	1.448410
0.511426	1.435707
0.511523	1.437902
0.511621	1.452695
0.511719	1.472777
0.511816	1.471521
0.511914	1.466362
0.512012	1.452000
0.512109	1.430192
0.512207	1.405502
0.512305	1.400887
0.512402	1.420325
0.512500	1.403604
0.512598	1.368091
0.512695	1.369926
0.512793	1.406876
0.512891	1.442278
0.512988	1.460344
0.513086	1.459964
0.513184	1.463560
0.513281	1.453877
0.513379	1.464282
0.513477	1.483404
0.513574	1.458927
0.513672	1.445893
0.513770	1.465256
0.513867	1.481749
0.513965	1.476251
0.514062	1.479435
0.514160	1.476053
0.514258	1.469271
0.514355	1.462714
0.514453	1.462370
0.514551	1.473541
0.514648	1.485980
0.514746	1.487343
0.514844	1.503766
0.514941	1.516886
0.515039	1.514437
0.515137	1.512006
0.515234	1.476014
0.515332	1.472582
0.515430	1.490132
0.515527	1.489695
0.515625	1.485683
0.515723	1.475555
0.515820	1.473280
0.515918	1.505517
0.516016	1.544230
0.516113	1.603042
0.516211	1.654215
0.516309	1.628324
0.516406	1.584749
0.516504	1.536079
0.516602	1.559216
0.516699	1.588700
0.516797	1.615111
0.516895	1.584815
0.516992	1.583239
0.517090	1.598205
0.517187	1.584539
0.517285	1.604584
0.517383	1.602597
0.517480	1.586371
0.517578	1.608443
0.517676	1.597226
0.517773	1.595196
0.517871	1.588117
0.517969	1.579305
0.518066	1.602870
0.518164	1.576740
0.518262	1.500811
0.518359	1.520484
0.518457	1.588080
0.518555	1.576715
0.518652	1.569599
0.518750	1.619269
0.518848	1.590931
0.518945	1.567364
0.519043	1.561765
0.519141	1.560217
0.519238	1.580919
0.519336	1.560710
0.519434	1.565998
0.519531	1.544559
0.519629	1.514628
0.519727	1.519910
0.519824	1.516587
0.519922	1.507079
0.520020	1.555938
0.520117	1.562114
0.520215	1.512353
0.520312	1.475486
0.520410	1.443258
0.520508	1.494607
0.520605	1.508309
0.520703	1.479731
0.520801	1.472123
0.520898	1.465836
0.520996	1.442535
0.521094	1.475557
0.521191	1.517983
0.521289	1.525536
0.521387	1.545282
0.521484	1.545299
0.521582	1.541590
0.521680	1.551772
0.521777	1.542157
0.521875	1.532401
0.521973	1.545386
0.522070	1.556578
0.522168	1.523127
0.522266	1.504872
0.522363	1.506443
0.522461	1.515820
0.522559	1.535054
0.522656	1.563601
0.522754	1.601045
0.522852	1.588990
0.522949	1.556192
0.523047	1.520744
0.523145	1.511759
0.523242	1.499901
0.523340	1.488551
0.523437	1.492413
0.523535	1.484898
0.523633	1.478308
0.523730	1.456373
0.523828	1.395108
0.523926	1.351002
0.524023	1.406002
0.524121	1.416609
0.524219	1.441070
0.524316	1.486998
0.524414	1.482166
0.524512	1.503927
0.524609	1.503100
0.524707	1.477318
0.524805	1.471690
0.524902	1.452207
0.525000	1.428687
0.525098	1.419658
0.525195	1.428685
0.525293	1.442702
0.525391	1.448312
0.525488	1.445373
0.525586	1.468244
0.525684	1.451253
0.525781	1.432042
0.525879	1.430190
0.525977	1.427301
0.526074	1.419810
0.526172	1.470446
0.526270	1.503643
0.526367	1.504427
0.526465	1.508568
0.526562	1.484753
0.526660	1.486372
0.526758	1.465102
0.526855	1.450864
0.526953	1.450436
0.527051	1.448093
0.527148	1.439244
0.527246	1.429155
0.527344	1.390659
0.527441	1.407342
0.527539	1.447714
0.527637	1.444942
0.527734	1.459628
0.527832	1.491559
0.527930	1.475118
0.528027	1.439410
0.528125	1.425967
0.528223	1.446939
0.528320	1.471344
0.528418	1.472141
0.528516	1.446361
0.528613	1.426844
0.528711	1.443614
0.528809	1.449841
0.528906	1.463652
0.529004	1.472050
0.529102	1.474125
0.529199	1.471834
0.529297	1.471810
0.529395	1.469902
0.529492	1.458887
0.529590	1.452559
0.529687	1.449092
0.529785	1.450853
0.529883	1.456566
0.529980	1.462559
0.530078	1.466772
0.530176	1.463368
0.530273	1.440467
0.530371	1.415090
0.530469	1.409778
0.530566	1.407142
0.530664	1.446599
0.530762	1.522032
0.530859	1.553069
0.530957	1.554280
0.531055	1.547256
0.531152	1.513926
0.531250	1.470557
0.531348	1.470621
0.531445	1.471766
0.531543	1.494342
0.531641	1.527978
0.531738	1.488160
0.531836	1.469227
0.531934	1.517547
0.532031	1.503909
0.532129	1.497140
0.532227	1.487733
0.532324	1.483180
0.532422	1.505552
0.532520	1.511329
0.532617	1.481743
0.532715	1.469291
0.532812	1.476117
0.532910	1.487670
0.533008	1.483275
0.533105	1.511916
0.533203	1.539843
0.533301	1.522251
0.533398	1.524856
0.533496	1.530676
0.533594	1.540452
0.533691	1.531020
0.533789	1.504671
0.533887	1.488804
0.533984	1.494041
0.534082	1.482903
0.534180	1.486151
0.534277	1.479071
0.534375	1.462490
0.534473	1.480371
0.534570	1.484513
0.534668	1.481665
0.534766	1.472738
0.534863	1.505158
0.534961	1.530409
0.535059	1.531329
0.535156	1.530884
0.535254	1.502415
0.535352	1.472109
0.535449	1.456411
0.535547	1.466857
0.535645	1.477878
0.535742	1.504970
0.535840	1.521818
0.535937	1.507365
0.536035	1.471124
0.536133	1.462722
0.536230	1.449732
0.536328	1.410952
0.536426	1.346330
0.536523	1.324039
0.536621	1.304359
0.536719	1.354407
0.536816	1.399031
0.536914	1.377151
0.537012	1.375288
0.537109	1.386003
0.537207	1.411192
0.537305	1.425335
0.537402	1.448456
0.537500	1.458392
0.537598	1.463185
0.537695	1.467499
0.537793	1.472623
0.537891	1.460357
0.537988	1.439571
0.538086	1.423178
0.538184	1.414986
0.538281	1.409093
0.538379	1.408664
0.538477	1.410871
0.538574	1.420172
0.538672	1.443196
0.538770	1.461820
0.538867	1.474888
0.538965	1.466342
0.539062	1.455336
0.539160	1.452298
0.539258	1.445423
0.539355	1.444963
0.539453	1.450259
0.539551	1.438188
0.539648	1.430742
0.539746	1.446246
0.539844	1.499948
0.539941	1.525376
0.540039	1.520362
0.540137	1.511288
0.540234	1.518923
0.540332	1.477469
0.540430	1.458109
0.540527	1.447358
0.540625	1.436542
0.540723	1.477451
0.540820	1.501635
0.540918	1.499228
0.541016	1.495165
0.541113	1.502856
0.541211	1.490231
0.541309	1.494491
0.541406	1.496863
0.541504	1.517253
0.541602	1.526030
0.541699	1.522645
0.541797	1.538412
0.541895	1.532864
0.541992	1.517741
0.542090	1.527262
0.542187	1.514642
0.542285	1.515883
0.542383	1.528284
0.542480	1.523951
0.542578	1.521134
0.542676	1.531817
0.542773	1.534470
0.542871	1.522206
0.542969	1.500529
0.543066	1.480611
0.543164	1.458279
0.543262	1.439476
0.543359	1.418613
0.543457	1.394142
0.543555	1.383744
0.543652	1.384962
0.543750	1.378810
0.543848	1.358068
0.543945	1.364753
0.544043	1.386320
0.544141	1.385363
0.544238	1.379609
0.544336	1.375271
0.544434	1.376189
0.544531	1.373169
0.544629	1.367332
0.544727	1.354956
0.544824	1.342539
0.544922	1.332919
0.545020	1.330101
0.545117	1.314881
0.545215	1.303833
0.545312	1.329796
0.545410	1.356918
0.545508	1.360829
0.545605	1.362852
0.545703	1.375811
0.545801	1.379506
0.545898	1.368823
0.545996	1.360047
0.546094	1.368050
0.546191	1.403067
0.546289	1.427106
0.546387	1.425787
0.546484	1.431244
0.546582	1.437640
0.546680	1.442863
0.546777	1.465534
0.546875	1.485384
0.546973	1.481842
0.547070	1.467846
0.547168	1.455529
0.547266	1.453066
0.547363	1.452887
0.547461	1.450857
0.547559	1.437095
0.547656	1.426343
0.547754	1.413532
0.547852	1.421000
0.547949	1.426791
0.548047	1.473352
0.548145	1.528379
0.548242	1.529615
0.548340	1.502007
0.548437	1.474788
0.548535	1.460224
0.548633	1.445153
0.548730	1.474265
0.548828	1.459259
0.548926	1.381964
0.549023	1.336322
0.549121	1.304752
0.549219	1.322438
0.549316	1.346656
0.549414	1.310312
0.549512	1.319294
0.549609	1.364508
0.549707	1.384934
0.549805	1.401489
0.549902	1.404974
0.550000	1.383110
0.550098	1.346910
0.550195	1.365395
0.550293	1.410975
0.550391	1.445054
0.550488	1.460297
0.550586	1.445339
0.550684	1.422281
0.550781	1.405027
0.550879	1.397612
0.550977	1.443583
0.551074	1.507145
0.551172	1.516794
0.551270	1.511527
0.551367	1.517872
0.551465	1.527439
0.551562	1.493584
0.551660	1.505125
0.551758	1.518725
0.551855	1.512289
0.551953	1.525536
0.552051	1.531156
0.552148	1.544000
0.552246	1.563127
0.552344	1.561176
0.552441	1.553527
0.552539	1.531664
0.552637	1.514420
0.552734	1.533617
0.552832	1.538909
0.552930	1.494099
0.553027	1.515078
0.553125	1.556063
0.553223	1.505496
0.553320	1.549725
0.553418	1.535422
0.553516	1.521056
0.553613	1.547993
0.553711	1.527556
0.553809	1.502970
0.553906	1.511426
0.554004	1.534964
0.554102	1.528780
0.554199	1.542021
0.554297	1.551017
0.554395	1.534059
0.554492	1.493220
0.554590	1.516876
0.554687	1.552187
0.554785	1.583344
0.554883	1.561359
0.554980	1.551332
0.555078	1.541990
0.555176	1.521750
0.555273	1.546425
0.555371	1.555312
0.555469	1.560370
0.555566	1.603451
0.555664	1.592771
0.555762	1.574987
0.555859	1.547087
0.555957	1.555703
0.556055	1.575222
0.556152	1.558659
0.556250	1.542011
0.556348	1.539239
0.556445	1.528060
0.556543	1.533127
0.556641	1.534264
0.556738	1.537871
0.556836	1.544805
0.556934	1.551219
0.557031	1.540410
0.557129	1.540365
0.557227	1.561893
0.557324	1.563739
0.557422	1.576600
0.557520	1.580876
0.557617	1.566057
0.557715	1.563515
0.557812	1.542140
0.557910	1.548974
0.558008	1.557635
0.558105	1.577631
0.558203	1.567362
0.558301	1.554906
0.558398	1.539172
0.558496	1.539341
0.558594	1.522751
0.558691	1.518019
0.558789	1.538409
0.558887	1.520482
0.558984	1.469142
0.559082	1.438926
0.559180	1.440462
0.559277	1.437059
0.559375	1.457568
0.559473	1.470805
0.559570	1.469044
0.559668	1.474920
0.559766	1.494985
0.559863	1.483515
0.559961	1.453790
0.560059	1.450803
0.560156	1.452028
0.560254	1.450182
0.560352	1.450594
0.560449	1.449257
0.560547	1.455263
0.560645	1.479081
0.560742	1.486987
0.560840	1.477732
0.560937	1.482928
0.561035	1.486203
0.561133	1.486442
0.561230	1.478874
0.561328	1.480118
0.561426	1.472060
0.561523	1.444984
0.561621	1.427351
0.561719	1.439357
0.561816	1.463875
0.561914	1.472187
0.562012	1.466023
0.562109	1.458040
0.562207	1.440497
0.562305	1.427156
0.562402	1.433354
0.562500	1.448138
0.562598	1.453429
0.562695	1.413285
0.562793	1.452822
0.562891	1.488889
0.562988	1.471207
0.563086	1.448738
0.563184	1.420109
0.563281	1.425211
0.563379	1.450087
0.563477	1.447016
0.563574	1.427273
0.563672	1.426406
0.563770	1.419565
0.563867	1.393203
0.563965	1.364285
0.564062	1.343009
0.564160	1.357679
0.564258	1.385030
0.564355	1.401877
0.564453	1.404532
0.564551	1.404850
0.564648	1.406005
0.564746	1.406155
0.564844	1.425415
0.564941	1.439039
0.565039	1.429922
0.565137	1.435594
0.565234	1.442180
0.565332	1.430172
0.565430	1.410015
0.565527	1.396095
0.565625	1.388382
0.565723	1.389632
0.565820	1.391578
0.565918	1.393385
0.566016	1.393551
0.566113	1.396078
0.566211	1.400232
0.566309	1.407482
0.566406	1.419192
0.566504	1.433059
0.566602	1.444741
0.566699	1.458216
0.566797	1.463206
0.566895	1.455502
0.566992	1.436989
0.567090	1.413356
0.567187	1.400029
0.567285	1.398769
0.567383	1.408901
0.567480	1.416339
0.567578	1.416059
0.567676	1.416105
0.567773	1.413604
0.567871	1.402457
0.567969	1.393861
0.568066	1.385682
0.568164	1.392615
0.568262	1.408269
0.568359	1.438433
0.568457	1.464845
0.568555	1.485450
0.568652	1.491557
0.568750	1.458448
0.568848	1.430691
0.568945	1.451155
0.569043	1.497594
0.569141	1.532243
0.569238	1.548752
0.569336	1.532022
0.569434	1.515948
0.569531	1.519957
0.569629	1.537594
0.569727	1.552340
0.569824	1.552245
0.569922	1.549308
0.570020	1.547251
0.570117	1.559525
0.570215	1.584914
0.570312	1.584731
0.570410	1.574746
0.570508	1.576784
0.570605	1.592962
0.570703	1.601366
0.570801	1.601390
0.570898	1.605107
0.570996	1.608825
0.571094	1.592173
0.571191	1.596024
0.571289	1.596839
0.571387	1.584852
0.571484	1.596148
0.571582	1.592557
0.571680	1.581773
0.571777	1.562875
0.571875	1.591376
0.571973	1.608465
0.572070	1.608619
0.572168	1.586190
0.572266	1.542662
0.572363	1.511909
0.572461	1.514855
0.572559	1.521333
0.572656	1.549110
0.572754	1.559999
0.572852	1.533550
0.572949	1.521666
0.573047	1.536259
0.573145	1.567013
0.573242	1.597950
0.573340	1.640295
0.573437	1.632338
0.573535	1.628227
0.573633	1.615172
0.573730	1.598055
0.573828	1.593650
0.573926	1.631319
0.574023	1.615986
0.574121	1.605711
0.574219	1.584879
0.574316	1.576211
0.574414	1.508506
0.574512	1.485106
0.574609	1.561121
0.574707	1.541010
0.574805	1.523626
0.574902	1.520330
0.575000	1.539723
0.575098	1.540754
0.575195	1.538143
0.575293	1.556896
0.575391	1.560242
0.575488	1.540254
0.575586	1.548500
0.575684	1.562757
0.575781	1.553937
0.575879	1.544793
0.575977	1.516953
0.576074	1.458056
0.576172	1.430667
0.576270	1.442103
0.576367	1.417997
0.576465	1.323653
0.576562	1.372110
0.576660	1.480024
0.576758	1.462448
0.576855	1.439434
0.576953	1.408680
0.577051	1.385985
0.577148	1.439435
0.577246	1.513213
0.577344	1.501332
0.577441	1.499634
0.577539	1.512652
0.577637	1.473758
0.577734	1.460597
0.577832	1.435200
0.577930	1.417139
0.578027	1.393092
0.578125	1.380048
0.578223	1.370199
0.578320	1.367933
0.578418	1.418018
0.578516	1.447372
0.578613	1.441688
0.578711	1.457796
0.578809	1.501210
0.578906	1.552592
0.579004	1.507931
0.579102	1.499222
0.579199	1.519880
0.579297	1.541074
0.579395	1.545047
0.579492	1.527329
0.579590	1.506667
0.579687	1.511880
0.579785	1.499921
0.579883	1.494107
0.579980	1.467619
0.580078	1.497435
0.580176	1.560957
0.580273	1.586834
0.580371	1.595774
0.580469	1.586475
0.580566	1.631254
0.580664	1.653160
0.580762	1.630223
0.580859	1.610095
0.580957	1.591765
0.581055	1.586389
0.581152	1.602926
0.581250	1.599651
0.581348	1.598028
0.581445	1.613982
0.581543	1.608367
0.581641	1.621451
0.581738	1.635782
0.581836	1.597850
0.581934	1.575175
0.582031	1.565340
0.582129	1.557440
0.582227	1.644621
0.582324	1.625395
0.582422	1.594793
0.582520	1.625722
0.582617	1.612604
0.582715	1.567399
0.582812	1.518565
0.582910	1.505481
0.583008	1.545837
0.583105	1.546055
0.583203	1.526998
0.583301	1.531579
0.583398	1.541179
0.583496	1.521084
0.583594	1.475007
0.583691	1.477685
0.583789	1.490826
0.583887	1.460849
0.583984	1.467847
0.584082	1.481646
0.584180	1.482313
0.584277	1.507043
0.584375	1.490741
0.584473	1.504754
0.584570	1.526281
0.584668	1.504040
0.584766	1.475495
0.584863	1.507415
0.584961	1.535185
0.585059	1.534909
0.585156	1.487185
0.585254	1.485173
0.585352	1.518429
0.585449	1.530486
0.585547	1.540766
0.585645	1.539526
0.585742	1.509261
0.585840	1.497846
0.585937	1.510884
0.586035	1.512215
0.586133	1.505888
0.586230	1.513415
0.586328	1.515263
0.586426	1.505405
0.586523	1.489767
0.586621	1.487091
0.586719	1.489629
0.586816	1.482264
0.586914	1.473584
0.587012	1.462531
0.587109	1.447269
0.587207	1.431244
0.587305	1.425816
0.587402	1.442134
0.587500	1.432375
0.587598	1.406211
0.587695	1.421166
0.587793	1.449125
0.587891	1.456051
0.587988	1.460258
0.588086	1.503538
0.588184	1.534848
0.588281	1.518399
0.588379	1.525796
0.588477	1.542811
0.588574	1.547104
0.588672	1.545752
0.588770	1.527077
0.588867	1.496808
0.588965	1.469158
0.589062	1.447745
0.589160	1.417099
0.589258	1.373777
0.589355	1.330330
0.589453	1.310014
0.589551	1.310136
0.589648	1.315486
0.589746	1.314648
0.589844	1.304403
0.589941	1.289841
0.590039	1.281368
0.590137	1.283581
0.590234	1.292269
0.590332	1.298519
0.590430	1.298375
0.590527	1.292579
0.590625	1.283575
0.590723	1.276621
0.590820	1.282012
0.590918	1.302969
0.591016	1.324380
0.591113	1.338779
0.591211	1.349942
0.591309	1.359932
0.591406	1.369509
0.591504	1.373394
0.591602	1.369979
0.591699	1.359440
0.591797	1.348051
0.591895	1.341947
0.591992	1.343474
0.592090	1.348516
0.592187	1.362050
0.592285	1.381559
0.592383	1.400524
0.592480	1.411676
0.592578	1.412946
0.592676	1.401727
0.592773	1.385008
0.592871	1.375884
0.592969	1.414830
0.593066	1.449068
0.593164	1.451580
0.593262	1.434716
0.593359	1.441453
0.593457	1.470298
0.593555	1.464904
0.593652	1.462033
0.593750	1.473128
0.593848	1.490999
0.593945	1.493036
0.594043	1.480838
0.594141	1.461616
0.594238	1.427101
0.594336	1.414856
0.594434	1.442536
0.594531	1.448055
0.594629	1.437997
0.594727	1.438075
0.594824	1.428439
0.594922	1.419356
0.595020	1.417002
0.595117	1.415670
0.595215	1.415092
0.595312	1.425461
0.595410	1.444365
0.595508	1.464922
0.595605	1.472871
0.595703	1.491184
0.595801	1.492584
0.595898	1.475339
0.595996	1.474745
0.596094	1.486695
0.596191	1.490680
0.596289	1.494660
0.596387	1.490975
0.596484	1.479140
0.596582	1.469355
0.596680	1.467747
0.596777	1.476810
0.596875	1.487701
0.596973	1.490649
0.597070	1.487393
0.597168	1.466199
0.597266	1.473218
0.597363	1.480031
0.597461	1.465770
0.597559	1.467095
0.597656	1.470486
0.597754	1.472956
0.597852	1.476054
0.597949	1.444051
0.598047	1.424308
0.598145	1.448620
0.598242	1.482705
0.598340	1.481305
0.598437	1.471299
0.598535	1.452906
0.598633	1.433352
0.598730	1.431678
0.598828	1.409472
0.598926	1.419372
0.599023	1.436818
0.599121	1.430570
0.599219	1.415220
0.599316	1.366602
0.599414	1.400523
0.599512	1.458036
0.599609	1.478939
0.599707	1.466318
0.599805	1.436129
0.599902	1.422470
0.600000	1.416639
0.600098	1.421716
0.600195	1.412851
0.600293	1.400032
0.600391	1.382448
0.600488	1.358812
0.600586	1.350828
0.600684	1.392913
0.600781	1.430938
0.600879	1.410680
0.600977	1.386736
0.601074	1.365213
0.601172	1.363676
0.601270	1.370964
0.601367	1.337155
0.601465	1.343775
0.601562	1.423908
0.601660	1.479432
0.601758	1.494445
0.601855	1.468435
0.601953	1.481332
0.602051	1.470170
0.602148	1.459829
0.602246	1.457991
0.602344	1.435384
0.602441	1.406651
0.602539	1.358635
0.602637	1.320051
0.602734	1.325253
0.602832	1.378770
0.602930	1.414193
0.603027	1.396527
0.603125	1.348742
0.603223	1.309424
0.603320	1.319612
0.603418	1.351885
0.603516	1.347411
0.603613	1.318396
0.603711	1.279307
0.603809	1.250856
0.603906	1.246766
0.604004	1.263359
0.604102	1.285514
0.604199	1.290039
0.604297	1.276890
0.604395	1.265562
0.604492	1.266559
0.604590	1.265041
0.604687	1.257750
0.604785	1.260151
0.604883	1.264753
0.604980	1.270451
0.605078	1.299719
0.605176	1.323368
0.605273	1.335452
0.605371	1.352061
0.605469	1.352286
0.605566	1.358554
0.605664	1.389760
0.605762	1.415524
0.605859	1.415062
0.605957	1.398770
0.606055	1.378150
0.606152	1.335165
0.606250	1.293910
0.606348	1.266630
0.606445	1.260369
0.606543	1.282798
0.606641	1.289788
0.606738	1.269867
0.606836	1.290862
0.606934	1.373091
0.607031	1.391269
0.607129	1.391201
0.607227	1.382370
0.607324	1.370362
0.607422	1.367029
0.607520	1.362334
0.607617	1.380151
0.607715	1.391835
0.607812	1.376538
0.607910	1.364425
0.608008	1.358773
0.608105	1.355008
0.608203	1.361768
0.608301	1.399044
0.608398	1.402364
0.608496	1.378795
0.608594	1.350456
0.608691	1.314299
0.608789	1.323276
0.608887	1.360436
0.608984	1.381854
0.609082	1.391170
0.609180	1.396912
0.609277	1.394694
0.609375	1.389623
0.609473	1.387257
0.609570	1.387730
0.609668	1.386325
0.609766	1.383015
0.609863	1.381031
0.609961	1.381091
0.610059	1.381493
0.610156	1.383524
0.610254	1.381219
0.610352	1.379206
0.610449	1.384231
0.610547	1.395299
0.610645	1.411910
0.610742	1.424520
0.610840	1.423856
0.610937	1.416104
0.611035	1.415756
0.611133	1.452722
0.611230	1.466597
0.611328	1.449141
0.611426	1.445810
0.611523	1.448825
0.611621	1.444749
0.611719	1.445574
0.611816	1.426105
0.611914	1.364171
0.612012	1.391370
0.612109	1.546954
0.612207	1.550301
0.612305	1.532891
0.612402	1.526101
0.612500	1.505818
0.612598	1.519601
0.612695	1.504479
0.612793	1.454962
0.612891	1.401498
0.612988	1.401582
0.613086	1.423599
0.613184	1.445199
0.613281	1.439412
0.613379	1.443775
0.613477	1.480017
0.613574	1.483260
0.613672	1.456310
0.613770	1.444262
0.613867	1.441511
0.613965	1.460568
0.614062	1.453526
0.614160	1.432855
0.614258	1.430201
0.614355	1.441985
0.614453	1.462168
0.614551	1.459451
0.614648	1.464928
0.614746	1.471702
0.614844	1.471432
0.614941	1.462277
0.615039	1.462267
0.615137	1.471858
0.615234	1.457487
0.615332	1.432688
0.615430	1.409693
0.615527	1.388466
0.615625	1.390357
0.615723	1.446035
0.615820	1.464222
0.615918	1.450574
0.616016	1.436580
0.616113	1.425418
0.616211	1.416164
0.616309	1.405907
0.616406	1.396625
0.616504	1.403587
0.616602	1.376830
0.616699	1.357833
0.616797	1.397867
0.616895	1.447615
0.616992	1.464637
0.617090	1.468109
0.617187	1.463424
0.617285	1.461966
0.617383	1.493139
0.617480	1.506556
0.617578	1.483393
0.617676	1.465913
0.617773	1.488805
0.617871	1.492811
0.617969	1.458532
0.618066	1.454631
0.618164	1.457842
0.618262	1.505576
0.618359	1.511784
0.618457	1.449451
0.618555	1.421700
0.618652	1.431063
0.618750	1.459011
0.618848	1.488901
0.618945	1.528218
0.619043	1.537870
0.619141	1.526729
0.619238	1.514324
0.619336	1.482362
0.619434	1.426028
0.619531	1.421113
0.619629	1.444680
0.619727	1.438828
0.619824	1.487007
0.619922	1.529392
0.620020	1.534030
0.620117	1.522690
0.620215	1.484949
0.620312	1.459978
0.620410	1.448780
0.620508	1.443761
0.620605	1.473762
0.620703	1.494089
0.620801	1.466920
0.620898	1.426186
0.620996	1.434055
0.621094	1.397025
0.621191	1.371101
0.621289	1.435069
0.621387	1.457185
0.621484	1.475915
0.621582	1.541417
0.621680	1.547080
0.621777	1.553995
0.621875	1.543078
0.621973	1.536340
0.622070	1.531787
0.622168	1.491164
0.622266	1.440388
0.622363	1.422209
0.622461	1.439327
0.622559	1.432559
0.622656	1.431785
0.622754	1.429474
0.622852	1.424085
0.622949	1.412562
0.623047	1.390875
0.623145	1.355150
0.623242	1.318971
0.623340	1.282213
0.623437	1.252708
0.623535	1.234246
0.623633	1.228425
0.623730	1.232157
0.623828	1.249766
0.623926	1.273947
0.624023	1.280697
0.624121	1.276993
0.624219	1.271783
0.624316	1.268499
0.624414	1.266088
0.624512	1.266367
0.624609	1.275447
0.624707	1.307773
0.624805	1.350576
0.624902	1.379676
0.625000	1.391644
0.625098	1.385620
0.625195	1.384851
0.625293	1.397152
0.625391	1.409219
0.625488	1.424876
0.625586	1.431087
0.625684	1.433938
0.625781	1.438668
0.625879	1.449966
0.625977	1.453461
0.626074	1.449168
0.626172	1.471298
0.626270	1.507596
0.626367	1.517705
0.626465	1.505039
0.626562	1.488152
0.626660	1.465905
0.626758	1.470064
0.626855	1.495087
0.626953	1.506270
0.627051	1.504883
0.627148	1.526104
0.627246	1.511784
0.627344	1.512068
0.627441	1.505227
0.627539	1.523065
0.627637	1.506113
0.627734	1.448032
0.627832	1.408837
0.627930	1.413118
0.628027	1.435440
0.628125	1.454940
0.628223	1.481991
0.628320	1.477638
0.628418	1.456053
0.628516	1.424829
0.628613	1.413286
0.628711	1.403784
0.628809	1.376612
0.628906	1.361264
0.629004	1.351091
0.629102	1.342771
0.629199	1.335539
0.629297	1.327060
0.629395	1.316678
0.629492	1.306212
0.629590	1.293583
0.629687	1.281176
0.629785	1.273289
0.629883	1.271367
0.629980	1.271641
0.630078	1.269463
0.630176	1.266429
0.630273	1.272407
0.630371	1.304086
0.630469	1.353483
0.630566	1.373287
0.630664	1.371775
0.630762	1.372913
0.630859	1.392694
0.630957	1.390148
0.631055	1.384672
0.631152	1.370023
0.631250	1.323687
0.631348	1.303320
0.631445	1.324342
0.631543	1.353258
0.631641	1.382627
0.631738	1.406430
0.631836	1.419297
0.631934	1.430019
0.632031	1.394596
0.632129	1.351284
0.632227	1.350908
0.632324	1.374951
0.632422	1.413916
0.632520	1.427754
0.632617	1.414199
0.632715	1.404119
0.632812	1.401263
0.632910	1.385820
0.633008	1.361014
0.633105	1.330316
0.633203	1.303391
0.633301	1.278929
0.633398	1.262996
0.633496	1.270297
0.633594	1.331515
0.633691	1.393956
0.633789	1.444566
0.633887	1.483779
0.633984	1.534536
0.634082	1.535654
0.634180	1.515366
0.634277	1.546675
0.634375	1.569383
0.634473	1.548301
0.634570	1.491531
0.634668	1.433385
0.634766	1.451258
0.634863	1.485223
0.634961	1.470453
0.635059	1.486061
0.635156	1.501196
0.635254	1.520596
0.635352	1.506550
0.635449	1.492160
0.635547	1.475658
0.635645	1.473115
0.635742	1.475299
0.635840	1.479280
0.635937	1.488510
0.636035	1.499281
0.636133	1.517382
0.636230	1.496288
0.636328	1.456108
0.636426	1.529131
0.636523	1.601201
0.636621	1.614453
0.636719	1.584533
0.636816	1.529086
0.636914	1.489893
0.637012	1.483616
0.637109	1.502643
0.637207	1.484312
0.637305	1.473058
0.637402	1.477530
0.637500	1.488943
0.637598	1.485480
0.637695	1.495686
0.637793	1.491648
0.637891	1.487019
0.637988	1.452742
0.638086	1.414033
0.638184	1.384945
0.638281	1.368083
0.638379	1.365438
0.638477	1.385264
0.638574	1.418865
0.638672	1.447579
0.638770	1.466130
0.638867	1.490506
0.638965	1.492320
0.639062	1.479727
0.639160	1.460665
0.639258	1.448262
0.639355	1.450664
0.639453	1.477015
0.639551	1.490984
0.639648	1.473636
0.639746	1.466861
0.639844	1.489148
0.639941	1.510879
0.640039	1.511004
0.640137	1.497808
0.640234	1.481062
0.640332	1.467301
0.640430	1.462673
0.640527	1.454701
0.640625	1.438934
0.640723	1.434478
0.640820	1.438504
0.640918	1.433808
0.641016	1.429217
0.641113	1.410154
0.641211	1.400829
0.641309	1.406525
0.641406	1.387395
0.641504	1.345645
0.641602	1.307361
0.641699	1.309124
0.641797	1.305599
0.641895	1.308949
0.641992	1.391392
0.642090	1.438757
0.642187	1.454023
0.642285	1.480902
0.642383	1.477851
0.642480	1.456323
0.642578	1.413000
0.642676	1.403147
0.642773	1.421764
0.642871	1.425810
0.642969	1.434764
0.643066	1.454449
0.643164	1.457060
0.643262	1.440650
0.643359	1.416995
0.643457	1.396246
0.643555	1.378963
0.643652	1.355940
0.643750	1.356590
0.643848	1.394496
0.643945	1.413544
0.644043	1.425534
0.644141	1.453553
0.644238	1.479384
0.644336	1.489168
0.644434	1.487149
0.644531	1.466504
0.644629	1.456457
0.644727	1.461468
0.644824	1.477019
0.644922	1.489220
0.645020	1.501983
0.645117	1.495627
0.645215	1.462199
0.645312	1.466908
0.645410	1.467013
0.645508	1.447981
0.645605	1.442536
0.645703	1.435780
0.645801	1.432643
0.645898	1.434452
0.645996	1.432150
0.646094	1.422955
0.646191	1.406945
0.646289	1.402976
0.646387	1.409777
0.646484	1.417816
0.646582	1.419960
0.646680	1.417310
0.646777	1.390256
0.646875	1.374254
0.646973	1.369862
0.647070	1.362084
0.647168	1.357732
0.647266	1.350523
0.647363	1.346014
0.647461	1.348168
0.647559	1.351797
0.647656	1.347724
0.647754	1.340651
0.647852	1.333214
0.647949	1.326637
0.648047	1.322917
0.648145	1.324307
0.648242	1.328608
0.648340	1.332449
0.648437	1.329508
0.648535	1.322059
0.648633	1.323485
0.648730	1.336588
0.648828	1.349157
0.648926	1.358891
0.649023	1.365469
0.649121	1.379378
0.649219	1.407443
0.649316	1.439036
0.649414	1.461594
0.649512	1.471638
0.649609	1.462065
0.649707	1.466487
0.649805	1.484976
0.649902	1.483283
0.650000	1.486114
0.650098	1.526600
0.650195	1.544175
0.650293	1.536368
0.650391	1.519728
0.650488	1.517206
0.650586	1.506775
0.650684	1.493558
0.650781	1.476549
0.650879	1.452062
0.650977	1.438246
0.651074	1.450577
0.651172	1.485103
0.651270	1.489905
0.651367	1.467205
0.651465	1.446921
0.651562	1.436232
0.651660	1.420088
0.651758	1.399293
0.651855	1.379680
0.651953	1.368243
0.652051	1.365920
0.652148	1.363494
0.652246	1.353913
0.652344	1.337285
0.652441	1.315310
0.652539	1.293481
0.652637	1.270627
0.652734	1.248816
0.652832	1.235902
0.652930	1.243096
0.653027	1.272549
0.653125	1.304259
0.653223	1.312469
0.653320	1.304984
0.653418	1.287416
0.653516	1.269431
0.653613	1.259178
0.653711	1.265193
0.653809	1.284316
0.653906	1.306171
0.654004	1.319868
0.654102	1.333625
0.654199	1.341332
0.654297	1.334598
0.654395	1.325621
0.654492	1.364952
0.654590	1.414783
0.654687	1.425765
0.654785	1.416687
0.654883	1.395700
0.654980	1.371936
0.655078	1.358060
0.655176	1.369185
0.655273	1.422226
0.655371	1.456608
0.655469	1.453833
0.655566	1.450369
0.655664	1.444410
0.655762	1.423713
0.655859	1.411624
0.655957	1.402588
0.656055	1.389912
0.656152	1.379383
0.656250	1.382613
0.656348	1.412910
0.656445	1.416547
0.656543	1.391354
0.656641	1.367667
0.656738	1.366910
0.656836	1.383157
0.656934	1.408511
0.657031	1.417028
0.657129	1.466583
0.657227	1.492425
0.657324	1.466253
0.657422	1.450293
0.657520	1.426331
0.657617	1.406375
0.657715	1.413079
0.657812	1.419993
0.657910	1.418694
0.658008	1.396350
0.658105	1.474921
0.658203	1.535567
0.658301	1.528642
0.658398	1.526209
0.658496	1.537932
0.658594	1.557781
0.658691	1.568658
0.658789	1.578943
0.658887	1.566282
0.658984	1.562902
0.659082	1.575781
0.659180	1.591474
0.659277	1.592098
0.659375	1.579901
0.659473	1.562031
0.659570	1.533904
0.659668	1.510304
0.659766	1.505239
0.659863	1.512116
0.659961	1.529219
0.660059	1.528931
0.660156	1.559781
0.660254	1.565958
0.660352	1.559607
0.660449	1.547002
0.660547	1.535689
0.660645	1.534869
0.660742	1.532730
0.660840	1.546547
0.660937	1.566488
0.661035	1.578168
0.661133	1.560333
0.661230	1.561748
0.661328	1.567695
0.661426	1.582218
0.661523	1.592585
0.661621	1.578221
0.661719	1.572328
0.661816	1.566522
0.661914	1.574400
0.662012	1.577134
0.662109	1.552018
0.662207	1.603286
0.662305	1.568445
0.662402	1.487470
0.662500	1.497620
0.662598	1.523319
0.662695	1.540562
0.662793	1.529016
0.662891	1.524659
0.662988	1.520784
0.663086	1.534993
0.663184	1.526610
0.663281	1.504624
0.663379	1.509961
0.663477	1.505621
0.663574	1.514785
0.663672	1.502102
0.663770	1.487462
0.663867	1.485012
0.663965	1.496047
0.664062	1.494665
0.664160	1.491606
0.664258	1.487784
0.664355	1.486871
0.664453	1.478181
0.664551	1.455181
0.664648	1.442104
0.664746	1.427573
0.664844	1.411022
0.664941	1.407834
0.665039	1.409875
0.665137	1.404609
0.665234	1.401074
0.665332	1.402546
0.665430	1.395185
0.665527	1.384558
0.665625	1.381109
0.665723	1.382605
0.665820	1.378373
0.665918	1.361522
0.666016	1.396020
0.666113	1.414546
0.666211	1.395047
0.666309	1.384464
0.666406	1.382439
0.666504	1.413171
0.666602	1.441818
0.666699	1.451790
0.666797	1.449983
0.666895	1.436036
0.666992	1.453320
0.667090	1.486649
0.667187	1.492842
0.667285	1.478969
0.667383	1.482018
0.667480	1.488730
0.667578	1.501592
0.667676	1.505192
0.667773	1.514935
0.667871	1.524297
0.667969	1.518641
0.668066	1.510736
0.668164	1.505985
0.668262	1.476077
0.668359	1.448618
0.668457	1.447531
0.668555	1.447114
0.668652	1.438488
0.668750	1.428234
0.668848	1.408502
0.668945	1.382959
0.669043	1.372638
0.669141	1.384289
0.669238	1.417558
0.669336	1.458162
0.669434	1.490154
0.669531	1.511971
0.669629	1.516054
0.669727	1.495930
0.669824	1.487288
0.669922	1.482994
0.670020	1.478585
0.670117	1.462840
0.670215	1.462586
0.670312	1.495134
0.670410	1.475875
0.670508	1.449000
0.670605	1.427071
0.670703	1.411183
0.670801	1.420863
0.670898	1.419444
0.670996	1.410936
0.671094	1.399002
0.671191	1.407858
0.671289	1.410059
0.671387	1.389723
0.671484	1.354795
0.671582	1.402679
0.671680	1.461554
0.671777	1.457836
0.671875	1.481993
0.671973	1.501969
0.672070	1.503918
0.672168	1.494744
0.672266	1.496962
0.672363	1.469145
0.672461	1.449845
0.672559	1.448819
0.672656	1.449810
0.672754	1.447970
0.672852	1.446916
0.672949	1.449257
0.673047	1.475934
0.673145	1.489179
0.673242	1.487307
0.673340	1.485284
0.673437	1.493249
0.673535	1.498408
0.673633	1.486320
0.673730	1.461307
0.673828	1.430388
0.673926	1.431368
0.674023	1.447877
0.674121	1.452492
0.674219	1.455998
0.674316	1.473789
0.674414	1.473427
0.674512	1.461855
0.674609	1.448073
0.674707	1.440077
0.674805	1.461038
0.674902	1.489121
0.675000	1.506260
0.675098	1.515947
0.675195	1.532417
0.675293	1.537209
0.675391	1.515755
0.675488	1.503909
0.675586	1.511016
0.675684	1.500225
0.675781	1.482345
0.675879	1.469607
0.675977	1.482230
0.676074	1.493619
0.676172	1.501163
0.676270	1.513709
0.676367	1.503867
0.676465	1.491566
0.676562	1.492930
0.676660	1.477453
0.676758	1.462995
0.676855	1.443532
0.676953	1.447341
0.677051	1.466382
0.677148	1.492603
0.677246	1.494223
0.677344	1.482233
0.677441	1.462911
0.677539	1.463503
0.677637	1.464710
0.677734	1.467807
0.677832	1.481838
0.677930	1.475617
0.678027	1.472354
0.678125	1.474745
0.678223	1.460411
0.678320	1.441749
0.678418	1.437962
0.678516	1.429623
0.678613	1.427514
0.678711	1.442541
0.678809	1.443500
0.678906	1.442356
0.679004	1.440000
0.679102	1.430261
0.679199	1.429208
0.679297	1.428021
0.679395	1.419501
0.679492	1.405070
0.679590	1.389241
0.679687	1.390495
0.679785	1.395484
0.679883	1.393156
0.679980	1.386972
0.680078	1.373371
0.680176	1.363502
0.680273	1.367141
0.680371	1.376083
0.680469	1.376530
0.680566	1.367897
0.680664	1.358835
0.680762	1.352382
0.680859	1.344341
0.680957	1.336327
0.681055	1.333519
0.681152	1.341314
0.681250	1.354665
0.681348	1.360503
0.681445	1.352488
0.681543	1.340111
0.681641	1.321822
0.681738	1.305049
0.681836	1.301932
0.681934	1.302277
0.682031	1.298304
0.682129	1.279819
0.682227	1.269005
0.682324	1.280992
0.682422	1.314404
0.682520	1.349881
0.682617	1.372567
0.682715	1.382759
0.682812	1.381706
0.682910	1.372846
0.683008	1.358917
0.683105	1.342259
0.683203	1.321555
0.683301	1.309585
0.683398	1.311221
0.683496	1.301954
0.683594	1.285287
0.683691	1.273394
0.683789	1.283336
0.683887	1.310669
0.683984	1.342381
0.684082	1.358340
0.684180	1.350991
0.684277	1.334806
0.684375	1.328482
0.684473	1.328201
0.684570	1.316581
0.684668	1.299469
0.684766	1.307437
0.684863	1.315871
0.684961	1.302118
0.685059	1.285822
0.685156	1.288621
0.685254	1.289550
0.685352	1.287332
0.685449	1.291898
0.685547	1.308328
0.685645	1.339474
0.685742	1.384612
0.685840	1.416949
0.685937	1.416315
0.686035	1.407862
0.686133	1.385182
0.686230	1.346077
0.686328	1.302154
0.686426	1.273057
0.686523	1.256811
0.686621	1.244641
0.686719	1.233555
0.686816	1.238305
0.686914	1.247391
0.687012	1.247576
0.687109	1.247208
0.687207	1.239263
0.687305	1.230628
0.687402	1.244364
0.687500	1.288471
0.687598	1.329793
0.687695	1.367080
0.687793	1.392873
0.687891	1.391990
0.687988	1.366714
0.688086	1.351996
0.688184	1.354084
0.688281	1.349800
0.688379	1.347163
0.688477	1.354805
0.688574	1.356970
0.688672	1.368866
0.688770	1.399995
0.688867	1.418144
0.688965	1.428833
0.689062	1.454721
0.689160	1.480807
0.689258	1.466395
0.689355	1.452906
0.689453	1.460411
0.689551	1.480520
0.689648	1.495717
0.689746	1.492766
0.689844	1.483330
0.689941	1.476805
0.690039	1.461932
0.690137	1.438013
0.690234	1.437987
0.690332	1.437782
0.690430	1.436095
0.690527	1.446239
0.690625	1.463466
0.690723	1.480495
0.690820	1.477170
0.690918	1.467839
0.691016	1.455324
0.691113	1.448113
0.691211	1.446944
0.691309	1.444264
0.691406	1.441362
0.691504	1.442960
0.691602	1.448315
0.691699	1.458805
0.691797	1.466271
0.691895	1.477912
0.691992	1.476699
0.692090	1.459372
0.692187	1.425851
0.692285	1.455552
0.692383	1.489395
0.692480	1.473998
0.692578	1.494735
0.692676	1.514136
0.692773	1.540120
0.692871	1.550387
0.692969	1.543335
0.693066	1.541322
0.693164	1.537308
0.693262	1.541653
0.693359	1.562310
0.693457	1.572509
0.693555	1.564600
0.693652	1.550097
0.693750	1.544680
0.693848	1.573860
0.693945	1.569542
0.694043	1.587537
0.694141	1.605970
0.694238	1.579699
0.694336	1.529010
0.694434	1.506987
0.694531	1.472192
0.694629	1.421288
0.694727	1.391892
0.694824	1.419100
0.694922	1.465340
0.695020	1.506900
0.695117	1.514384
0.695215	1.472238
0.695312	1.455770
0.695410	1.465643
0.695508	1.476175
0.695605	1.447404
0.695703	1.436000
0.695801	1.431115
0.695898	1.423677
0.695996	1.454115
0.696094	1.465897
0.696191	1.462267
0.696289	1.480868
0.696387	1.523312
0.696484	1.508875
0.696582	1.539699
0.696680	1.550711
0.696777	1.514186
0.696875	1.476793
0.696973	1.417233
0.697070	1.380909
0.697168	1.366845
0.697266	1.345441
0.697363	1.322509
0.697461	1.300806
0.697559	1.289390
0.697656	1.288782
0.697754	1.289745
0.697852	1.292739
0.697949	1.298901
0.698047	1.299763
0.698145	1.293810
0.698242	1.295319
0.698340	1.302213
0.698437	1.303318
0.698535	1.302247
0.698633	1.286240
0.698730	1.260953
0.698828	1.241847
0.698926	1.246971
0.699023	1.265554
0.699121	1.327950
0.699219	1.417349
0.699316	1.509972
0.699414	1.546848
0.699512	1.561604
0.699609	1.510618
0.699707	1.479764
0.699805	1.522989
0.699902	1.511809
0.700000	1.455724
0.700098	1.411361
0.700195	1.395540
0.700293	1.390375
0.700391	1.358217
0.700488	1.307119
0.700586	1.281984
0.700684	1.297692
0.700781	1.359155
0.700879	1.382908
0.700977	1.374876
0.701074	1.348598
0.701172	1.308149
0.701270	1.286530
0.701367	1.292344
0.701465	1.353964
0.701562	1.407617
0.701660	1.395334
0.701758	1.340175
0.701855	1.360395
0.701953	1.428995
0.702051	1.446178
0.702148	1.459094
0.702246	1.471546
0.702344	1.468627
0.702441	1.450864
0.702539	1.415821
0.702637	1.393305
0.702734	1.391965
0.702832	1.362319
0.702930	1.349584
0.703027	1.372648
0.703125	1.425827
0.703223	1.424653
0.703320	1.419660
0.703418	1.424495
0.703516	1.413686
0.703613	1.446743
0.703711	1.502855
0.703809	1.512606
0.703906	1.489514
0.704004	1.479932
0.704102	1.477006
0.704199	1.474736
0.704297	1.469994
0.704395	1.464338
0.704492	1.455276
0.704590	1.447872
0.704687	1.437910
0.704785	1.432280
0.704883	1.425683
0.704980	1.426122
0.705078	1.430201
0.705176	1.423400
0.705273	1.402750
0.705371	1.376701
0.705469	1.360340
0.705566	1.374438
0.705664	1.415071
0.705762	1.446427
0.705859	1.443104
0.705957	1.425471
0.706055	1.435514
0.706152	1.458684
0.706250	1.460895
0.706348	1.457384
0.706445	1.454411
0.706543	1.447280
0.706641	1.440605
0.706738	1.436023
0.706836	1.427728
0.706934	1.418201
0.707031	1.412045
0.707129	1.411553
0.707227	1.410023
0.707324	1.402449
0.707422	1.394726
0.707520	1.386169
0.707617	1.376351
0.707715	1.369445
0.707812	1.364735
0.707910	1.361008
0.708008	1.358909
0.708105	1.355538
0.708203	1.347757
0.708301	1.347582
0.708398	1.368870
0.708496	1.406534
0.708594	1.435911
0.708691	1.456786
0.708789	1.471863
0.708887	1.476733
0.708984	1.470597
0.709082	1.467249
0.709180	1.449962
0.709277	1.428420
0.709375	1.431023
0.709473	1.434366
0.709570	1.436457
0.709668	1.451886
0.709766	1.470664
0.709863	1.471498
0.709961	1.477946
0.710059	1.493936
0.710156	1.503095
0.710254	1.505742
0.710352	1.502463
0.710449	1.499299
0.710547	1.507982
0.710645	1.554504
0.710742	1.567578
0.710840	1.546090
0.710937	1.544111
0.711035	1.533716
0.711133	1.531624
0.711230	1.516780
0.711328	1.494786
0.711426	1.502467
0.711523	1.541567
0.711621	1.553112
0.711719	1.533654
0.711816	1.486655
0.711914	1.453958
0.712012	1.451218
0.712109	1.451289
0.712207	1.462052
0.712305	1.478737
0.712402	1.486269
0.712500	1.491020
0.712598	1.483085
0.712695	1.475794
0.712793	1.462278
0.712891	1.452625
0.712988	1.450182
0.713086	1.458428
0.713184	1.457929
0.713281	1.454946
0.713379	1.449568
0.713477	1.441729
0.713574	1.440426
0.713672	1.441946
0.713770	1.433688
0.713867	1.413300
0.713965	1.406685
0.714062	1.427416
0.714160	1.451297
0.714258	1.473338
0.714355	1.482923
0.714453	1.486339
0.714551	1.480743
0.714648	1.464285
0.714746	1.452521
0.714844	1.441582
0.714941	1.433220
0.715039	1.426442
0.715137	1.417817
0.715234	1.407841
0.715332	1.399732
0.715430	1.395173
0.715527	1.392220
0.715625	1.388297
0.715723	1.384532
0.715820	1.386881
0.715918	1.396072
0.716016	1.408536
0.716113	1.417235
0.716211	1.414760
0.716309	1.408001
0.716406	1.411948
0.716504	1.419812
0.716602	1.420390
0.716699	1.406164
0.716797	1.401483
0.716895	1.418431
0.716992	1.428287
0.717090	1.438199
0.717187	1.450016
0.717285	1.445779
0.717383	1.438473
0.717480	1.434620
0.717578	1.424162
0.717676	1.409998
0.717773	1.394737
0.717871	1.382356
0.717969	1.366989
0.718066	1.355554
0.718164	1.353917
0.718262	1.357028
0.718359	1.359551
0.718457	1.369419
0.718555	1.385919
0.718652	1.393326
0.718750	1.396677
0.718848	1.399010
0.718945	1.398730
0.719043	1.402172
0.719141	1.406493
0.719238	1.403617
0.719336	1.392873
0.719434	1.379067
0.719531	1.368530
0.719629	1.363623
0.719727	1.359985
0.719824	1.353306
0.719922	1.345458
0.720020	1.342074
0.720117	1.351165
0.720215	1.370775
0.720312	1.385701
0.720410	1.398186
0.720508	1.418706
0.720605	1.437323
0.720703	1.443353
0.720801	1.430647
0.720898	1.406516
0.720996	1.411931
0.721094	1.453041
0.721191	1.476950
0.721289	1.505742
0.721387	1.527138
0.721484	1.528793
0.721582	1.535230
0.721680	1.536457
0.721777	1.559777
0.721875	1.556780
0.721973	1.540224
0.722070	1.538251
0.722168	1.548136
0.722266	1.587514
0.722363	1.613551
0.722461	1.628201
0.722559	1.605240
0.722656	1.601494
0.722754	1.606230
0.722852	1.589155
0.722949	1.575621
0.723047	1.590090
0.723145	1.578228
0.723242	1.552303
0.723340	1.544094
0.723437	1.529141
0.723535	1.541711
0.723633	1.534480
0.723730	1.522189
0.723828	1.490629
0.723926	1.485902
0.724023	1.487000
0.724121	1.498275
0.724219	1.515935
0.724316	1.557555
0.724414	1.538732
0.724512	1.525971
0.724609	1.542022
0.724707	1.538213
0.724805	1.561422
0.724902	1.574300
0.725000	1.574471
0.725098	1.571846
0.725195	1.579860
0.725293	1.578342
0.725391	1.586151
0.725488	1.569044
0.725586	1.553336
0.725684	1.522305
0.725781	1.523213
0.725879	1.522103
0.725977	1.514066
0.726074	1.515112
0.726172	1.532193
0.726270	1.532597
0.726367	1.520578
0.726465	1.501020
0.726562	1.487443
0.726660	1.485453
0.726758	1.483268
0.726855	1.468917
0.726953	1.463415
0.727051	1.479886
0.727148	1.476655
0.727246	1.454367
0.727344	1.424632
0.727441	1.437762
0.727539	1.443847
0.727637	1.449965
0.727734	1.451649
0.727832	1.433526
0.727930	1.412171
0.728027	1.401872
0.728125	1.399071
0.728223	1.397906
0.728320	1.397378
0.728418	1.400382
0.728516	1.414265
0.728613	1.438407
0.728711	1.454088
0.728809	1.449103
0.728906	1.452883
0.729004	1.475603
0.729102	1.491942
0.729199	1.490501
0.729297	1.484847
0.729395	1.479769
0.729492	1.482036
0.729590	1.488507
0.729687	1.490032
0.729785	1.488116
0.729883	1.488125
0.729980	1.495256
0.730078	1.495848
0.730176	1.502780
0.730273	1.514924
0.730371	1.519366
0.730469	1.534627
0.730566	1.537336
0.730664	1.543638
0.730762	1.562650
0.730859	1.553866
0.730957	1.541127
0.731055	1.547452
0.731152	1.548463
0.731250	1.537971
0.731348	1.544098
0.731445	1.543117
0.731543	1.537628
0.731641	1.534533
0.731738	1.543647
0.731836	1.543212
0.731934	1.534636
0.732031	1.523421
0.732129	1.524664
0.732227	1.545326
0.732324	1.561046
0.732422	1.557397
0.732520	1.559078
0.732617	1.525455
0.732715	1.514136
0.732812	1.538201
0.732910	1.550320
0.733008	1.554405
0.733105	1.549066
0.733203	1.557686
0.733301	1.568429
0.733398	1.570064
0.733496	1.568601
0.733594	1.558106
0.733691	1.549003
0.733789	1.531360
0.733887	1.549544
0.733984	1.543029
0.734082	1.532226
0.734180	1.551503
0.734277	1.550706
0.734375	1.552981
0.734473	1.544009
0.734570	1.505683
0.734668	1.488686
0.734766	1.505830
0.734863	1.528426
0.734961	1.550679
0.735059	1.578647
0.735156	1.578048
0.735254	1.580554
0.735352	1.577814
0.735449	1.567266
0.735547	1.556309
0.735645	1.545138
0.735742	1.538856
0.735840	1.543891
0.735937	1.536767
0.736035	1.524384
0.736133	1.520595
0.736230	1.516316
0.736328	1.511692
0.736426	1.509828
0.736523	1.507348
0.736621	1.509122
0.736719	1.509135
0.736816	1.510592
0.736914	1.506977
0.737012	1.497432
0.737109	1.485760
0.737207	1.481182
0.737305	1.474700
0.737402	1.468109
0.737500	1.463641
0.737598	1.463209
0.737695	1.463032
0.737793	1.466421
0.737891	1.467652
0.737988	1.461758
0.738086	1.449666
0.738184	1.431645
0.738281	1.414791
0.738379	1.407920
0.738477	1.407714
0.738574	1.411745
0.738672	1.414852
0.738770	1.425581
0.738867	1.424664
0.738965	1.437728
0.739062	1.457299
0.739160	1.459981
0.739258	1.462579
0.739355	1.465820
0.739453	1.462004
0.739551	1.445156
0.739648	1.422198
0.739746	1.401946
0.739844	1.393293
0.739941	1.397416
0.740039	1.405196
0.740137	1.402596
0.740234	1.392659
0.740332	1.384819
0.740430	1.389067
0.740527	1.400303
0.740625	1.403357
0.740723	1.395559
0.740820	1.388971
0.740918	1.384366
0.741016	1.382557
0.741113	1.384657
0.741211	1.388837
0.741309	1.382707
0.741406	1.384017
0.741504	1.394005
0.741602	1.392214
0.741699	1.385787
0.741797	1.394916
0.741895	1.423691
0.741992	1.457622
0.742090	1.466970
0.742187	1.470529
0.742285	1.481569
0.742383	1.466315
0.742480	1.481361
0.742578	1.486757
0.742676	1.484739
0.742773	1.483623
0.742871	1.479838
0.742969	1.472805
0.743066	1.461579
0.743164	1.444318
0.743262	1.421687
0.743359	1.400802
0.743457	1.389632
0.743555	1.391094
0.743652	1.405918
0.743750	1.419721
0.743848	1.431521
0.743945	1.444074
0.744043	1.445155
0.744141	1.477156
0.744238	1.496200
0.744336	1.499612
0.744434	1.493476
0.744531	1.483224
0.744629	1.481103
0.744727	1.494475
0.744824	1.489248
0.744922	1.463797
0.745020	1.482594
0.745117	1.485637
0.745215	1.486219
0.745312	1.476004
0.745410	1.458381
0.745508	1.449439
0.745605	1.444104
0.745703	1.436140
0.745801	1.429339
0.745898	1.418157
0.745996	1.400606
0.746094	1.379850
0.746191	1.362502
0.746289	1.353157
0.746387	1.352235
0.746484	1.355792
0.746582	1.364711
0.746680	1.368575
0.746777	1.365692
0.746875	1.365794
0.746973	1.363687
0.747070	1.374519
0.747168	1.391243
0.747266	1.395666
0.747363	1.396902
0.747461	1.433203
0.747559	1.455194
0.747656	1.440106
0.747754	1.418347
0.747852	1.422239
0.747949	1.414740
0.748047	1.344173
0.748145	1.313333
0.748242	1.296592
0.748340	1.272383
0.748437	1.269770
0.748535	1.253586
0.748633	1.264559
0.748730	1.299257
0.748828	1.311520
0.748926	1.302628
0.749023	1.305303
0.749121	1.308112
0.749219	1.300380
0.749316	1.293354
0.749414	1.292261
0.749512	1.294203
0.749609	1.305003
0.749707	1.308305
0.749805	1.301215
0.749902	1.307778
0.750000	1.328813
0.750098	1.338502
0.750195	1.337195
0.750293	1.331773
0.750391	1.327880
0.750488	1.327512
0.750586	1.330117
0.750684	1.334744
0.750781	1.340777
0.750879	1.345679
0.750977	1.348875
0.751074	1.351860
0.751172	1.356361
0.751270	1.351454
0.751367	1.341678
0.751465	1.341812
0.751562	1.355962
0.751660	1.373893
0.751758	1.393920
0.751855	1.407192
0.751953	1.419557
0.752051	1.431541
0.752148	1.444459
0.752246	1.448532
0.752344	1.450577
0.752441	1.444550
0.752539	1.431819
0.752637	1.400764
0.752734	1.383989
0.752832	1.388607
0.752930	1.388503
0.753027	1.389795
0.753125	1.387563
0.753223	1.385200
0.753320	1.380375
0.753418	1.376374
0.753516	1.375071
0.753613	1.378168
0.753711	1.384535
0.753809	1.392725
0.753906	1.402636
0.754004	1.414810
0.754102	1.430394
0.754199	1.444292
0.754297	1.450151
0.754395	1.435698
0.754492	1.419663
0.754590	1.411596
0.754687	1.418849
0.754785	1.419077
0.754883	1.419344
0.754980	1.421660
0.755078	1.413598
0.755176	1.360639
0.755273	1.380428
0.755371	1.460588
0.755469	1.408298
0.755566	1.470664
0.755664	1.438298
0.755762	1.408408
0.755859	1.403152
0.755957	1.394650
0.756055	1.420731
0.756152	1.444068
0.756250	1.517562
0.756348	1.536185
0.756445	1.596121
0.756543	1.602208
0.756641	1.591160
0.756738	1.568968
0.756836	1.540443
0.756934	1.526472
0.757031	1.497709
0.757129	1.474240
0.757227	1.485215
0.757324	1.518557
0.757422	1.547630
0.757520	1.532410
0.757617	1.536135
0.757715	1.529085
0.757812	1.518568
0.757910	1.523968
0.758008	1.528633
0.758105	1.525343
0.758203	1.499794
0.758301	1.465156
0.758398	1.434447
0.758496	1.424166
0.758594	1.416947
0.758691	1.402077
0.758789	1.401734
0.758887	1.407432
0.758984	1.406451
0.759082	1.434174
0.759180	1.462623
0.759277	1.467311
0.759375	1.441051
0.759473	1.431007
0.759570	1.435121
0.759668	1.472276
0.759766	1.489597
0.759863	1.490990
0.759961	1.478541
0.760059	1.462844
0.760156	1.489379
0.760254	1.493869
0.760352	1.480023
0.760449	1.465384
0.760547	1.462212
0.760645	1.460696
0.760742	1.489907
0.760840	1.471544
0.760937	1.467338
0.761035	1.457718
0.761133	1.495461
0.761230	1.532517
0.761328	1.543305
0.761426	1.530214
0.761523	1.520426
0.761621	1.496895
0.761719	1.473491
0.761816	1.513851
0.761914	1.491512
0.762012	1.464998
0.762109	1.479576
0.762207	1.541124
0.762305	1.547680
0.762402	1.523105
0.762500	1.522103
0.762598	1.517608
0.762695	1.505827
0.762793	1.483653
0.762891	1.490011
0.762988	1.511632
0.763086	1.510170
0.763184	1.491723
0.763281	1.451655
0.763379	1.430054
0.763477	1.441923
0.763574	1.485763
0.763672	1.477758
0.763770	1.473358
0.763867	1.481002
0.763965	1.462525
0.764062	1.457477
0.764160	1.459872
0.764258	1.468275
0.764355	1.510230
0.764453	1.492785
0.764551	1.464725
0.764648	1.489664
0.764746	1.515810
0.764844	1.505773
0.764941	1.476833
0.765039	1.467940
0.765137	1.477711
0.765234	1.492735
0.765332	1.510284
0.765430	1.532928
0.765527	1.564395
0.765625	1.589753
0.765723	1.577445
0.765820	1.560990
0.765918	1.567922
0.766016	1.554475
0.766113	1.524733
0.766211	1.507549
0.766309	1.516448
0.766406	1.520694
0.766504	1.529744
0.766602	1.509289
0.766699	1.523212
0.766797	1.531284
0.766895	1.514710
0.766992	1.529173
0.767090	1.505080
0.767187	1.458133
0.767285	1.462653
0.767383	1.510441
0.767480	1.522195
0.767578	1.515591
0.767676	1.509011
0.767773	1.492353
0.767871	1.486936
0.767969	1.502793
0.768066	1.508252
0.768164	1.487701
0.768262	1.461675
0.768359	1.430180
0.768457	1.448408
0.768555	1.519517
0.768652	1.529973
0.768750	1.505218
0.768848	1.459648
0.768945	1.448990
0.769043	1.469097
0.769141	1.504124
0.769238	1.486000
0.769336	1.488861
0.769434	1.490519
0.769531	1.462273
0.769629	1.469898
0.769727	1.466307
0.769824	1.443445
0.769922	1.431717
0.770020	1.415915
0.770117	1.423493
0.770215	1.466628
0.770312	1.492974
0.770410	1.482330
0.770508	1.472255
0.770605	1.475997
0.770703	1.460271
0.770801	1.448143
0.770898	1.446773
0.770996	1.455447
0.771094	1.449282
0.771191	1.450340
0.771289	1.444976
0.771387	1.447053
0.771484	1.461610
0.771582	1.488128
0.771680	1.513860
0.771777	1.511115
0.771875	1.493624
0.771973	1.470606
0.772070	1.470931
0.772168	1.470664
0.772266	1.474849
0.772363	1.461610
0.772461	1.445040
0.772559	1.427671
0.772656	1.418789
0.772754	1.402421
0.772852	1.381891
0.772949	1.371090
0.773047	1.371991
0.773145	1.366255
0.773242	1.357123
0.773340	1.348225
0.773437	1.340247
0.773535	1.329626
0.773633	1.320217
0.773730	1.318020
0.773828	1.347905
0.773926	1.407722
0.774023	1.467238
0.774121	1.528536
0.774219	1.570599
0.774316	1.565394
0.774414	1.578908
0.774512	1.580404
0.774609	1.565054
0.774707	1.524866
0.774805	1.543545
0.774902	1.563078
0.775000	1.535077
0.775098	1.488293
0.775195	1.419965
0.775293	1.391082
0.775391	1.409912
0.775488	1.409999
0.775586	1.384057
0.775684	1.380455
0.775781	1.424560
0.775879	1.445529
0.775977	1.492867
0.776074	1.523554
0.776172	1.504859
0.776270	1.476691
0.776367	1.459964
0.776465	1.484098
0.776562	1.528213
0.776660	1.589353
0.776758	1.605209
0.776855	1.579719
0.776953	1.595658
0.777051	1.600033
0.777148	1.598045
0.777246	1.624317
0.777344	1.575070
0.777441	1.492136
0.777539	1.497524
0.777637	1.474171
0.777734	1.470398
0.777832	1.465477
0.777930	1.430345
0.778027	1.340618
0.778125	1.408351
0.778223	1.502066
0.778320	1.551812
0.778418	1.521673
0.778516	1.504709
0.778613	1.481658
0.778711	1.472168
0.778809	1.505040
0.778906	1.525859
0.779004	1.501561
0.779102	1.457858
0.779199	1.459422
0.779297	1.461224
0.779395	1.456767
0.779492	1.450149
0.779590	1.453867
0.779687	1.487799
0.779785	1.520647
0.779883	1.517866
0.779980	1.500686
0.780078	1.487135
0.780176	1.482192
0.780273	1.456500
0.780371	1.431198
0.780469	1.471624
0.780566	1.476129
0.780664	1.462957
0.780762	1.425329
0.780859	1.428823
0.780957	1.434438
0.781055	1.434353
0.781152	1.418643
0.781250	1.385231
0.781348	1.354711
0.781445	1.344747
0.781543	1.360066
0.781641	1.374165
0.781738	1.375496
0.781836	1.360676
0.781934	1.318891
0.782031	1.385106
0.782129	1.436081
0.782227	1.530559
0.782324	1.595812
0.782422	1.595130
0.782520	1.572698
0.782617	1.543671
0.782715	1.501765
0.782812	1.484558
0.782910	1.463676
0.783008	1.446709
0.783105	1.429100
0.783203	1.395268
0.783301	1.346902
0.783398	1.297276
0.783496	1.274020
0.783594	1.289423
0.783691	1.330290
0.783789	1.360357
0.783887	1.378065
0.783984	1.398297
0.784082	1.396976
0.784180	1.377570
0.784277	1.366091
0.784375	1.371513
0.784473	1.357757
0.784570	1.326010
0.784668	1.327983
0.784766	1.354534
0.784863	1.394007
0.784961	1.383548
0.785059	1.370863
0.785156	1.399126
0.785254	1.402468
0.785352	1.403045
0.785449	1.416429
0.785547	1.372249
0.785645	1.364511
0.785742	1.411482
0.785840	1.400160
0.785937	1.390511
0.786035	1.351405
0.786133	1.369055
0.786230	1.436929
0.786328	1.485753
0.786426	1.494219
0.786523	1.443953
0.786621	1.446827
0.786719	1.446734
0.786816	1.432721
0.786914	1.408219
0.787012	1.369111
0.787109	1.341483
0.787207	1.323914
0.787305	1.343872
0.787402	1.376083
0.787500	1.419085
0.787598	1.448781
0.787695	1.410710
0.787793	1.399380
0.787891	1.392224
0.787988	1.404702
0.788086	1.408057
0.788184	1.418672
0.788281	1.419039
0.788379	1.408802
0.788477	1.433194
0.788574	1.440007
0.788672	1.422036
0.788770	1.421476
0.788867	1.452708
0.788965	1.478729
0.789062	1.484633
0.789160	1.487609
0.789258	1.496631
0.789355	1.525181
0.789453	1.564489
0.789551	1.568568
0.789648	1.562176
0.789746	1.582015
0.789844	1.581527
0.789941	1.576055
0.790039	1.567390
0.790137	1.567368
0.790234	1.564921
0.790332	1.537920
0.790430	1.526880
0.790527	1.543170
0.790625	1.519677
0.790723	1.511578
0.790820	1.568700
0.790918	1.573147
0.791016	1.560939
0.791113	1.551466
0.791211	1.585003
0.791309	1.572712
0.791406	1.564024
0.791504	1.541483
0.791602	1.553568
0.791699	1.592720
0.791797	1.559914
0.791895	1.565241
0.791992	1.580314
0.792090	1.599931
0.792187	1.612886
0.792285	1.622173
0.792383	1.635213
0.792480	1.636593
0.792578	1.654535
0.792676	1.665553
0.792773	1.609251
0.792871	1.631768
0.792969	1.677436
0.793066	1.650014
0.793164	1.652333
0.793262	1.613808
0.793359	1.574918
0.793457	1.592674
0.793555	1.595448
0.793652	1.590013
0.793750	1.566748
0.793848	1.548729
0.793945	1.538721
0.794043	1.516343
0.794141	1.493107
0.794238	1.489433
0.794336	1.470913
0.794434	1.472821
0.794531	1.486551
0.794629	1.514317
0.794727	1.526716
0.794824	1.514278
0.794922	1.510680
0.795020	1.523523
0.795117	1.539173
0.795215	1.537214
0.795312	1.526480
0.795410	1.509410
0.795508	1.485681
0.795605	1.459102
0.795703	1.432951
0.795801	1.405498
0.795898	1.395893
0.795996	1.399445
0.796094	1.395446
0.796191	1.373535
0.796289	1.341513
0.796387	1.317071
0.796484	1.300411
0.796582	1.283828
0.796680	1.269676
0.796777	1.268365
0.796875	1.279525
0.796973	1.285628
0.797070	1.282299
0.797168	1.275113
0.797266	1.268021
0.797363	1.262110
0.797461	1.257147
0.797559	1.251778
0.797656	1.248143
0.797754	1.243766
0.797852	1.238936
0.797949	1.240220
0.798047	1.261039
0.798145	1.294891
0.798242	1.325106
0.798340	1.353351
0.798437	1.374439
0.798535	1.383095
0.798633	1.383115
0.798730	1.383839
0.798828	1.384541
0.798926	1.386158
0.799023	1.393707
0.799121	1.409611
0.799219	1.421422
0.799316	1.419319
0.799414	1.417037
0.799512	1.418720
0.799609	1.426895
0.799707	1.436010
0.799805	1.430819
0.799902	1.423520
0.800000	1.429259
0.800098	1.445453
0.800195	1.457151
0.800293	1.449471
0.800391	1.433091
0.800488	1.458627
0.800586	1.518016
0.800684	1.537371
0.800781	1.563323
0.800879	1.548657
0.800977	1.580750
0.801074	1.578716
0.801172	1.573776
0.801270	1.563250
0.801367	1.553998
0.801465	1.573702
0.801562	1.577516
0.801660	1.575227
0.801758	1.560261
0.801855	1.534163
0.801953	1.529255
0.802051	1.491689
0.802148	1.473947
0.802246	1.475159
0.802344	1.498994
0.802441	1.489213
0.802539	1.497217
0.802637	1.500268
0.802734	1.515678
0.802832	1.527917
0.802930	1.524392
0.803027	1.524966
0.803125	1.514713
0.803223	1.505340
0.803320	1.492928
0.803418	1.486379
0.803516	1.497545
0.803613	1.495283
0.803711	1.483790
0.803809	1.477921
0.803906	1.462464
0.804004	1.433690
0.804102	1.414895
0.804199	1.411968
0.804297	1.403586
0.804395	1.403943
0.804492	1.440162
0.804590	1.486519
0.804687	1.523102
0.804785	1.517416
0.804883	1.505902
0.804980	1.489816
0.805078	1.479691
0.805176	1.482560
0.805273	1.486923
0.805371	1.494156
0.805469	1.493969
0.805566	1.480024
0.805664	1.446975
0.805762	1.416293
0.805859	1.406442
0.805957	1.414886
0.806055	1.431927
0.806152	1.444568
0.806250	1.450956
0.806348	1.464631
0.806445	1.453995
0.806543	1.455323
0.806641	1.455458
0.806738	1.462760
0.806836	1.469632
0.806934	1.446632
0.807031	1.444316
0.807129	1.460327
0.807227	1.450588
0.807324	1.424179
0.807422	1.406383
0.807520	1.392680
0.807617	1.395493
0.807715	1.406787
0.807812	1.412771
0.807910	1.427278
0.808008	1.430161
0.808105	1.402721
0.808203	1.334561
0.808301	1.299319
0.808398	1.305891
0.808496	1.311513
0.808594	1.323200
0.808691	1.326474
0.808789	1.334332
0.808887	1.328542
0.808984	1.321650
0.809082	1.307329
0.809180	1.284868
0.809277	1.275442
0.809375	1.281091
0.809473	1.284583
0.809570	1.291446
0.809668	1.354261
0.809766	1.405882
0.809863	1.438571
0.809961	1.470417
0.810059	1.482324
0.810156	1.479761
0.810254	1.445247
0.810352	1.422357
0.810449	1.436232
0.810547	1.435488
0.810645	1.433386
0.810742	1.426111
0.810840	1.425207
0.810937	1.437067
0.811035	1.433281
0.811133	1.428859
0.811230	1.436863
0.811328	1.445895
0.811426	1.456312
0.811523	1.453811
0.811621	1.444109
0.811719	1.436577
0.811816	1.424177
0.811914	1.405269
0.812012	1.382654
0.812109	1.355128
0.812207	1.334691
0.812305	1.334625
0.812402	1.342212
0.812500	1.347182
0.812598	1.350312
0.812695	1.346238
0.812793	1.338085
0.812891	1.330134
0.812988	1.318580
0.813086	1.306421
0.813184	1.300788
0.813281	1.311108
0.813379	1.335134
0.813477	1.355562
0.813574	1.364344
0.813672	1.367309
0.813770	1.368670
0.813867	1.373100
0.813965	1.378541
0.814062	1.386058
0.814160	1.384528
0.814258	1.390691
0.814355	1.399388
0.814453	1.403582
0.814551	1.405749
0.814648	1.391194
0.814746	1.371328
0.814844	1.350288
0.814941	1.346288
0.815039	1.350909
0.815137	1.350298
0.815234	1.374300
0.815332	1.405245
0.815430	1.431790
0.815527	1.415851
0.815625	1.386949
0.815723	1.395414
0.815820	1.390806
0.815918	1.386929
0.816016	1.382583
0.816113	1.407245
0.816211	1.427246
0.816309	1.442025
0.816406	1.450820
0.816504	1.465468
0.816602	1.478258
0.816699	1.476633
0.816797	1.458815
0.816895	1.451816
0.816992	1.469380
0.817090	1.481641
0.817187	1.495516
0.817285	1.503863
0.817383	1.521967
0.817480	1.515531
0.817578	1.496382
0.817676	1.474471
0.817773	1.465543
0.817871	1.475146
0.817969	1.481759
0.818066	1.493533
0.818164	1.488555
0.818262	1.475587
0.818359	1.498738
0.818457	1.518904
0.818555	1.547356
0.818652	1.553192
0.818750	1.505006
0.818848	1.486896
0.818945	1.489038
0.819043	1.468887
0.819141	1.466642
0.819238	1.471350
0.819336	1.454933
0.819434	1.447814
0.819531	1.471805
0.819629	1.494979
0.819727	1.508746
0.819824	1.522364
0.819922	1.519739
0.820020	1.498833
0.820117	1.481414
0.820215	1.465606
0.820312	1.454567
0.820410	1.438415
0.820508	1.436974
0.820605	1.452569
0.820703	1.455070
0.820801	1.448369
0.820898	1.441174
0.820996	1.475985
0.821094	1.485785
0.821191	1.546160
0.821289	1.560578
0.821387	1.539781
0.821484	1.535848
0.821582	1.524069
0.821680	1.496805
0.821777	1.491133
0.821875	1.506045
0.821973	1.489530
0.822070	1.490217
0.822168	1.500725
0.822266	1.467725
0.822363	1.475084
0.822461	1.493270
0.822559	1.546194
0.822656	1.601946
0.822754	1.590476
0.822852	1.602384
0.822949	1.605334
0.823047	1.595880
0.823145	1.567739
0.823242	1.559673
0.823340	1.587774
0.823437	1.634296
0.823535	1.612069
0.823633	1.607042
0.823730	1.608274
0.823828	1.589180
0.823926	1.585297
0.824023	1.631030
0.824121	1.637410
0.824219	1.616279
0.824316	1.621970
0.824414	1.625427
0.824512	1.636697
0.824609	1.637284
0.824707	1.632544
0.824805	1.627926
0.824902	1.630497
0.825000	1.641053
0.825098	1.633722
0.825195	1.620528
0.825293	1.620612
0.825391	1.621884
0.825488	1.633456
0.825586	1.672949
0.825684	1.666753
0.825781	1.709387
0.825879	1.690172
0.825977	1.689143
0.826074	1.714586
0.826172	1.690521
0.826270	1.674731
0.826367	1.641710
0.826465	1.563710
0.826562	1.509915
0.826660	1.516151
0.826758	1.489078
0.826855	1.524766
0.826953	1.538386
0.827051	1.539504
0.827148	1.543829
0.827246	1.524483
0.827344	1.523939
0.827441	1.539831
0.827539	1.542123
0.827637	1.548471
0.827734	1.543878
0.827832	1.516101
0.827930	1.529710
0.828027	1.531518
0.828125	1.598642
0.828223	1.632940
0.828320	1.533938
0.828418	1.591650
0.828516	1.595505
0.828613	1.653041
0.828711	1.634714
0.828809	1.600606
0.828906	1.604038
0.829004	1.576898
0.829102	1.572589
0.829199	1.556841
0.829297	1.548444
0.829395	1.530154
0.829492	1.511607
0.829590	1.498935
0.829687	1.485040
0.829785	1.458977
0.829883	1.428394
0.829980	1.407379
0.830078	1.392427
0.830176	1.389198
0.830273	1.404548
0.830371	1.425244
0.830469	1.466574
0.830566	1.501579
0.830664	1.493525
0.830762	1.470291
0.830859	1.479525
0.830957	1.491836
0.831055	1.457395
0.831152	1.495202
0.831250	1.516836
0.831348	1.438801
0.831445	1.344359
0.831543	1.335917
0.831641	1.350413
0.831738	1.382115
0.831836	1.452252
0.831934	1.478547
0.832031	1.471223
0.832129	1.444433
0.832227	1.439352
0.832324	1.448683
0.832422	1.445805
0.832520	1.452775
0.832617	1.480811
0.832715	1.497900
0.832812	1.526790
0.832910	1.586833
0.833008	1.541714
0.833105	1.519434
0.833203	1.467556
0.833301	1.544567
0.833398	1.573209
0.833496	1.542090
0.833594	1.541770
0.833691	1.519672
0.833789	1.518042
0.833887	1.469653
0.833984	1.447982
0.834082	1.476024
0.834180	1.497857
0.834277	1.479421
0.834375	1.488210
0.834473	1.469386
0.834570	1.496528
0.834668	1.523458
0.834766	1.537218
0.834863	1.544037
0.834961	1.526058
0.835059	1.525037
0.835156	1.521492
0.835254	1.516772
0.835352	1.520631
0.835449	1.526641
0.835547	1.520638
0.835645	1.502078
0.835742	1.489605
0.835840	1.484527
0.835937	1.491881
0.836035	1.476661
0.836133	1.471952
0.836230	1.522807
0.836328	1.552416
0.836426	1.564272
0.836523	1.543921
0.836621	1.540718
0.836719	1.554292
0.836816	1.525725
0.836914	1.493777
0.837012	1.484151
0.837109	1.486507
0.837207	1.485002
0.837305	1.472126
0.837402	1.460891
0.837500	1.453897
0.837598	1.451934
0.837695	1.455160
0.837793	1.442793
0.837891	1.435292
0.837988	1.440594
0.838086	1.455152
0.838184	1.472994
0.838281	1.472422
0.838379	1.470329
0.838477	1.475377
0.838574	1.480243
0.838672	1.484560
0.838770	1.484433
0.838867	1.505228
0.838965	1.492520
0.839062	1.471950
0.839160	1.450102
0.839258	1.410125
0.839355	1.407091
0.839453	1.438711
0.839551	1.452122
0.839648	1.474737
0.839746	1.518185
0.839844	1.556020
0.839941	1.527053
0.840039	1.527266
0.840137	1.564865
0.840234	1.546498
0.840332	1.537320
0.840430	1.471689
0.840527	1.422191
0.840625	1.424602
0.840723	1.419168
0.840820	1.430562
0.840918	1.503093
0.841016	1.512211
0.841113	1.502087
0.841211	1.471266
0.841309	1.440357
0.841406	1.479869
0.841504	1.487549
0.841602	1.510608
0.841699	1.506018
0.841797	1.490898
0.841895	1.468979
0.841992	1.473614
0.842090	1.504385
0.842187	1.482754
0.842285	1.463990
0.842383	1.456242
0.842480	1.472676
0.842578	1.450740
0.842676	1.372575
0.842773	1.335480
0.842871	1.327154
0.842969	1.411878
0.843066	1.506545
0.843164	1.533058
0.843262	1.520821
0.843359	1.520345
0.843457	1.522172
0.843555	1.540568
0.843652	1.533281
0.843750	1.525384
0.843848	1.497287
0.843945	1.470585
0.844043	1.447355
0.844141	1.420751
0.844238	1.440469
0.844336	1.469955
0.844434	1.489954
0.844531	1.502202
0.844629	1.511577
0.844727	1.522890
0.844824	1.536444
0.844922	1.522934
0.845020	1.519206
0.845117	1.552481
0.845215	1.567033
0.845312	1.563697
0.845410	1.563676
0.845508	1.557247
0.845605	1.612495
0.845703	1.619048
0.845801	1.594210
0.845898	1.591850
0.845996	1.535785
0.846094	1.557753
0.846191	1.582190
0.846289	1.591331
0.846387	1.607978
0.846484	1.607682
0.846582	1.577467
0.846680	1.575078
0.846777	1.589157
0.846875	1.573893
0.846973	1.558332
0.847070	1.558883
0.847168	1.568580
0.847266	1.594978
0.847363	1.600667
0.847461	1.495414
0.847559	1.500552
0.847656	1.513937
0.847754	1.529129
0.847852	1.537659
0.847949	1.518812
0.848047	1.550254
0.848145	1.531063
0.848242	1.542473
0.848340	1.558457
0.848437	1.558323
0.848535	1.520528
0.848633	1.479363
0.848730	1.528000
0.848828	1.535594
0.848926	1.542204
0.849023	1.624559
0.849121	1.604573
0.849219	1.616732
0.849316	1.581522
0.849414	1.565082
0.849512	1.504528
0.849609	1.505600
0.849707	1.526508
0.849805	1.527498
0.849902	1.566101
0.850000	1.522997
0.850098	1.538791
0.850195	1.540653
0.850293	1.548827
0.850391	1.549703
0.850488	1.537955
0.850586	1.533268
0.850684	1.488963
0.850781	1.506715
0.850879	1.480750
0.850977	1.438502
0.851074	1.393909
0.851172	1.387137
0.851270	1.389130
0.851367	1.378797
0.851465	1.412191
0.851562	1.480948
0.851660	1.476635
0.851758	1.408498
0.851855	1.430210
0.851953	1.477945
0.852051	1.482690
0.852148	1.476866
0.852246	1.496463
0.852344	1.494416
0.852441	1.478270
0.852539	1.467923
0.852637	1.453242
0.852734	1.450118
0.852832	1.427608
0.852930	1.409872
0.853027	1.409309
0.853125	1.396317
0.853223	1.377347
0.853320	1.351648
0.853418	1.322272
0.853516	1.294162
0.853613	1.272871
0.853711	1.268132
0.853809	1.274973
0.853906	1.277035
0.854004	1.266421
0.854102	1.253960
0.854199	1.273208
0.854297	1.307527
0.854395	1.326639
0.854492	1.316397
0.854590	1.299056
0.854687	1.277671
0.854785	1.273057
0.854883	1.287152
0.854980	1.286175
0.855078	1.280315
0.855176	1.288198
0.855273	1.312126
0.855371	1.326913
0.855469	1.330105
0.855566	1.329024
0.855664	1.325536
0.855762	1.319680
0.855859	1.313118
0.855957	1.312707
0.856055	1.317154
0.856152	1.305869
0.856250	1.294357
0.856348	1.308947
0.856445	1.328324
0.856543	1.328177
0.856641	1.318104
0.856738	1.318452
0.856836	1.341935
0.856934	1.375304
0.857031	1.385230
0.857129	1.388946
0.857227	1.388431
0.857324	1.385141
0.857422	1.393948
0.857520	1.404060
0.857617	1.401258
0.857715	1.395621
0.857812	1.394703
0.857910	1.401494
0.858008	1.402551
0.858105	1.391420
0.858203	1.382122
0.858301	1.386847
0.858398	1.397928
0.858496	1.417813
0.858594	1.445715
0.858691	1.476589
0.858789	1.482521
0.858887	1.447913
0.858984	1.444221
0.859082	1.441865
0.859180	1.431113
0.859277	1.427640
0.859375	1.420209
0.859473	1.441634
0.859570	1.476768
0.859668	1.483638
0.859766	1.495210
0.859863	1.523467
0.859961	1.555010
0.860059	1.591783
0.860156	1.592322
0.860254	1.573312
0.860352	1.515278
0.860449	1.509234
0.860547	1.549435
0.860645	1.546932
0.860742	1.543287
0.860840	1.551152
0.860937	1.580884
0.861035	1.584270
0.861133	1.596649
0.861230	1.578134
0.861328	1.594283
0.861426	1.582631
0.861523	1.553857
0.861621	1.594240
0.861719	1.578790
0.861816	1.567810
0.861914	1.567324
0.862012	1.536410
0.862109	1.491927
0.862207	1.492587
0.862305	1.486422
0.862402	1.480000
0.862500	1.492050
0.862598	1.504669
0.862695	1.527798
0.862793	1.512136
0.862891	1.484946
0.862988	1.492383
0.863086	1.487906
0.863184	1.492997
0.863281	1.501723
0.863379	1.478179
0.863477	1.482618
0.863574	1.499359
0.863672	1.497603
0.863770	1.515085
0.863867	1.549737
0.863965	1.581480
0.864062	1.574248
0.864160	1.555079
0.864258	1.545684
0.864355	1.541247
0.864453	1.535509
0.864551	1.527548
0.864648	1.525410
0.864746	1.497194
0.864844	1.417561
0.864941	1.372684
0.865039	1.415417
0.865137	1.397602
0.865234	1.489135
0.865332	1.565441
0.865430	1.563215
0.865527	1.562781
0.865625	1.557804
0.865723	1.536758
0.865820	1.522602
0.865918	1.512704
0.866016	1.491679
0.866113	1.472036
0.866211	1.491385
0.866309	1.529424
0.866406	1.552784
0.866504	1.526778
0.866602	1.526522
0.866699	1.543077
0.866797	1.555474
0.866895	1.570205
0.866992	1.574101
0.867090	1.579767
0.867187	1.597690
0.867285	1.608540
0.867383	1.619341
0.867480	1.588804
0.867578	1.575695
0.867676	1.586019
0.867773	1.567666
0.867871	1.558534
0.867969	1.577675
0.868066	1.589358
0.868164	1.571927
0.868262	1.556998
0.868359	1.567615
0.868457	1.571455
0.868555	1.599902
0.868652	1.619353
0.868750	1.590800
0.868848	1.584191
0.868945	1.579324
0.869043	1.589499
0.869141	1.594807
0.869238	1.591068
0.869336	1.582727
0.869434	1.559622
0.869531	1.514972
0.869629	1.526059
0.869727	1.566732
0.869824	1.553626
0.869922	1.560107
0.870020	1.541734
0.870117	1.512492
0.870215	1.487192
0.870312	1.483268
0.870410	1.478255
0.870508	1.474708
0.870605	1.467658
0.870703	1.459121
0.870801	1.478781
0.870898	1.531507
0.870996	1.521699
0.871094	1.512892
0.871191	1.500821
0.871289	1.492964
0.871387	1.490240
0.871484	1.479729
0.871582	1.459213
0.871680	1.427387
0.871777	1.414805
0.871875	1.391420
0.871973	1.369819
0.872070	1.358954
0.872168	1.352276
0.872266	1.346355
0.872363	1.402170
0.872461	1.456948
0.872559	1.473718
0.872656	1.503641
0.872754	1.485710
0.872852	1.449143
0.872949	1.417321
0.873047	1.396267
0.873145	1.363444
0.873242	1.355446
0.873340	1.361178
0.873437	1.346382
0.873535	1.348467
0.873633	1.372814
0.873730	1.364915
0.873828	1.346170
0.873926	1.326174
0.874023	1.299375
0.874121	1.305635
0.874219	1.318383
0.874316	1.314360
0.874414	1.296977
0.874512	1.290543
0.874609	1.302003
0.874707	1.313216
0.874805	1.326698
0.874902	1.345144
0.875000	1.359736
0.875098	1.359747
0.875195	1.353918
0.875293	1.334489
0.875391	1.310852
0.875488	1.301478
0.875586	1.303193
0.875684	1.308864
0.875781	1.298589
0.875879	1.277095
0.875977	1.261308
0.876074	1.257193
0.876172	1.284360
0.876270	1.302985
0.876367	1.303657
0.876465	1.295537
0.876562	1.288003
0.876660	1.289458
0.876758	1.296025
0.876855	1.300444
0.876953	1.297736
0.877051	1.286560
0.877148	1.275121
0.877246	1.271192
0.877344	1.276203
0.877441	1.282507
0.877539	1.288988
0.877637	1.303533
0.877734	1.329135
0.877832	1.349541
0.877930	1.357547
0.878027	1.357858
0.878125	1.354213
0.878223	1.348628
0.878320	1.333521
0.878418	1.305722
0.878516	1.293966
0.878613	1.328736
0.878711	1.365015
0.878809	1.348897
0.878906	1.302738
0.879004	1.275367
0.879102	1.287451
0.879199	1.298866
0.879297	1.297534
0.879395	1.288720
0.879492	1.293052
0.879590	1.333265
0.879687	1.370434
0.879785	1.405733
0.879883	1.442841
0.879980	1.452333
0.880078	1.447368
0.880176	1.439541
0.880273	1.425654
0.880371	1.412842
0.880469	1.415070
0.880566	1.431562
0.880664	1.437936
0.880762	1.431242
0.880859	1.415027
0.880957	1.401691
0.881055	1.394128
0.881152	1.385339
0.881250	1.400683
0.881348	1.443052
0.881445	1.439461
0.881543	1.436502
0.881641	1.460946
0.881738	1.459757
0.881836	1.448822
0.881934	1.433961
0.882031	1.422634
0.882129	1.408701
0.882227	1.387844
0.882324	1.354113
0.882422	1.325356
0.882520	1.309430
0.882617	1.303074
0.882715	1.301279
0.882812	1.296908
0.882910	1.284327
0.883008	1.270304
0.883105	1.261458
0.883203	1.259840
0.883301	1.264676
0.883398	1.273073
0.883496	1.277571
0.883594	1.276035
0.883691	1.285566
0.883789	1.313330
0.883887	1.336854
0.883984	1.342155
0.884082	1.325383
0.884180	1.292757
0.884277	1.274270
0.884375	1.258453
0.884473	1.251434
0.884570	1.284885
0.884668	1.278169
0.884766	1.264909
0.884863	1.260487
0.884961	1.256417
0.885059	1.257093
0.885156	1.255144
0.885254	1.253237
0.885352	1.250718
0.885449	1.247291
0.885547	1.241611
0.885645	1.235481
0.885742	1.228702
0.885840	1.221841
0.885937	1.216241
0.886035	1.216297
0.886133	1.233389
0.886230	1.265479
0.886328	1.299840
0.886426	1.321519
0.886523	1.325525
0.886621	1.325874
0.886719	1.320687
0.886816	1.327075
0.886914	1.348100
0.887012	1.344529
0.887109	1.323082
0.887207	1.304635
0.887305	1.297489
0.887402	1.302386
0.887500	1.316352
0.887598	1.334205
0.887695	1.354396
0.887793	1.366235
0.887891	1.382107
0.887988	1.408726
0.888086	1.418705
0.888184	1.420958
0.888281	1.422143
0.888379	1.421182
0.888477	1.418575
0.888574	1.419793
0.888672	1.422362
0.888770	1.420746
0.888867	1.416725
0.888965	1.410855
0.889062	1.403125
0.889160	1.401658
0.889258	1.408691
0.889355	1.412345
0.889453	1.399433
0.889551	1.377564
0.889648	1.370258
0.889746	1.389055
0.889844	1.402471
0.889941	1.405688
0.890039	1.410301
0.890137	1.407235
0.890234	1.408072
0.890332	1.423908
0.890430	1.435309
0.890527	1.432744
0.890625	1.431521
0.890723	1.432378
0.890820	1.433839
0.890918	1.431071
0.891016	1.424039
0.891113	1.418276
0.891211	1.417328
0.891309	1.413920
0.891406	1.412193
0.891504	1.430322
0.891602	1.447670
0.891699	1.456039
0.891797	1.448282
0.891895	1.453327
0.891992	1.457373
0.892090	1.473956
0.892187	1.485747
0.892285	1.468615
0.892383	1.464844
0.892480	1.483514
0.892578	1.495685
0.892676	1.510950
0.892773	1.516762
0.892871	1.494859
0.892969	1.468641
0.893066	1.448662
0.893164	1.435187
0.893262	1.448085
0.893359	1.452810
0.893457	1.438001
0.893555	1.450386
0.893652	1.467943
0.893750	1.499234
0.893848	1.513414
0.893945	1.502519
0.894043	1.498516
0.894141	1.489410
0.894238	1.480215
0.894336	1.489806
0.894434	1.484191
0.894531	1.473094
0.894629	1.469804
0.894727	1.464427
0.894824	1.457662
0.894922	1.452123
0.895020	1.452117
0.895117	1.456210
0.895215	1.455876
0.895312	1.460735
0.895410	1.468916
0.895508	1.480213
0.895605	1.501581
0.895703	1.526246
0.895801	1.539686
0.895898	1.534553
0.895996	1.522177
0.896094	1.509106
0.896191	1.497802
0.896289	1.510583
0.896387	1.512630
0.896484	1.512726
0.896582	1.521503
0.896680	1.527690
0.896777	1.543987
0.896875	1.554720
0.896973	1.542603
0.897070	1.527805
0.897168	1.522561
0.897266	1.513468
0.897363	1.507778
0.897461	1.522446
0.897559	1.529197
0.897656	1.521371
0.897754	1.553048
0.897852	1.539624
0.897949	1.564874
0.898047	1.566207
0.898145	1.553132
0.898242	1.558021
0.898340	1.553066
0.898437	1.547811
0.898535	1.532971
0.898633	1.534985
0.898730	1.529509
0.898828	1.524021
0.898926	1.511368
0.899023	1.497889
0.899121	1.498079
0.899219	1.495980
0.899316	1.511197
0.899414	1.513837
0.899512	1.527378
0.899609	1.547327
0.899707	1.536498
0.899805	1.517886
0.899902	1.509550
0.900000	1.509494
0.900098	1.491195
0.900195	1.484027
0.900293	1.474410
0.900391	1.478167
0.900488	1.481907
0.900586	1.506144
0.900684	1.538489
0.900781	1.555222
0.900879	1.566394
0.900977	1.568428
0.901074	1.569950
0.901172	1.582248
0.901270	1.584530
0.901367	1.563873
0.901465	1.540176
0.901562	1.530435
0.901660	1.505992
0.901758	1.498273
0.901855	1.470291
0.901953	1.488164
0.902051	1.487912
0.902148	1.481908
0.902246	1.495853
0.902344	1.504509
0.902441	1.521936
0.902539	1.541428
0.902637	1.551592
0.902734	1.525166
0.902832	1.523353
0.902930	1.576462
0.903027	1.577334
0.903125	1.529653
0.903223	1.472725
0.903320	1.411793
0.903418	1.390515
0.903516	1.456828
0.903613	1.493752
0.903711	1.494568
0.903809	1.492685
0.903906	1.502738
0.904004	1.492277
0.904102	1.466508
0.904199	1.440281
0.904297	1.434615
0.904395	1.429885
0.904492	1.454298
0.904590	1.457115
0.904687	1.480118
0.904785	1.485679
0.904883	1.466463
0.904980	1.398949
0.905078	1.352233
0.905176	1.333276
0.905273	1.327402
0.905371	1.330746
0.905469	1.332962
0.905566	1.341032
0.905664	1.344798
0.905762	1.352724
0.905859	1.380693
0.905957	1.400382
0.906055	1.403088
0.906152	1.403727
0.906250	1.395821
0.906348	1.388414
0.906445	1.383351
0.906543	1.383350
0.906641	1.383785
0.906738	1.381557
0.906836	1.375506
0.906934	1.373219
0.907031	1.374679
0.907129	1.376481
0.907227	1.375679
0.907324	1.372369
0.907422	1.366084
0.907520	1.370641
0.907617	1.394283
0.907715	1.419338
0.907812	1.427740
0.907910	1.439669
0.908008	1.459090
0.908105	1.474797
0.908203	1.494588
0.908301	1.511646
0.908398	1.523911
0.908496	1.517192
0.908594	1.467583
0.908691	1.467433
0.908789	1.488390
0.908887	1.477551
0.908984	1.508065
0.909082	1.537434
0.909180	1.527447
0.909277	1.530295
0.909375	1.552264
0.909473	1.550825
0.909570	1.548632
0.909668	1.555520
0.909766	1.547684
0.909863	1.553246
0.909961	1.546292
0.910059	1.534221
0.910156	1.544206
0.910254	1.543156
0.910352	1.550008
0.910449	1.575551
0.910547	1.582490
0.910645	1.570781
0.910742	1.568223
0.910840	1.550478
0.910937	1.509985
0.911035	1.478728
0.911133	1.485057
0.911230	1.437970
0.911328	1.417858
0.911426	1.465637
0.911523	1.471867
0.911621	1.490164
0.911719	1.514816
0.911816	1.487443
0.911914	1.485583
0.912012	1.495184
0.912109	1.498385
0.912207	1.499579
0.912305	1.488883
0.912402	1.473411
0.912500	1.490261
0.912598	1.502711
0.912695	1.534082
0.912793	1.552336
0.912891	1.544061
0.912988	1.528543
0.913086	1.501962
0.913184	1.476634
0.913281	1.497168
0.913379	1.535151
0.913477	1.536153
0.913574	1.528285
0.913672	1.529347
0.913770	1.546919
0.913867	1.550801
0.913965	1.541272
0.914062	1.543661
0.914160	1.545802
0.914258	1.549502
0.914355	1.542884
0.914453	1.523129
0.914551	1.539709
0.914648	1.567284
0.914746	1.576200
0.914844	1.558387
0.914941	1.567540
0.915039	1.572658
0.915137	1.570130
0.915234	1.578863
0.915332	1.569761
0.915430	1.555362
0.915527	1.559503
0.915625	1.563915
0.915723	1.591205
0.915820	1.578766
0.915918	1.579659
0.916016	1.568282
0.916113	1.549662
0.916211	1.573145
0.916309	1.548010
0.916406	1.554454
0.916504	1.551838
0.916602	1.568484
0.916699	1.577791
0.916797	1.560534
0.916895	1.520831
0.916992	1.470316
0.917090	1.430551
0.917187	1.383279
0.917285	1.347566
0.917383	1.329361
0.917480	1.346201
0.917578	1.397301
0.917676	1.435975
0.917773	1.461468
0.917871	1.484191
0.917969	1.502037
0.918066	1.528071
0.918164	1.542074
0.918262	1.542520
0.918359	1.556923
0.918457	1.545201
0.918555	1.516985
0.918652	1.498499
0.918750	1.505128
0.918848	1.527399
0.918945	1.576570
0.919043	1.585473
0.919141	1.576476
0.919238	1.541700
0.919336	1.510985
0.919434	1.480596
0.919531	1.471663
0.919629	1.440456
0.919727	1.405148
0.919824	1.387611
0.919922	1.359294
0.920020	1.427836
0.920117	1.463145
0.920215	1.464275
0.920312	1.484050
0.920410	1.487296
0.920508	1.485630
0.920605	1.492107
0.920703	1.495100
0.920801	1.477658
0.920898	1.448608
0.920996	1.420188
0.921094	1.388442
0.921191	1.347782
0.921289	1.310177
0.921387	1.276714
0.921484	1.267347
0.921582	1.300422
0.921680	1.340095
0.921777	1.374390
0.921875	1.406643
0.921973	1.397735
0.922070	1.366445
0.922168	1.354519
0.922266	1.347888
0.922363	1.344074
0.922461	1.343530
0.922559	1.345769
0.922656	1.364623
0.922754	1.394360
0.922852	1.411919
0.922949	1.441184
0.923047	1.463765
0.923145	1.464679
0.923242	1.455241
0.923340	1.425607
0.923437	1.396527
0.923535	1.373799
0.923633	1.355482
0.923730	1.325840
0.923828	1.299799
0.923926	1.314827
0.924023	1.383157
0.924121	1.442620
0.924219	1.435301
0.924316	1.403328
0.924414	1.389237
0.924512	1.378936
0.924609	1.362841
0.924707	1.347461
0.924805	1.340394
0.924902	1.341351
0.925000	1.345093
0.925098	1.346398
0.925195	1.342351
0.925293	1.332972
0.925391	1.316753
0.925488	1.296359
0.925586	1.275720
0.925684	1.277311
0.925781	1.307019
0.925879	1.327280
0.925977	1.334026
0.926074	1.344444
0.926172	1.370593
0.926270	1.386122
0.926367	1.390567
0.926465	1.407840
0.926562	1.424484
0.926660	1.437760
0.926758	1.440342
0.926855	1.443285
0.926953	1.459837
0.927051	1.507793
0.927148	1.551178
0.927246	1.561524
0.927344	1.548730
0.927441	1.550576
0.927539	1.562133
0.927637	1.582592
0.927734	1.588462
0.927832	1.591035
0.927930	1.605085
0.928027	1.591592
0.928125	1.586255
0.928223	1.590457
0.928320	1.587827
0.928418	1.580506
0.928516	1.563204
0.928613	1.526715
0.928711	1.525427
0.928809	1.508717
0.928906	1.527585
0.929004	1.512524
0.929102	1.560306
0.929199	1.586913
0.929297	1.580931
0.929395	1.595744
0.929492	1.589895
0.929590	1.581883
0.929687	1.577805
0.929785	1.572972
0.929883	1.569788
0.929980	1.563248
0.930078	1.550494
0.930176	1.544570
0.930273	1.544326
0.930371	1.539884
0.930469	1.530697
0.930566	1.547557
0.930664	1.539198
0.930762	1.551323
0.930859	1.543273
0.930957	1.564713
0.931055	1.564766
0.931152	1.535473
0.931250	1.483722
0.931348	1.488460
0.931445	1.475163
0.931543	1.447044
0.931641	1.450164
0.931738	1.476710
0.931836	1.489005
0.931934	1.474367
0.932031	1.499399
0.932129	1.551751
0.932227	1.561488
0.932324	1.542469
0.932422	1.549021
0.932520	1.579366
0.932617	1.568462
0.932715	1.544853
0.932812	1.544536
0.932910	1.601581
0.933008	1.618540
0.933105	1.600189
0.933203	1.579583
0.933301	1.584097
0.933398	1.566596
0.933496	1.584521
0.933594	1.571910
0.933691	1.559195
0.933789	1.558453
0.933887	1.564576
0.933984	1.559179
0.934082	1.578746
0.934180	1.583359
0.934277	1.612436
0.934375	1.622087
0.934473	1.584311
0.934570	1.598654
0.934668	1.582027
0.934766	1.562884
0.934863	1.575869
0.934961	1.589105
0.935059	1.555229
0.935156	1.550778
0.935254	1.529072
0.935352	1.531066
0.935449	1.499878
0.935547	1.479529
0.935645	1.507253
0.935742	1.508464
0.935840	1.486656
0.935937	1.490565
0.936035	1.474775
0.936133	1.441251
0.936230	1.454614
0.936328	1.449589
0.936426	1.456825
0.936523	1.447289
0.936621	1.463443
0.936719	1.499693
0.936816	1.527321
0.936914	1.542219
0.937012	1.576994
0.937109	1.606560
0.937207	1.580450
0.937305	1.546438
0.937402	1.500205
0.937500	1.481341
0.937598	1.480566
0.937695	1.529259
0.937793	1.525995
0.937891	1.513399
0.937988	1.510016
0.938086	1.514012
0.938184	1.515595
0.938281	1.514494
0.938379	1.513714
0.938477	1.506619
0.938574	1.506803
0.938672	1.508485
0.938770	1.502015
0.938867	1.506846
0.938965	1.504130
0.939062	1.510512
0.939160	1.510453
0.939258	1.499909
0.939355	1.494880
0.939453	1.486842
0.939551	1.490593
0.939648	1.500030
0.939746	1.498734
0.939844	1.484737
0.939941	1.474033
0.940039	1.474127
0.940137	1.484114
0.940234	1.519235
0.940332	1.546491
0.940430	1.548523
0.940527	1.555032
0.940625	1.568670
0.940723	1.560597
0.940820	1.522086
0.940918	1.510603
0.941016	1.497934
0.941113	1.477579
0.941211	1.454755
0.941309	1.438023
0.941406	1.413440
0.941504	1.398047
0.941602	1.395748
0.941699	1.387699
0.941797	1.388913
0.941895	1.413648
0.941992	1.452041
0.942090	1.505086
0.942187	1.531397
0.942285	1.513426
0.942383	1.527810
0.942480	1.523487
0.942578	1.494485
0.942676	1.482095
0.942773	1.466719
0.942871	1.433469
0.942969	1.405002
0.943066	1.373704
0.943164	1.340350
0.943262	1.316050
0.943359	1.304438
0.943457	1.300125
0.943555	1.301415
0.943652	1.311631
0.943750	1.323596
0.943848	1.333542
0.943945	1.346344
0.944043	1.371544
0.944141	1.377154
0.944238	1.377384
0.944336	1.403801
0.944434	1.395316
0.944531	1.386724
0.944629	1.406948
0.944727	1.433671
0.944824	1.485926
0.944922	1.530057
0.945020	1.537184
0.945117	1.532959
0.945215	1.519236
0.945312	1.519677
0.945410	1.527109
0.945508	1.542516
0.945605	1.539823
0.945703	1.542957
0.945801	1.537414
0.945898	1.551248
0.945996	1.569538
0.946094	1.557185
0.946191	1.544847
0.946289	1.532254
0.946387	1.540586
0.946484	1.537387
0.946582	1.541138
0.946680	1.544715
0.946777	1.548793
0.946875	1.548969
0.946973	1.565933
0.947070	1.580523
0.947168	1.575153
0.947266	1.596826
0.947363	1.607559
0.947461	1.581871
0.947559	1.555564
0.947656	1.541755
0.947754	1.535671
0.947852	1.540230
0.947949	1.560359
0.948047	1.580199
0.948145	1.578128
0.948242	1.566252
0.948340	1.554340
0.948437	1.553600
0.948535	1.566510
0.948633	1.572108
0.948730	1.555827
0.948828	1.539059
0.948926	1.534971
0.949023	1.525578
0.949121	1.514691
0.949219	1.508070
0.949316	1.502607
0.949414	1.497454
0.949512	1.487831
0.949609	1.478378
0.949707	1.472127
0.949805	1.469426
0.949902	1.464403
0.950000	1.453343
0.950098	1.433625
0.950195	1.418382
0.950293	1.413483
0.950391	1.424969
0.950488	1.436315
0.950586	1.462550
0.950684	1.477278
0.950781	1.501382
0.950879	1.527182
0.950977	1.534394
0.951074	1.515184
0.951172	1.514603
0.951270	1.556595
0.951367	1.554009
0.951465	1.568438
0.951562	1.576301
0.951660	1.572875
0.951758	1.560709
0.951855	1.550888
0.951953	1.544110
0.952051	1.530840
0.952148	1.525047
0.952246	1.520230
0.952344	1.530656
0.952441	1.503355
0.952539	1.482505
0.952637	1.486660
0.952734	1.478828
0.952832	1.461494
0.952930	1.469912
0.953027	1.453058
0.953125	1.430850
0.953223	1.445447
0.953320	1.403525
0.953418	1.400372
0.953516	1.417370
0.953613	1.422142
0.953711	1.435535
0.953809	1.432517
0.953906	1.438645
0.954004	1.464203
0.954102	1.496204
0.954199	1.495767
0.954297	1.470374
0.954395	1.432481
0.954492	1.394139
0.954590	1.365363
0.954687	1.336061
0.954785	1.327011
0.954883	1.339651
0.954980	1.366037
0.955078	1.377398
0.955176	1.374399
0.955273	1.371455
0.955371	1.360088
0.955469	1.332310
0.955566	1.290522
0.955664	1.270211
0.955762	1.301391
0.955859	1.370161
0.955957	1.396781
0.956055	1.411319
0.956152	1.425685
0.956250	1.423062
0.956348	1.410743
0.956445	1.422014
0.956543	1.439143
0.956641	1.442085
0.956738	1.433732
0.956836	1.420147
0.956934	1.404285
0.957031	1.397626
0.957129	1.405291
0.957227	1.410604
0.957324	1.419644
0.957422	1.435420
0.957520	1.446605
0.957617	1.477327
0.957715	1.500585
0.957812	1.508907
0.957910	1.514249
0.958008	1.501289
0.958105	1.487984
0.958203	1.475902
0.958301	1.473839
0.958398	1.473201
0.958496	1.478425
0.958594	1.461539
0.958691	1.467368
0.958789	1.481475
0.958887	1.516489
0.958984	1.528467
0.959082	1.508266
0.959180	1.501203
0.959277	1.509303
0.959375	1.513701
0.959473	1.498379
0.959570	1.502753
0.959668	1.491188
0.959766	1.480002
0.959863	1.465326
0.959961	1.460790
0.960059	1.460565
0.960156	1.447519
0.960254	1.422852
0.960352	1.419482
0.960449	1.434809
0.960547	1.435988
0.960645	1.420534
0.960742	1.423754
0.960840	1.441112
0.960937	1.456095
0.961035	1.456601
0.961133	1.464572
0.961230	1.479496
0.961328	1.472007
0.961426	1.466133
0.961523	1.456703
0.961621	1.448723
0.961719	1.439686
0.961816	1.436987
0.961914	1.433333
0.962012	1.415731
0.962109	1.396124
0.962207	1.402833
0.962305	1.411800
0.962402	1.412768
0.962500	1.423809
0.962598	1.436350
0.962695	1.431993
0.962793	1.415672
0.962891	1.393101
0.962988	1.377646
0.963086	1.371720
0.963184	1.371747
0.963281	1.370699
0.963379	1.362299
0.963477	1.345066
0.963574	1.324074
0.963672	1.297929
0.963770	1.274094
0.963867	1.264711
0.963965	1.286785
0.964062	1.335794
0.964160	1.388912
0.964258	1.416060
0.964355	1.441704
0.964453	1.465608
0.964551	1.449580
0.964648	1.429912
0.964746	1.433717
0.964844	1.457806
0.964941	1.470991
0.965039	1.467984
0.965137	1.456354
0.965234	1.452713
0.965332	1.457217
0.965430	1.450912
0.965527	1.439935
0.965625	1.430671
0.965723	1.423262
0.965820	1.420826
0.965918	1.418926
0.966016	1.415868
0.966113	1.410944
0.966211	1.403877
0.966309	1.395656
0.966406	1.387887
0.966504	1.381636
0.966602	1.377645
0.966699	1.368088
0.966797	1.351622
0.966895	1.326861
0.966992	1.297350
0.967090	1.271651
0.967187	1.270378
0.967285	1.297325
0.967383	1.337161
0.967480	1.371704
0.967578	1.399832
0.967676	1.422869
0.967773	1.473361
0.967871	1.508982
0.967969	1.489315
0.968066	1.497374
0.968164	1.500776
0.968262	1.485865
0.968359	1.477638
0.968457	1.488343
0.968555	1.491175
0.968652	1.493683
0.968750	1.483131
0.968848	1.481305
0.968945	1.477941
0.969043	1.470204
0.969141	1.469242
0.969238	1.501306
0.969336	1.493218
0.969434	1.490529
0.969531	1.494123
0.969629	1.471138
0.969727	1.465132
0.969824	1.454468
0.969922	1.452125
0.970020	1.468486
0.970117	1.485149
0.970215	1.462545
0.970312	1.448821
0.970410	1.457479
0.970508	1.443679
0.970605	1.433947
0.970703	1.432270
0.970801	1.426694
0.970898	1.433208
0.970996	1.456330
0.971094	1.469475
0.971191	1.467688
0.971289	1.449868
0.971387	1.446728
0.971484	1.459505
0.971582	1.466995
0.971680	1.481777
0.971777	1.475407
0.971875	1.480423
0.971973	1.483587
0.972070	1.500695
0.972168	1.526790
0.972266	1.542937
0.972363	1.537801
0.972461	1.526051
0.972559	1.499679
0.972656	1.485751
0.972754	1.470245
0.972852	1.442747
0.972949	1.413320
0.973047	1.389264
0.973145	1.366989
0.973242	1.354501
0.973340	1.363124
0.973437	1.366953
0.973535	1.356108
0.973633	1.361104
0.973730	1.364316
0.973828	1.340607
0.973926	1.307273
0.974023	1.301139
0.974121	1.305137
0.974219	1.328744
0.974316	1.347437
0.974414	1.350700
0.974512	1.372502
0.974609	1.398825
0.974707	1.407716
0.974805	1.408575
0.974902	1.413312
0.975000	1.411742
0.975098	1.393834
0.975195	1.364243
0.975293	1.330427
0.975391	1.299639
0.975488	1.279924
0.975586	1.282289
0.975684	1.308296
0.975781	1.346436
0.975879	1.362461
0.975977	1.344261
0.976074	1.310356
0.976172	1.295157
0.976270	1.310313
0.976367	1.311594
0.976465	1.301366

