LabVIEW Measurement	
Writer_Version	2
Reader_Version	2
Separator	Tab
Decimal_Separator	.
Multi_Headings	Yes
X_Columns	One
Time_Pref	Absolute
Operator	W-Tunnel
Date	1904/01/01
Time	01:00:00
***End_of_Header***	
	
Channels	1	
Samples	10000	
Date	2024/05/17	
Time	18:32:04.2256138562498955817	
Y_Unit_Label	Volts	
X_Dimension	Time	
X0	0.0000000000000000E+0	
Delta_X	9.765625E-5	
***End_of_Header***		
X_Value	Voltage	Comment
0.000000	1.574405
9.765625E-5	1.555766
0.000195	1.539113
0.000293	1.556325
0.000391	1.548780
0.000488	1.543993
0.000586	1.542848
0.000684	1.543222
0.000781	1.534575
0.000879	1.527664
0.000977	1.529528
0.001074	1.516542
0.001172	1.499189
0.001270	1.507046
0.001367	1.517196
0.001465	1.524415
0.001562	1.529064
0.001660	1.520041
0.001758	1.513499
0.001855	1.543728
0.001953	1.568957
0.002051	1.570419
0.002148	1.566408
0.002246	1.540529
0.002344	1.529123
0.002441	1.488495
0.002539	1.513905
0.002637	1.539158
0.002734	1.553840
0.002832	1.560682
0.002930	1.567056
0.003027	1.562291
0.003125	1.531762
0.003223	1.513904
0.003320	1.508491
0.003418	1.508189
0.003516	1.522538
0.003613	1.540247
0.003711	1.572849
0.003809	1.612516
0.003906	1.600946
0.004004	1.593932
0.004102	1.602086
0.004199	1.598975
0.004297	1.598037
0.004395	1.598411
0.004492	1.604706
0.004590	1.594028
0.004687	1.620864
0.004785	1.623433
0.004883	1.588845
0.004980	1.567642
0.005078	1.580288
0.005176	1.587439
0.005273	1.593641
0.005371	1.613512
0.005469	1.629933
0.005566	1.637239
0.005664	1.652972
0.005762	1.631833
0.005859	1.602199
0.005957	1.613837
0.006055	1.635636
0.006152	1.650804
0.006250	1.644904
0.006348	1.623497
0.006445	1.631013
0.006543	1.617921
0.006641	1.613435
0.006738	1.639864
0.006836	1.630611
0.006934	1.637105
0.007031	1.655729
0.007129	1.674271
0.007227	1.668869
0.007324	1.664913
0.007422	1.663057
0.007520	1.664849
0.007617	1.661819
0.007715	1.661674
0.007812	1.699142
0.007910	1.697075
0.008008	1.653107
0.008105	1.640065
0.008203	1.652590
0.008301	1.660879
0.008398	1.667741
0.008496	1.672347
0.008594	1.673768
0.008691	1.675757
0.008789	1.679813
0.008887	1.676886
0.008984	1.684391
0.009082	1.698943
0.009180	1.709442
0.009277	1.696352
0.009375	1.684986
0.009473	1.677191
0.009570	1.663549
0.009668	1.655527
0.009766	1.655977
0.009863	1.668942
0.009961	1.669769
0.010059	1.660504
0.010156	1.647573
0.010254	1.644038
0.010352	1.623199
0.010449	1.605127
0.010547	1.599439
0.010645	1.589197
0.010742	1.586375
0.010840	1.606068
0.010937	1.592247
0.011035	1.607583
0.011133	1.628300
0.011230	1.612445
0.011328	1.598321
0.011426	1.570120
0.011523	1.554523
0.011621	1.567537
0.011719	1.597653
0.011816	1.602969
0.011914	1.597955
0.012012	1.581162
0.012109	1.570774
0.012207	1.577916
0.012305	1.601800
0.012402	1.617467
0.012500	1.594602
0.012598	1.596581
0.012695	1.605384
0.012793	1.587294
0.012891	1.573229
0.012988	1.557611
0.013086	1.543310
0.013184	1.576466
0.013281	1.589241
0.013379	1.604833
0.013477	1.614827
0.013574	1.603570
0.013672	1.634756
0.013770	1.659205
0.013867	1.634832
0.013965	1.619734
0.014062	1.593739
0.014160	1.570497
0.014258	1.582183
0.014355	1.613829
0.014453	1.665292
0.014551	1.697415
0.014648	1.699093
0.014746	1.634024
0.014844	1.613533
0.014941	1.604453
0.015039	1.586376
0.015137	1.600926
0.015234	1.629997
0.015332	1.639321
0.015430	1.624350
0.015527	1.612523
0.015625	1.627117
0.015723	1.637933
0.015820	1.595078
0.015918	1.600805
0.016016	1.621527
0.016113	1.660892
0.016211	1.673845
0.016309	1.647599
0.016406	1.641538
0.016504	1.600431
0.016602	1.593692
0.016699	1.590644
0.016797	1.602595
0.016895	1.626717
0.016992	1.620755
0.017090	1.607693
0.017187	1.594289
0.017285	1.575638
0.017383	1.559379
0.017480	1.541053
0.017578	1.520190
0.017676	1.524223
0.017773	1.552707
0.017871	1.553064
0.017969	1.523085
0.018066	1.482387
0.018164	1.457406
0.018262	1.505796
0.018359	1.514773
0.018457	1.480949
0.018555	1.470008
0.018652	1.503638
0.018750	1.522214
0.018848	1.447363
0.018945	1.457689
0.019043	1.527534
0.019141	1.476597
0.019238	1.442579
0.019336	1.411367
0.019434	1.407345
0.019531	1.454726
0.019629	1.508205
0.019727	1.565179
0.019824	1.603885
0.019922	1.616513
0.020020	1.609243
0.020117	1.600809
0.020215	1.598362
0.020312	1.631428
0.020410	1.654592
0.020508	1.633900
0.020605	1.631457
0.020703	1.679520
0.020801	1.672328
0.020898	1.665582
0.020996	1.674909
0.021094	1.677054
0.021191	1.691460
0.021289	1.679456
0.021387	1.682227
0.021484	1.669764
0.021582	1.661694
0.021680	1.646125
0.021777	1.642735
0.021875	1.638196
0.021973	1.644710
0.022070	1.674543
0.022168	1.661745
0.022266	1.642263
0.022363	1.629878
0.022461	1.667209
0.022559	1.642637
0.022656	1.619309
0.022754	1.597543
0.022852	1.552505
0.022949	1.560404
0.023047	1.596749
0.023145	1.618850
0.023242	1.620879
0.023340	1.607318
0.023437	1.579324
0.023535	1.579663
0.023633	1.584921
0.023730	1.563910
0.023828	1.557076
0.023926	1.563216
0.024023	1.561976
0.024121	1.548587
0.024219	1.525732
0.024316	1.505539
0.024414	1.507506
0.024512	1.526625
0.024609	1.570616
0.024707	1.580934
0.024805	1.568373
0.024902	1.576320
0.025000	1.614311
0.025098	1.631453
0.025195	1.633081
0.025293	1.651376
0.025391	1.665944
0.025488	1.668956
0.025586	1.666546
0.025684	1.668585
0.025781	1.664346
0.025879	1.664546
0.025977	1.655295
0.026074	1.654025
0.026172	1.661060
0.026270	1.666059
0.026367	1.664286
0.026465	1.660901
0.026562	1.632574
0.026660	1.634765
0.026758	1.649256
0.026855	1.653160
0.026953	1.649560
0.027051	1.664532
0.027148	1.675909
0.027246	1.665094
0.027344	1.668211
0.027441	1.665515
0.027539	1.673013
0.027637	1.682878
0.027734	1.667110
0.027832	1.676928
0.027930	1.681570
0.028027	1.673422
0.028125	1.676464
0.028223	1.673167
0.028320	1.647219
0.028418	1.684236
0.028516	1.619226
0.028613	1.585849
0.028711	1.574342
0.028809	1.609807
0.028906	1.677629
0.029004	1.622080
0.029102	1.646128
0.029199	1.643588
0.029297	1.627575
0.029395	1.582249
0.029492	1.590261
0.029590	1.606470
0.029687	1.612095
0.029785	1.585560
0.029883	1.563612
0.029980	1.532394
0.030078	1.523224
0.030176	1.511184
0.030273	1.516313
0.030371	1.512744
0.030469	1.504048
0.030566	1.521649
0.030664	1.532765
0.030762	1.530758
0.030859	1.540961
0.030957	1.535972
0.031055	1.498913
0.031152	1.489766
0.031250	1.528761
0.031348	1.529026
0.031445	1.535959
0.031543	1.523308
0.031641	1.518334
0.031738	1.515058
0.031836	1.505838
0.031934	1.474781
0.032031	1.470604
0.032129	1.475049
0.032227	1.454444
0.032324	1.483069
0.032422	1.561387
0.032520	1.575719
0.032617	1.567646
0.032715	1.569137
0.032812	1.577880
0.032910	1.562583
0.033008	1.570200
0.033105	1.559525
0.033203	1.539464
0.033301	1.540792
0.033398	1.542879
0.033496	1.534362
0.033594	1.526821
0.033691	1.525746
0.033789	1.540267
0.033887	1.541647
0.033984	1.560450
0.034082	1.569526
0.034180	1.569812
0.034277	1.559633
0.034375	1.542472
0.034473	1.510778
0.034570	1.501330
0.034668	1.495973
0.034766	1.494854
0.034863	1.498407
0.034961	1.489269
0.035059	1.520848
0.035156	1.535099
0.035254	1.563384
0.035352	1.591188
0.035449	1.594676
0.035547	1.592613
0.035645	1.588142
0.035742	1.570032
0.035840	1.552425
0.035937	1.555141
0.036035	1.561882
0.036133	1.584467
0.036230	1.603092
0.036328	1.612135
0.036426	1.617130
0.036523	1.618327
0.036621	1.617586
0.036719	1.616297
0.036816	1.615361
0.036914	1.614957
0.037012	1.615091
0.037109	1.615750
0.037207	1.616716
0.037305	1.617943
0.037402	1.619458
0.037500	1.621129
0.037598	1.623001
0.037695	1.625075
0.037793	1.627210
0.037891	1.629536
0.037988	1.632037
0.038086	1.634370
0.038184	1.636966
0.038281	1.639471
0.038379	1.642013
0.038477	1.644696
0.038574	1.647152
0.038672	1.649459
0.038770	1.651607
0.038867	1.653505
0.038965	1.655417
0.039062	1.657362
0.039160	1.659114
0.039258	1.661088
0.039355	1.662960
0.039453	1.665639
0.039551	1.668915
0.039648	1.672972
0.039746	1.675052
0.039844	1.675865
0.039941	1.674571
0.040039	1.676150
0.040137	1.676832
0.040234	1.682260
0.040332	1.689259
0.040430	1.708397
0.040527	1.715745
0.040625	1.673103
0.040723	1.677369
0.040820	1.682129
0.040918	1.678479
0.041016	1.684893
0.041113	1.676966
0.041211	1.655930
0.041309	1.634409
0.041406	1.624199
0.041504	1.641738
0.041602	1.641224
0.041699	1.648869
0.041797	1.674402
0.041895	1.676644
0.041992	1.677133
0.042090	1.664539
0.042187	1.693476
0.042285	1.699592
0.042383	1.661618
0.042480	1.659511
0.042578	1.663431
0.042676	1.667505
0.042773	1.646170
0.042871	1.662514
0.042969	1.674941
0.043066	1.658932
0.043164	1.645040
0.043262	1.646228
0.043359	1.646774
0.043457	1.671029
0.043555	1.643301
0.043652	1.568662
0.043750	1.538453
0.043848	1.580517
0.043945	1.579594
0.044043	1.584913
0.044141	1.526906
0.044238	1.528611
0.044336	1.564006
0.044434	1.533580
0.044531	1.498094
0.044629	1.490176
0.044727	1.530864
0.044824	1.521531
0.044922	1.528821
0.045020	1.554424
0.045117	1.558945
0.045215	1.547322
0.045312	1.540380
0.045410	1.546048
0.045508	1.516633
0.045605	1.482899
0.045703	1.487413
0.045801	1.504504
0.045898	1.496301
0.045996	1.482823
0.046094	1.517774
0.046191	1.540981
0.046289	1.522928
0.046387	1.527290
0.046484	1.536154
0.046582	1.541069
0.046680	1.509429
0.046777	1.507597
0.046875	1.508313
0.046973	1.506384
0.047070	1.528531
0.047168	1.547093
0.047266	1.560896
0.047363	1.568830
0.047461	1.541152
0.047559	1.526856
0.047656	1.530591
0.047754	1.524617
0.047852	1.526837
0.047949	1.546565
0.048047	1.554510
0.048145	1.535372
0.048242	1.499978
0.048340	1.455041
0.048437	1.418246
0.048535	1.426885
0.048633	1.508262
0.048730	1.543193
0.048828	1.561920
0.048926	1.580430
0.049023	1.587829
0.049121	1.601076
0.049219	1.596043
0.049316	1.578722
0.049414	1.547573
0.049512	1.506127
0.049609	1.493024
0.049707	1.482517
0.049805	1.496461
0.049902	1.539537
0.050000	1.563929
0.050098	1.594494
0.050195	1.625889
0.050293	1.645682
0.050391	1.658121
0.050488	1.654096
0.050586	1.639974
0.050684	1.630623
0.050781	1.621583
0.050879	1.616817
0.050977	1.616014
0.051074	1.618007
0.051172	1.617608
0.051270	1.615591
0.051367	1.618392
0.051465	1.628326
0.051562	1.634189
0.051660	1.629227
0.051758	1.622076
0.051855	1.611503
0.051953	1.611670
0.052051	1.610483
0.052148	1.611829
0.052246	1.591875
0.052344	1.580388
0.052441	1.596148
0.052539	1.619890
0.052637	1.630445
0.052734	1.618066
0.052832	1.606767
0.052930	1.590733
0.053027	1.555039
0.053125	1.536226
0.053223	1.533520
0.053320	1.536143
0.053418	1.530693
0.053516	1.527984
0.053613	1.545490
0.053711	1.558410
0.053809	1.592683
0.053906	1.617431
0.054004	1.640496
0.054102	1.645046
0.054199	1.653420
0.054297	1.670627
0.054395	1.671547
0.054492	1.632157
0.054590	1.618902
0.054687	1.619753
0.054785	1.609495
0.054883	1.622916
0.054980	1.606299
0.055078	1.616313
0.055176	1.619744
0.055273	1.615311
0.055371	1.623638
0.055469	1.619026
0.055566	1.603449
0.055664	1.635284
0.055762	1.631849
0.055859	1.599596
0.055957	1.588928
0.056055	1.588735
0.056152	1.604345
0.056250	1.577827
0.056348	1.567507
0.056445	1.567393
0.056543	1.576548
0.056641	1.580753
0.056738	1.583115
0.056836	1.598129
0.056934	1.625363
0.057031	1.612808
0.057129	1.625172
0.057227	1.650037
0.057324	1.634885
0.057422	1.638747
0.057520	1.608191
0.057617	1.606675
0.057715	1.608264
0.057812	1.607920
0.057910	1.617432
0.058008	1.596573
0.058105	1.579279
0.058203	1.557137
0.058301	1.578186
0.058398	1.574948
0.058496	1.577277
0.058594	1.590576
0.058691	1.584397
0.058789	1.591070
0.058887	1.603657
0.058984	1.618207
0.059082	1.610295
0.059180	1.590349
0.059277	1.549299
0.059375	1.524295
0.059473	1.530431
0.059570	1.545083
0.059668	1.554668
0.059766	1.557111
0.059863	1.538655
0.059961	1.518277
0.060059	1.523280
0.060156	1.519151
0.060254	1.553773
0.060352	1.521998
0.060449	1.463453
0.060547	1.432793
0.060645	1.359413
0.060742	1.327446
0.060840	1.359606
0.060937	1.347314
0.061035	1.343448
0.061133	1.344518
0.061230	1.370047
0.061328	1.416862
0.061426	1.422835
0.061523	1.398862
0.061621	1.357478
0.061719	1.338466
0.061816	1.349792
0.061914	1.338092
0.062012	1.338082
0.062109	1.354821
0.062207	1.348140
0.062305	1.352251
0.062402	1.369338
0.062500	1.393947
0.062598	1.404920
0.062695	1.420981
0.062793	1.399901
0.062891	1.400191
0.062988	1.491435
0.063086	1.496413
0.063184	1.456676
0.063281	1.427693
0.063379	1.397513
0.063477	1.385092
0.063574	1.397026
0.063672	1.389308
0.063770	1.358453
0.063867	1.322860
0.063965	1.352006
0.064062	1.427999
0.064160	1.466654
0.064258	1.457792
0.064355	1.464454
0.064453	1.460293
0.064551	1.455496
0.064648	1.485345
0.064746	1.520097
0.064844	1.535592
0.064941	1.541451
0.065039	1.549195
0.065137	1.552993
0.065234	1.549867
0.065332	1.554791
0.065430	1.560019
0.065527	1.565335
0.065625	1.570419
0.065723	1.575786
0.065820	1.581284
0.065918	1.586154
0.066016	1.589988
0.066113	1.593026
0.066211	1.595296
0.066309	1.597003
0.066406	1.598457
0.066504	1.600041
0.066602	1.601466
0.066699	1.603194
0.066797	1.605079
0.066895	1.607107
0.066992	1.609433
0.067090	1.611852
0.067187	1.614514
0.067285	1.616924
0.067383	1.619749
0.067480	1.622125
0.067578	1.626025
0.067676	1.630985
0.067773	1.634175
0.067871	1.640326
0.067969	1.651399
0.068066	1.644124
0.068164	1.639591
0.068262	1.623038
0.068359	1.607808
0.068457	1.607039
0.068555	1.597502
0.068652	1.573810
0.068750	1.562426
0.068848	1.557062
0.068945	1.558549
0.069043	1.570530
0.069141	1.563186
0.069238	1.561771
0.069336	1.551797
0.069434	1.549629
0.069531	1.547461
0.069629	1.535395
0.069727	1.544230
0.069824	1.548629
0.069922	1.571056
0.070020	1.578405
0.070117	1.555815
0.070215	1.563066
0.070312	1.561560
0.070410	1.560184
0.070508	1.550302
0.070605	1.532792
0.070703	1.515277
0.070801	1.494813
0.070898	1.462950
0.070996	1.447269
0.071094	1.454224
0.071191	1.431899
0.071289	1.403060
0.071387	1.403908
0.071484	1.419401
0.071582	1.454436
0.071680	1.464618
0.071777	1.481089
0.071875	1.520648
0.071973	1.499039
0.072070	1.494344
0.072168	1.509366
0.072266	1.525248
0.072363	1.526043
0.072461	1.483124
0.072559	1.432778
0.072656	1.436069
0.072754	1.451497
0.072852	1.542609
0.072949	1.573938
0.073047	1.558108
0.073145	1.555118
0.073242	1.539816
0.073340	1.527058
0.073437	1.511922
0.073535	1.505889
0.073633	1.524079
0.073730	1.541717
0.073828	1.545953
0.073926	1.527977
0.074023	1.509715
0.074121	1.490964
0.074219	1.504234
0.074316	1.527626
0.074414	1.532944
0.074512	1.515916
0.074609	1.489304
0.074707	1.483792
0.074805	1.504919
0.074902	1.518610
0.075000	1.528728
0.075098	1.563587
0.075195	1.589579
0.075293	1.592162
0.075391	1.588941
0.075488	1.582720
0.075586	1.576713
0.075684	1.580094
0.075781	1.573240
0.075879	1.594971
0.075977	1.595508
0.076074	1.592223
0.076172	1.572396
0.076270	1.556899
0.076367	1.544227
0.076465	1.544681
0.076562	1.554248
0.076660	1.572107
0.076758	1.596171
0.076855	1.615648
0.076953	1.629847
0.077051	1.628898
0.077148	1.642184
0.077246	1.646811
0.077344	1.636963
0.077441	1.640084
0.077539	1.633452
0.077637	1.648742
0.077734	1.667627
0.077832	1.664714
0.077930	1.655750
0.078027	1.663452
0.078125	1.665210
0.078223	1.672086
0.078320	1.679216
0.078418	1.674377
0.078516	1.671541
0.078613	1.668905
0.078711	1.652276
0.078809	1.617284
0.078906	1.599445
0.079004	1.600349
0.079102	1.625971
0.079199	1.637798
0.079297	1.622101
0.079395	1.615480
0.079492	1.608690
0.079590	1.589180
0.079687	1.585756
0.079785	1.589482
0.079883	1.592821
0.079980	1.600266
0.080078	1.584712
0.080176	1.590132
0.080273	1.601092
0.080371	1.615351
0.080469	1.606963
0.080566	1.589023
0.080664	1.598838
0.080762	1.609054
0.080859	1.601475
0.080957	1.611105
0.081055	1.619741
0.081152	1.631002
0.081250	1.646397
0.081348	1.639197
0.081445	1.633245
0.081543	1.628998
0.081641	1.623308
0.081738	1.611173
0.081836	1.630108
0.081934	1.635232
0.082031	1.587721
0.082129	1.553873
0.082227	1.573550
0.082324	1.581748
0.082422	1.604196
0.082520	1.594800
0.082617	1.560532
0.082715	1.589949
0.082812	1.588344
0.082910	1.578744
0.083008	1.574326
0.083105	1.596056
0.083203	1.592530
0.083301	1.545776
0.083398	1.515347
0.083496	1.520901
0.083594	1.561876
0.083691	1.590781
0.083789	1.594848
0.083887	1.559840
0.083984	1.567780
0.084082	1.576792
0.084180	1.562015
0.084277	1.566179
0.084375	1.596758
0.084473	1.614102
0.084570	1.625212
0.084668	1.635443
0.084766	1.638537
0.084863	1.646435
0.084961	1.654392
0.085059	1.656499
0.085156	1.662442
0.085254	1.669749
0.085352	1.674935
0.085449	1.678666
0.085547	1.646611
0.085645	1.629612
0.085742	1.657454
0.085840	1.669006
0.085937	1.670232
0.086035	1.668813
0.086133	1.660304
0.086230	1.661615
0.086328	1.658924
0.086426	1.653254
0.086523	1.650513
0.086621	1.648850
0.086719	1.648068
0.086816	1.647284
0.086914	1.647007
0.087012	1.646149
0.087109	1.645970
0.087207	1.645290
0.087305	1.645470
0.087402	1.645095
0.087500	1.646327
0.087598	1.646408
0.087695	1.644396
0.087793	1.648137
0.087891	1.653331
0.087988	1.640523
0.088086	1.651391
0.088184	1.668990
0.088281	1.662782
0.088379	1.666365
0.088477	1.648370
0.088574	1.656894
0.088672	1.690391
0.088770	1.685597
0.088867	1.682014
0.088965	1.676320
0.089062	1.686638
0.089160	1.690709
0.089258	1.685946
0.089355	1.670467
0.089453	1.636626
0.089551	1.620051
0.089648	1.625767
0.089746	1.631292
0.089844	1.596148
0.089941	1.585596
0.090039	1.596442
0.090137	1.561108
0.090234	1.560237
0.090332	1.579915
0.090430	1.566944
0.090527	1.554304
0.090625	1.575389
0.090723	1.606389
0.090820	1.613088
0.090918	1.601030
0.091016	1.627063
0.091113	1.638296
0.091211	1.627974
0.091309	1.628367
0.091406	1.608784
0.091504	1.595337
0.091602	1.576726
0.091699	1.570920
0.091797	1.551579
0.091895	1.540620
0.091992	1.539276
0.092090	1.580699
0.092187	1.580324
0.092285	1.575618
0.092383	1.556109
0.092480	1.559533
0.092578	1.588303
0.092676	1.579951
0.092773	1.578450
0.092871	1.568200
0.092969	1.539588
0.093066	1.541904
0.093164	1.536273
0.093262	1.543389
0.093359	1.560734
0.093457	1.557498
0.093555	1.557211
0.093652	1.557057
0.093750	1.547220
0.093848	1.520127
0.093945	1.506667
0.094043	1.493012
0.094141	1.469391
0.094238	1.439733
0.094336	1.417532
0.094434	1.386600
0.094531	1.373910
0.094629	1.373536
0.094727	1.359117
0.094824	1.322532
0.094922	1.318799
0.095020	1.361295
0.095117	1.376322
0.095215	1.351979
0.095312	1.310911
0.095410	1.298153
0.095508	1.354673
0.095605	1.428684
0.095703	1.410616
0.095801	1.455457
0.095898	1.547998
0.095996	1.562276
0.096094	1.512496
0.096191	1.491573
0.096289	1.472466
0.096387	1.462919
0.096484	1.470044
0.096582	1.458776
0.096680	1.475807
0.096777	1.445989
0.096875	1.446826
0.096973	1.381072
0.097070	1.345990
0.097168	1.458559
0.097266	1.510408
0.097363	1.486425
0.097461	1.450222
0.097559	1.414489
0.097656	1.486054
0.097754	1.511778
0.097852	1.486812
0.097949	1.425814
0.098047	1.421817
0.098145	1.433112
0.098242	1.419596
0.098340	1.432618
0.098437	1.428541
0.098535	1.419373
0.098633	1.396189
0.098730	1.368059
0.098828	1.333174
0.098926	1.320043
0.099023	1.314726
0.099121	1.370422
0.099219	1.502101
0.099316	1.470792
0.099414	1.423352
0.099512	1.413728
0.099609	1.379360
0.099707	1.474620
0.099805	1.493732
0.099902	1.428593
0.100000	1.396473
0.100098	1.434198
0.100195	1.468380
0.100293	1.441534
0.100391	1.467805
0.100488	1.505101
0.100586	1.554687
0.100684	1.599846
0.100781	1.558640
0.100879	1.516764
0.100977	1.568760
0.101074	1.619049
0.101172	1.595818
0.101270	1.616530
0.101367	1.619669
0.101465	1.597970
0.101562	1.571190
0.101660	1.559610
0.101758	1.527491
0.101855	1.508231
0.101953	1.473333
0.102051	1.439570
0.102148	1.476489
0.102246	1.548180
0.102344	1.603299
0.102441	1.620266
0.102539	1.608849
0.102637	1.583963
0.102734	1.580525
0.102832	1.596623
0.102930	1.613725
0.103027	1.617061
0.103125	1.622191
0.103223	1.623035
0.103320	1.627607
0.103418	1.627825
0.103516	1.633725
0.103613	1.633302
0.103711	1.646100
0.103809	1.633905
0.103906	1.636037
0.104004	1.649272
0.104102	1.647669
0.104199	1.655827
0.104297	1.648936
0.104395	1.646213
0.104492	1.650029
0.104590	1.645225
0.104687	1.627363
0.104785	1.639900
0.104883	1.661705
0.104980	1.650150
0.105078	1.658104
0.105176	1.647564
0.105273	1.617543
0.105371	1.599994
0.105469	1.608443
0.105566	1.583553
0.105664	1.605898
0.105762	1.611430
0.105859	1.553432
0.105957	1.526263
0.106055	1.494711
0.106152	1.489671
0.106250	1.535737
0.106348	1.574555
0.106445	1.605791
0.106543	1.632688
0.106641	1.625903
0.106738	1.602920
0.106836	1.565286
0.106934	1.572054
0.107031	1.586633
0.107129	1.588976
0.107227	1.617331
0.107324	1.660838
0.107422	1.654544
0.107520	1.651028
0.107617	1.669859
0.107715	1.675685
0.107812	1.681080
0.107910	1.668331
0.108008	1.682824
0.108105	1.686731
0.108203	1.688813
0.108301	1.693836
0.108398	1.715827
0.108496	1.714871
0.108594	1.689671
0.108691	1.665568
0.108789	1.640238
0.108887	1.634263
0.108984	1.629899
0.109082	1.631754
0.109180	1.623565
0.109277	1.615322
0.109375	1.586850
0.109473	1.592012
0.109570	1.626193
0.109668	1.627053
0.109766	1.632051
0.109863	1.659358
0.109961	1.671900
0.110059	1.661047
0.110156	1.646148
0.110254	1.638532
0.110352	1.631481
0.110449	1.638805
0.110547	1.649117
0.110645	1.640960
0.110742	1.659114
0.110840	1.643900
0.110937	1.639867
0.111035	1.634050
0.111133	1.625361
0.111230	1.604044
0.111328	1.621591
0.111426	1.648960
0.111523	1.644673
0.111621	1.649516
0.111719	1.626126
0.111816	1.630524
0.111914	1.629045
0.112012	1.645092
0.112109	1.665213
0.112207	1.664193
0.112305	1.636243
0.112402	1.598933
0.112500	1.581113
0.112598	1.567423
0.112695	1.546132
0.112793	1.562324
0.112891	1.585065
0.112988	1.598520
0.113086	1.598028
0.113184	1.564267
0.113281	1.555789
0.113379	1.529517
0.113477	1.503294
0.113574	1.538276
0.113672	1.578863
0.113770	1.613610
0.113867	1.615261
0.113965	1.617123
0.114062	1.620695
0.114160	1.621201
0.114258	1.622650
0.114355	1.622741
0.114453	1.623352
0.114551	1.623000
0.114648	1.622918
0.114746	1.622719
0.114844	1.623046
0.114941	1.624251
0.115039	1.624588
0.115137	1.624797
0.115234	1.623776
0.115332	1.623730
0.115430	1.623404
0.115527	1.624621
0.115625	1.626566
0.115723	1.632607
0.115820	1.638139
0.115918	1.641420
0.116016	1.640632
0.116113	1.642948
0.116211	1.636845
0.116309	1.645769
0.116406	1.635082
0.116504	1.640584
0.116602	1.590041
0.116699	1.589429
0.116797	1.599061
0.116895	1.610770
0.116992	1.639793
0.117090	1.634950
0.117187	1.642781
0.117285	1.640006
0.117383	1.645489
0.117480	1.645256
0.117578	1.650320
0.117676	1.651379
0.117773	1.655608
0.117871	1.656874
0.117969	1.659768
0.118066	1.660338
0.118164	1.661672
0.118262	1.660897
0.118359	1.660521
0.118457	1.659767
0.118555	1.661628
0.118652	1.665467
0.118750	1.667227
0.118848	1.661021
0.118945	1.644177
0.119043	1.656714
0.119141	1.628243
0.119238	1.627373
0.119336	1.609381
0.119434	1.594441
0.119531	1.590091
0.119629	1.587876
0.119727	1.576628
0.119824	1.573721
0.119922	1.584657
0.120020	1.596648
0.120117	1.605909
0.120215	1.577086
0.120312	1.591348
0.120410	1.593356
0.120508	1.605450
0.120605	1.615964
0.120703	1.647275
0.120801	1.662321
0.120898	1.667783
0.120996	1.672455
0.121094	1.687981
0.121191	1.680117
0.121289	1.674387
0.121387	1.689549
0.121484	1.669203
0.121582	1.663521
0.121680	1.663765
0.121777	1.671576
0.121875	1.684113
0.121973	1.689318
0.122070	1.678815
0.122168	1.648349
0.122266	1.648459
0.122363	1.648459
0.122461	1.641230
0.122559	1.651673
0.122656	1.650008
0.122754	1.644861
0.122852	1.641665
0.122949	1.651502
0.123047	1.654233
0.123145	1.640356
0.123242	1.626959
0.123340	1.615030
0.123437	1.642429
0.123535	1.658868
0.123633	1.630992
0.123730	1.644061
0.123828	1.622551
0.123926	1.581646
0.124023	1.553188
0.124121	1.539264
0.124219	1.529515
0.124316	1.519056
0.124414	1.515752
0.124512	1.517439
0.124609	1.493620
0.124707	1.479572
0.124805	1.494426
0.124902	1.506231
0.125000	1.498719
0.125098	1.502597
0.125195	1.490517
0.125293	1.487056
0.125391	1.501963
0.125488	1.509192
0.125586	1.486609
0.125684	1.462823
0.125781	1.455002
0.125879	1.479201
0.125977	1.488671
0.126074	1.479877
0.126172	1.467989
0.126270	1.461217
0.126367	1.458399
0.126465	1.458850
0.126562	1.454938
0.126660	1.457670
0.126758	1.473442
0.126855	1.499967
0.126953	1.509008
0.127051	1.540429
0.127148	1.566115
0.127246	1.583538
0.127344	1.612219
0.127441	1.646640
0.127539	1.614669
0.127637	1.622545
0.127734	1.646592
0.127832	1.633280
0.127930	1.612726
0.128027	1.609678
0.128125	1.613393
0.128223	1.603182
0.128320	1.613228
0.128418	1.622684
0.128516	1.611427
0.128613	1.596499
0.128711	1.591290
0.128809	1.598239
0.128906	1.605979
0.129004	1.623314
0.129102	1.631123
0.129199	1.643150
0.129297	1.650706
0.129395	1.665395
0.129492	1.659225
0.129590	1.648644
0.129687	1.657645
0.129785	1.657367
0.129883	1.643271
0.129980	1.664033
0.130078	1.681696
0.130176	1.633774
0.130273	1.617404
0.130371	1.626938
0.130469	1.666643
0.130566	1.679162
0.130664	1.676769
0.130762	1.670396
0.130859	1.668743
0.130957	1.675733
0.131055	1.695184
0.131152	1.690316
0.131250	1.678930
0.131348	1.676158
0.131445	1.674501
0.131543	1.674278
0.131641	1.673410
0.131738	1.673455
0.131836	1.673178
0.131934	1.673487
0.132031	1.673141
0.132129	1.673111
0.132227	1.671961
0.132324	1.671358
0.132422	1.670022
0.132520	1.671617
0.132617	1.670133
0.132715	1.672406
0.132812	1.675501
0.132910	1.693157
0.133008	1.719269
0.133105	1.704917
0.133203	1.682374
0.133301	1.679766
0.133398	1.668334
0.133496	1.653629
0.133594	1.642213
0.133691	1.660199
0.133789	1.668662
0.133887	1.670591
0.133984	1.674629
0.134082	1.667098
0.134180	1.638778
0.134277	1.614269
0.134375	1.608201
0.134473	1.625480
0.134570	1.616315
0.134668	1.607116
0.134766	1.590673
0.134863	1.577177
0.134961	1.590304
0.135059	1.578937
0.135156	1.540410
0.135254	1.592943
0.135352	1.606950
0.135449	1.590496
0.135547	1.596433
0.135645	1.591411
0.135742	1.568526
0.135840	1.546515
0.135937	1.549808
0.136035	1.575538
0.136133	1.581920
0.136230	1.575898
0.136328	1.577261
0.136426	1.589861
0.136523	1.612089
0.136621	1.648288
0.136719	1.669044
0.136816	1.693855
0.136914	1.654558
0.137012	1.650283
0.137109	1.669353
0.137207	1.669660
0.137305	1.679305
0.137402	1.680359
0.137500	1.685832
0.137598	1.689982
0.137695	1.686475
0.137793	1.678474
0.137891	1.657338
0.137988	1.640829
0.138086	1.637526
0.138184	1.637231
0.138281	1.637883
0.138379	1.637700
0.138477	1.638566
0.138574	1.640015
0.138672	1.641013
0.138770	1.641905
0.138867	1.642804
0.138965	1.643200
0.139062	1.643413
0.139160	1.643251
0.139258	1.643147
0.139355	1.644198
0.139453	1.645072
0.139551	1.646191
0.139648	1.647600
0.139746	1.648691
0.139844	1.649364
0.139941	1.649753
0.140039	1.649896
0.140137	1.649500
0.140234	1.645061
0.140332	1.628331
0.140430	1.609710
0.140527	1.621013
0.140625	1.640851
0.140723	1.626536
0.140820	1.627560
0.140918	1.628890
0.141016	1.627382
0.141113	1.649866
0.141211	1.666451
0.141309	1.667037
0.141406	1.671664
0.141504	1.671018
0.141602	1.677272
0.141699	1.664360
0.141797	1.647770
0.141895	1.656704
0.141992	1.645275
0.142090	1.630136
0.142187	1.631721
0.142285	1.644755
0.142383	1.634042
0.142480	1.629415
0.142578	1.644333
0.142676	1.641974
0.142773	1.627804
0.142871	1.606862
0.142969	1.605319
0.143066	1.604345
0.143164	1.580619
0.143262	1.568322
0.143359	1.588061
0.143457	1.616167
0.143555	1.617927
0.143652	1.599418
0.143750	1.599194
0.143848	1.591243
0.143945	1.605474
0.144043	1.599254
0.144141	1.609492
0.144238	1.578938
0.144336	1.547254
0.144434	1.549738
0.144531	1.530237
0.144629	1.516696
0.144727	1.505475
0.144824	1.508169
0.144922	1.507353
0.145020	1.493901
0.145117	1.508211
0.145215	1.512273
0.145312	1.534494
0.145410	1.580429
0.145508	1.598109
0.145605	1.622938
0.145703	1.630977
0.145801	1.638279
0.145898	1.643025
0.145996	1.650231
0.146094	1.660059
0.146191	1.653631
0.146289	1.636658
0.146387	1.607640
0.146484	1.574312
0.146582	1.559950
0.146680	1.562727
0.146777	1.549806
0.146875	1.571764
0.146973	1.583731
0.147070	1.582586
0.147168	1.595175
0.147266	1.600236
0.147363	1.568501
0.147461	1.550648
0.147559	1.537242
0.147656	1.594654
0.147754	1.623493
0.147852	1.642499
0.147949	1.622495
0.148047	1.603398
0.148145	1.608756
0.148242	1.559990
0.148340	1.543933
0.148437	1.566020
0.148535	1.543004
0.148633	1.539914
0.148730	1.554666
0.148828	1.599214
0.148926	1.654704
0.149023	1.648957
0.149121	1.651435
0.149219	1.649514
0.149316	1.641974
0.149414	1.637879
0.149512	1.636386
0.149609	1.633805
0.149707	1.633570
0.149805	1.632290
0.149902	1.633168
0.150000	1.632813
0.150098	1.634875
0.150195	1.635390
0.150293	1.638972
0.150391	1.639409
0.150488	1.644140
0.150586	1.645445
0.150684	1.652757
0.150781	1.642827
0.150879	1.619765
0.150977	1.602354
0.151074	1.639019
0.151172	1.655475
0.151270	1.657246
0.151367	1.676607
0.151465	1.674050
0.151562	1.670465
0.151660	1.671580
0.151758	1.685658
0.151855	1.688621
0.151953	1.680135
0.152051	1.668020
0.152148	1.657497
0.152246	1.664455
0.152344	1.647653
0.152441	1.631996
0.152539	1.641869
0.152637	1.628313
0.152734	1.569273
0.152832	1.503640
0.152930	1.533856
0.153027	1.578696
0.153125	1.593895
0.153223	1.617008
0.153320	1.610733
0.153418	1.606495
0.153516	1.623959
0.153613	1.645830
0.153711	1.649171
0.153809	1.640682
0.153906	1.622146
0.154004	1.682530
0.154102	1.676610
0.154199	1.682412
0.154297	1.675793
0.154395	1.671574
0.154492	1.660427
0.154590	1.653708
0.154687	1.635972
0.154785	1.634728
0.154883	1.662845
0.154980	1.654881
0.155078	1.653393
0.155176	1.677738
0.155273	1.702287
0.155371	1.708488
0.155469	1.697375
0.155566	1.690948
0.155664	1.702049
0.155762	1.701514
0.155859	1.700444
0.155957	1.697653
0.156055	1.689810
0.156152	1.679708
0.156250	1.680954
0.156348	1.668133
0.156445	1.624855
0.156543	1.592480
0.156641	1.576787
0.156738	1.581480
0.156836	1.632334
0.156934	1.621196
0.157031	1.613009
0.157129	1.617526
0.157227	1.642864
0.157324	1.611989
0.157422	1.593716
0.157520	1.609014
0.157617	1.588756
0.157715	1.571509
0.157812	1.594644
0.157910	1.584787
0.158008	1.606344
0.158105	1.599977
0.158203	1.605652
0.158301	1.664150
0.158398	1.657103
0.158496	1.654384
0.158594	1.654377
0.158691	1.657429
0.158789	1.655374
0.158887	1.664957
0.158984	1.660956
0.159082	1.665429
0.159180	1.676159
0.159277	1.681531
0.159375	1.682957
0.159473	1.676706
0.159570	1.668554
0.159668	1.662545
0.159766	1.670806
0.159863	1.682894
0.159961	1.689172
0.160059	1.694339
0.160156	1.686162
0.160254	1.682147
0.160352	1.675386
0.160449	1.668485
0.160547	1.665084
0.160645	1.666428
0.160742	1.666285
0.160840	1.665402
0.160937	1.661533
0.161035	1.656400
0.161133	1.653303
0.161230	1.650657
0.161328	1.648068
0.161426	1.646699
0.161523	1.643107
0.161621	1.639346
0.161719	1.631350
0.161816	1.628358
0.161914	1.617742
0.162012	1.623253
0.162109	1.630000
0.162207	1.633483
0.162305	1.606706
0.162402	1.599763
0.162500	1.592193
0.162598	1.586490
0.162695	1.610139
0.162793	1.605709
0.162891	1.621627
0.162988	1.616423
0.163086	1.601359
0.163184	1.600844
0.163281	1.605156
0.163379	1.587680
0.163477	1.585833
0.163574	1.579294
0.163672	1.583885
0.163770	1.581113
0.163867	1.586865
0.163965	1.582450
0.164062	1.570259
0.164160	1.553523
0.164258	1.545374
0.164355	1.547250
0.164453	1.553068
0.164551	1.563884
0.164648	1.560843
0.164746	1.552371
0.164844	1.545972
0.164941	1.554484
0.165039	1.556337
0.165137	1.544242
0.165234	1.518446
0.165332	1.502012
0.165430	1.494016
0.165527	1.528774
0.165625	1.546249
0.165723	1.584991
0.165820	1.618104
0.165918	1.645621
0.166016	1.653612
0.166113	1.649934
0.166211	1.639860
0.166309	1.618921
0.166406	1.582414
0.166504	1.558581
0.166602	1.602616
0.166699	1.627206
0.166797	1.630324
0.166895	1.640076
0.166992	1.649463
0.167090	1.659602
0.167187	1.663753
0.167285	1.665751
0.167383	1.667270
0.167480	1.661411
0.167578	1.668556
0.167676	1.680733
0.167773	1.679718
0.167871	1.680768
0.167969	1.676926
0.168066	1.665517
0.168164	1.664058
0.168262	1.666395
0.168359	1.627069
0.168457	1.629463
0.168555	1.612571
0.168652	1.600595
0.168750	1.617639
0.168848	1.640370
0.168945	1.635079
0.169043	1.627441
0.169141	1.614567
0.169238	1.611978
0.169336	1.623823
0.169434	1.630954
0.169531	1.616137
0.169629	1.612396
0.169727	1.623056
0.169824	1.633340
0.169922	1.660172
0.170020	1.657908
0.170117	1.654326
0.170215	1.639282
0.170312	1.613934
0.170410	1.582887
0.170508	1.577396
0.170605	1.569548
0.170703	1.597911
0.170801	1.606059
0.170898	1.601380
0.170996	1.616131
0.171094	1.605128
0.171191	1.588787
0.171289	1.603749
0.171387	1.611180
0.171484	1.611335
0.171582	1.613498
0.171680	1.616814
0.171777	1.619383
0.171875	1.622090
0.171973	1.624304
0.172070	1.626787
0.172168	1.629133
0.172266	1.631431
0.172363	1.633607
0.172461	1.635946
0.172559	1.637997
0.172656	1.640348
0.172754	1.642905
0.172852	1.646001
0.172949	1.649632
0.173047	1.652806
0.173145	1.651031
0.173242	1.639794
0.173340	1.633176
0.173437	1.644574
0.173535	1.638550
0.173633	1.653916
0.173730	1.660153
0.173828	1.652247
0.173926	1.648886
0.174023	1.645735
0.174121	1.639254
0.174219	1.641021
0.174316	1.634273
0.174414	1.607437
0.174512	1.595287
0.174609	1.576946
0.174707	1.615854
0.174805	1.639691
0.174902	1.627801
0.175000	1.652907
0.175098	1.660413
0.175195	1.656803
0.175293	1.639084
0.175391	1.604741
0.175488	1.609236
0.175586	1.614995
0.175684	1.629738
0.175781	1.635677
0.175879	1.649543
0.175977	1.639553
0.176074	1.621318
0.176172	1.624195
0.176270	1.631979
0.176367	1.646153
0.176465	1.657501
0.176562	1.639861
0.176660	1.629555
0.176758	1.633690
0.176855	1.643734
0.176953	1.624299
0.177051	1.592863
0.177148	1.584930
0.177246	1.586286
0.177344	1.606384
0.177441	1.608473
0.177539	1.589654
0.177637	1.594891
0.177734	1.589091
0.177832	1.608022
0.177930	1.635071
0.178027	1.634190
0.178125	1.608775
0.178223	1.588804
0.178320	1.583435
0.178418	1.578255
0.178516	1.561454
0.178613	1.551672
0.178711	1.555904
0.178809	1.579557
0.178906	1.621052
0.179004	1.609953
0.179102	1.593673
0.179199	1.586303
0.179297	1.580058
0.179395	1.577339
0.179492	1.590795
0.179590	1.640680
0.179687	1.660365
0.179785	1.671912
0.179883	1.677183
0.179980	1.661583
0.180078	1.653254
0.180176	1.632243
0.180273	1.634607
0.180371	1.635304
0.180469	1.628087
0.180566	1.617211
0.180664	1.614527
0.180762	1.591957
0.180859	1.602254
0.180957	1.613514
0.181055	1.595791
0.181152	1.589242
0.181250	1.572847
0.181348	1.552034
0.181445	1.552491
0.181543	1.548756
0.181641	1.540128
0.181738	1.543843
0.181836	1.551182
0.181934	1.584218
0.182031	1.612658
0.182129	1.603298
0.182227	1.593181
0.182324	1.591159
0.182422	1.582265
0.182520	1.574322
0.182617	1.537700
0.182715	1.542080
0.182812	1.524431
0.182910	1.547812
0.183008	1.539040
0.183105	1.525005
0.183203	1.572724
0.183301	1.537102
0.183398	1.535044
0.183496	1.596838
0.183594	1.575557
0.183691	1.579604
0.183789	1.607151
0.183887	1.579363
0.183984	1.582190
0.184082	1.583450
0.184180	1.590495
0.184277	1.608165
0.184375	1.627750
0.184473	1.614701
0.184570	1.589455
0.184668	1.566915
0.184766	1.552291
0.184863	1.519562
0.184961	1.485149
0.185059	1.542022
0.185156	1.590623
0.185254	1.594851
0.185352	1.614508
0.185449	1.594335
0.185547	1.586467
0.185645	1.583596
0.185742	1.581277
0.185840	1.568908
0.185937	1.563210
0.186035	1.560066
0.186133	1.540661
0.186230	1.523534
0.186328	1.506667
0.186426	1.489198
0.186523	1.469912
0.186621	1.462610
0.186719	1.497668
0.186816	1.511609
0.186914	1.517003
0.187012	1.517570
0.187109	1.514668
0.187207	1.534699
0.187305	1.545413
0.187402	1.511876
0.187500	1.472075
0.187598	1.529381
0.187695	1.578945
0.187793	1.594611
0.187891	1.593519
0.187988	1.570359
0.188086	1.558008
0.188184	1.552798
0.188281	1.560907
0.188379	1.579029
0.188477	1.614021
0.188574	1.621575
0.188672	1.613170
0.188770	1.619254
0.188867	1.641198
0.188965	1.630047
0.189062	1.571961
0.189160	1.581325
0.189258	1.559299
0.189355	1.567965
0.189453	1.570248
0.189551	1.583114
0.189648	1.561453
0.189746	1.558768
0.189844	1.541949
0.189941	1.564090
0.190039	1.566973
0.190137	1.526635
0.190234	1.553196
0.190332	1.571258
0.190430	1.584910
0.190527	1.585524
0.190625	1.603773
0.190723	1.599847
0.190820	1.591715
0.190918	1.606527
0.191016	1.612287
0.191113	1.631019
0.191211	1.637801
0.191309	1.633689
0.191406	1.642582
0.191504	1.642020
0.191602	1.642297
0.191699	1.638927
0.191797	1.624485
0.191895	1.618993
0.191992	1.632890
0.192090	1.637995
0.192187	1.637150
0.192285	1.645777
0.192383	1.647083
0.192480	1.636229
0.192578	1.637717
0.192676	1.628081
0.192773	1.627237
0.192871	1.633763
0.192969	1.623969
0.193066	1.607774
0.193164	1.605763
0.193262	1.598136
0.193359	1.571820
0.193457	1.553840
0.193555	1.597140
0.193652	1.589494
0.193750	1.615421
0.193848	1.646272
0.193945	1.700476
0.194043	1.714078
0.194141	1.692114
0.194238	1.688672
0.194336	1.668881
0.194434	1.644829
0.194531	1.638617
0.194629	1.658137
0.194727	1.643880
0.194824	1.620352
0.194922	1.653444
0.195020	1.664186
0.195117	1.658552
0.195215	1.625720
0.195312	1.596643
0.195410	1.642767
0.195508	1.623967
0.195605	1.607386
0.195703	1.590667
0.195801	1.605209
0.195898	1.605452
0.195996	1.628053
0.196094	1.658405
0.196191	1.628054
0.196289	1.612002
0.196387	1.616217
0.196484	1.648211
0.196582	1.646104
0.196680	1.634133
0.196777	1.619194
0.196875	1.585315
0.196973	1.598894
0.197070	1.586192
0.197168	1.619435
0.197266	1.590221
0.197363	1.554341
0.197461	1.541436
0.197559	1.569336
0.197656	1.559860
0.197754	1.563479
0.197852	1.557113
0.197949	1.558809
0.198047	1.592123
0.198145	1.587487
0.198242	1.591223
0.198340	1.596362
0.198437	1.576333
0.198535	1.523263
0.198633	1.480726
0.198730	1.461781
0.198828	1.471431
0.198926	1.535890
0.199023	1.533879
0.199121	1.536284
0.199219	1.528187
0.199316	1.526395
0.199414	1.643333
0.199512	1.631262
0.199609	1.600323
0.199707	1.607734
0.199805	1.646959
0.199902	1.636087
0.200000	1.634900
0.200098	1.630864
0.200195	1.627756
0.200293	1.621980
0.200391	1.645629
0.200488	1.641167
0.200586	1.640517
0.200684	1.644837
0.200781	1.670832
0.200879	1.675051
0.200977	1.667882
0.201074	1.659628
0.201172	1.630525
0.201270	1.611392
0.201367	1.576337
0.201465	1.507466
0.201562	1.433254
0.201660	1.423726
0.201758	1.448401
0.201855	1.450883
0.201953	1.449924
0.202051	1.494953
0.202148	1.539239
0.202246	1.562645
0.202344	1.588354
0.202441	1.641078
0.202539	1.652606
0.202637	1.643237
0.202734	1.628947
0.202832	1.607233
0.202930	1.643826
0.203027	1.648817
0.203125	1.644677
0.203223	1.664087
0.203320	1.666509
0.203418	1.669662
0.203516	1.668331
0.203613	1.652244
0.203711	1.614502
0.203809	1.581695
0.203906	1.557518
0.204004	1.559807
0.204102	1.563782
0.204199	1.560677
0.204297	1.593643
0.204395	1.601851
0.204492	1.609395
0.204590	1.617894
0.204687	1.599224
0.204785	1.586722
0.204883	1.572268
0.204980	1.584335
0.205078	1.584356
0.205176	1.596682
0.205273	1.624668
0.205371	1.606071
0.205469	1.577899
0.205566	1.585712
0.205664	1.602097
0.205762	1.612488
0.205859	1.624461
0.205957	1.625291
0.206055	1.667168
0.206152	1.702129
0.206250	1.706184
0.206348	1.677007
0.206445	1.648363
0.206543	1.638094
0.206641	1.668579
0.206738	1.664299
0.206836	1.628303
0.206934	1.610085
0.207031	1.615806
0.207129	1.632638
0.207227	1.643141
0.207324	1.648435
0.207422	1.638172
0.207520	1.630715
0.207617	1.642894
0.207715	1.653903
0.207812	1.634884
0.207910	1.634515
0.208008	1.655266
0.208105	1.649931
0.208203	1.640382
0.208301	1.631051
0.208398	1.627909
0.208496	1.638331
0.208594	1.655869
0.208691	1.670136
0.208789	1.639616
0.208887	1.642980
0.208984	1.604106
0.209082	1.591093
0.209180	1.553962
0.209277	1.501100
0.209375	1.533335
0.209473	1.582567
0.209570	1.603373
0.209668	1.616286
0.209766	1.659674
0.209863	1.640658
0.209961	1.616857
0.210059	1.667993
0.210156	1.671588
0.210254	1.638820
0.210352	1.589348
0.210449	1.566518
0.210547	1.604200
0.210645	1.625167
0.210742	1.616396
0.210840	1.626574
0.210937	1.625117
0.211035	1.624984
0.211133	1.634432
0.211230	1.652445
0.211328	1.673777
0.211426	1.686486
0.211523	1.658529
0.211621	1.608595
0.211719	1.620922
0.211816	1.702490
0.211914	1.711354
0.212012	1.705705
0.212109	1.698022
0.212207	1.688870
0.212305	1.704492
0.212402	1.692215
0.212500	1.656326
0.212598	1.652545
0.212695	1.656955
0.212793	1.662687
0.212891	1.668042
0.212988	1.658290
0.213086	1.654395
0.213184	1.657957
0.213281	1.647678
0.213379	1.638724
0.213477	1.620374
0.213574	1.601554
0.213672	1.585515
0.213770	1.600033
0.213867	1.613504
0.213965	1.618024
0.214062	1.620777
0.214160	1.624496
0.214258	1.625457
0.214355	1.616062
0.214453	1.596743
0.214551	1.590929
0.214648	1.595148
0.214746	1.591907
0.214844	1.585927
0.214941	1.602331
0.215039	1.629370
0.215137	1.619640
0.215234	1.608542
0.215332	1.597032
0.215430	1.579209
0.215527	1.583377
0.215625	1.576337
0.215723	1.561086
0.215820	1.541706
0.215918	1.524860
0.216016	1.520862
0.216113	1.515215
0.216211	1.548352
0.216309	1.589063
0.216406	1.621281
0.216504	1.623577
0.216602	1.584394
0.216699	1.549039
0.216797	1.505788
0.216895	1.476898
0.216992	1.470105
0.217090	1.489986
0.217187	1.513322
0.217285	1.520156
0.217383	1.537725
0.217480	1.552750
0.217578	1.537645
0.217676	1.542353
0.217773	1.565666
0.217871	1.553380
0.217969	1.573977
0.218066	1.590053
0.218164	1.598192
0.218262	1.584232
0.218359	1.597494
0.218457	1.600901
0.218555	1.575760
0.218652	1.540014
0.218750	1.565524
0.218848	1.583766
0.218945	1.602637
0.219043	1.590858
0.219141	1.596007
0.219238	1.598280
0.219336	1.594642
0.219434	1.596192
0.219531	1.594493
0.219629	1.622023
0.219727	1.628226
0.219824	1.627702
0.219922	1.610618
0.220020	1.608832
0.220117	1.590133
0.220215	1.595860
0.220312	1.597006
0.220410	1.616742
0.220508	1.622491
0.220605	1.644868
0.220703	1.642666
0.220801	1.631377
0.220898	1.619297
0.220996	1.621221
0.221094	1.638134
0.221191	1.677545
0.221289	1.694968
0.221387	1.673467
0.221484	1.656919
0.221582	1.661454
0.221680	1.644394
0.221777	1.636872
0.221875	1.623516
0.221973	1.619847
0.222070	1.623171
0.222168	1.608035
0.222266	1.620162
0.222363	1.606579
0.222461	1.618504
0.222559	1.622168
0.222656	1.620017
0.222754	1.626769
0.222852	1.630875
0.222949	1.618316
0.223047	1.611649
0.223145	1.668068
0.223242	1.702721
0.223340	1.704285
0.223437	1.687198
0.223535	1.608564
0.223633	1.614584
0.223730	1.621540
0.223828	1.588390
0.223926	1.562784
0.224023	1.521165
0.224121	1.500538
0.224219	1.517756
0.224316	1.531388
0.224414	1.525672
0.224512	1.547132
0.224609	1.546365
0.224707	1.559684
0.224805	1.577186
0.224902	1.567527
0.225000	1.560749
0.225098	1.561371
0.225195	1.549488
0.225293	1.526507
0.225391	1.542968
0.225488	1.533902
0.225586	1.526784
0.225684	1.570790
0.225781	1.554907
0.225879	1.553967
0.225977	1.528900
0.226074	1.508812
0.226172	1.510783
0.226270	1.529247
0.226367	1.539001
0.226465	1.519279
0.226562	1.503514
0.226660	1.512834
0.226758	1.497090
0.226855	1.473083
0.226953	1.498930
0.227051	1.527800
0.227148	1.531621
0.227246	1.523326
0.227344	1.528493
0.227441	1.540098
0.227539	1.547103
0.227637	1.539500
0.227734	1.529300
0.227832	1.537614
0.227930	1.592000
0.228027	1.619005
0.228125	1.620997
0.228223	1.635470
0.228320	1.632807
0.228418	1.640539
0.228516	1.647684
0.228613	1.661309
0.228711	1.678706
0.228809	1.660452
0.228906	1.666123
0.229004	1.670462
0.229102	1.671986
0.229199	1.644979
0.229297	1.637177
0.229395	1.633006
0.229492	1.606744
0.229590	1.601813
0.229687	1.596555
0.229785	1.583270
0.229883	1.592291
0.229980	1.579262
0.230078	1.619443
0.230176	1.638660
0.230273	1.636052
0.230371	1.612503
0.230469	1.551898
0.230566	1.574715
0.230664	1.599161
0.230762	1.606792
0.230859	1.613997
0.230957	1.617133
0.231055	1.602026
0.231152	1.604689
0.231250	1.612550
0.231348	1.622661
0.231445	1.640638
0.231543	1.648364
0.231641	1.653929
0.231738	1.650725
0.231836	1.649695
0.231934	1.647811
0.232031	1.649105
0.232129	1.648514
0.232227	1.650931
0.232324	1.652899
0.232422	1.656627
0.232520	1.657879
0.232617	1.661969
0.232715	1.662360
0.232812	1.684121
0.232910	1.685869
0.233008	1.674265
0.233105	1.661731
0.233203	1.677708
0.233301	1.691710
0.233398	1.687214
0.233496	1.689582
0.233594	1.687179
0.233691	1.702302
0.233789	1.703640
0.233887	1.691834
0.233984	1.675971
0.234082	1.668382
0.234180	1.664742
0.234277	1.661082
0.234375	1.657850
0.234473	1.655483
0.234570	1.649805
0.234668	1.637708
0.234766	1.621120
0.234863	1.622442
0.234961	1.626301
0.235059	1.630242
0.235156	1.618530
0.235254	1.611105
0.235352	1.606375
0.235449	1.611753
0.235547	1.608373
0.235645	1.618043
0.235742	1.618484
0.235840	1.616037
0.235937	1.607388
0.236035	1.598705
0.236133	1.595969
0.236230	1.565480
0.236328	1.559932
0.236426	1.591613
0.236523	1.609198
0.236621	1.623271
0.236719	1.633375
0.236816	1.643475
0.236914	1.621224
0.237012	1.609118
0.237109	1.619372
0.237207	1.618431
0.237305	1.592505
0.237402	1.553363
0.237500	1.532460
0.237598	1.542955
0.237695	1.560391
0.237793	1.550345
0.237891	1.545375
0.237988	1.550954
0.238086	1.562920
0.238184	1.583041
0.238281	1.585524
0.238379	1.594039
0.238477	1.592619
0.238574	1.595442
0.238672	1.571772
0.238770	1.566488
0.238867	1.555517
0.238965	1.541138
0.239062	1.545056
0.239160	1.559363
0.239258	1.568682
0.239355	1.584347
0.239453	1.601375
0.239551	1.605932
0.239648	1.608628
0.239746	1.608623
0.239844	1.602147
0.239941	1.592132
0.240039	1.597926
0.240137	1.604599
0.240234	1.589988
0.240332	1.584327
0.240430	1.586927
0.240527	1.579818
0.240625	1.554464
0.240723	1.549529
0.240820	1.536626
0.240918	1.546616
0.241016	1.550704
0.241113	1.542464
0.241211	1.529262
0.241309	1.541522
0.241406	1.559057
0.241504	1.581027
0.241602	1.589405
0.241699	1.609209
0.241797	1.599517
0.241895	1.588974
0.241992	1.604151
0.242090	1.637251
0.242187	1.645865
0.242285	1.640293
0.242383	1.626176
0.242480	1.598719
0.242578	1.595268
0.242676	1.613078
0.242773	1.618530
0.242871	1.608446
0.242969	1.572647
0.243066	1.587888
0.243164	1.600033
0.243262	1.583905
0.243359	1.540429
0.243457	1.509257
0.243555	1.496340
0.243652	1.473848
0.243750	1.456987
0.243848	1.465147
0.243945	1.474328
0.244043	1.481244
0.244141	1.484712
0.244238	1.480844
0.244336	1.471406
0.244434	1.455389
0.244531	1.442756
0.244629	1.446892
0.244727	1.455636
0.244824	1.471580
0.244922	1.490964
0.245020	1.477159
0.245117	1.482379
0.245215	1.472636
0.245312	1.445777
0.245410	1.490656
0.245508	1.558337
0.245605	1.584457
0.245703	1.583293
0.245801	1.597640
0.245898	1.602916
0.245996	1.593906
0.246094	1.605078
0.246191	1.577920
0.246289	1.543713
0.246387	1.531272
0.246484	1.512076
0.246582	1.527471
0.246680	1.543210
0.246777	1.518751
0.246875	1.499981
0.246973	1.491706
0.247070	1.466198
0.247168	1.443600
0.247266	1.452759
0.247363	1.488708
0.247461	1.525868
0.247559	1.558525
0.247656	1.576094
0.247754	1.587912
0.247852	1.596637
0.247949	1.604414
0.248047	1.611381
0.248145	1.622822
0.248242	1.621094
0.248340	1.621050
0.248437	1.630575
0.248535	1.637080
0.248633	1.634085
0.248730	1.628102
0.248828	1.622413
0.248926	1.635904
0.249023	1.644362
0.249121	1.650491
0.249219	1.658086
0.249316	1.665899
0.249414	1.683173
0.249512	1.663535
0.249609	1.648680
0.249707	1.646995
0.249805	1.644682
0.249902	1.653068
0.250000	1.657830
0.250098	1.661125
0.250195	1.676995
0.250293	1.675713
0.250391	1.678756
0.250488	1.667262
0.250586	1.664803
0.250684	1.677292
0.250781	1.659059
0.250879	1.639737
0.250977	1.605279
0.251074	1.620330
0.251172	1.618272
0.251270	1.608494
0.251367	1.628155
0.251465	1.627598
0.251562	1.613127
0.251660	1.617961
0.251758	1.624041
0.251855	1.604813
0.251953	1.622872
0.252051	1.620015
0.252148	1.607933
0.252246	1.591402
0.252344	1.592787
0.252441	1.590990
0.252539	1.586908
0.252637	1.561812
0.252734	1.549423
0.252832	1.551232
0.252930	1.540343
0.253027	1.533599
0.253125	1.536892
0.253223	1.545451
0.253320	1.558635
0.253418	1.574524
0.253516	1.584334
0.253613	1.580823
0.253711	1.594232
0.253809	1.591652
0.253906	1.581900
0.254004	1.573346
0.254102	1.586315
0.254199	1.592014
0.254297	1.619677
0.254395	1.624333
0.254492	1.627140
0.254590	1.621288
0.254687	1.620669
0.254785	1.650145
0.254883	1.636140
0.254980	1.624468
0.255078	1.620498
0.255176	1.627248
0.255273	1.619640
0.255371	1.616157
0.255469	1.612901
0.255566	1.620339
0.255664	1.600308
0.255762	1.562662
0.255859	1.597009
0.255957	1.645450
0.256055	1.668228
0.256152	1.673496
0.256250	1.633888
0.256348	1.619519
0.256445	1.614954
0.256543	1.615125
0.256641	1.627486
0.256738	1.639598
0.256836	1.636384
0.256934	1.590266
0.257031	1.580603
0.257129	1.569265
0.257227	1.554723
0.257324	1.549022
0.257422	1.553616
0.257520	1.556725
0.257617	1.560942
0.257715	1.535425
0.257812	1.537157
0.257910	1.567648
0.258008	1.580967
0.258105	1.592961
0.258203	1.596400
0.258301	1.569361
0.258398	1.567945
0.258496	1.588835
0.258594	1.614215
0.258691	1.616272
0.258789	1.637095
0.258887	1.617367
0.258984	1.609959
0.259082	1.658745
0.259180	1.662350
0.259277	1.664898
0.259375	1.645321
0.259473	1.643279
0.259570	1.640603
0.259668	1.633691
0.259766	1.660094
0.259863	1.657478
0.259961	1.649352
0.260059	1.649946
0.260156	1.656359
0.260254	1.665934
0.260352	1.656550
0.260449	1.653126
0.260547	1.655191
0.260645	1.658514
0.260742	1.667125
0.260840	1.662745
0.260937	1.662873
0.261035	1.647440
0.261133	1.642779
0.261230	1.611095
0.261328	1.614186
0.261426	1.606651
0.261523	1.592334
0.261621	1.599623
0.261719	1.603302
0.261816	1.623206
0.261914	1.642421
0.262012	1.653368
0.262109	1.640533
0.262207	1.631677
0.262305	1.626042
0.262402	1.617661
0.262500	1.598718
0.262598	1.606696
0.262695	1.616537
0.262793	1.608213
0.262891	1.587240
0.262988	1.576263
0.263086	1.571639
0.263184	1.572541
0.263281	1.588402
0.263379	1.596982
0.263477	1.590589
0.263574	1.574253
0.263672	1.565717
0.263770	1.577108
0.263867	1.569505
0.263965	1.560631
0.264062	1.551152
0.264160	1.543690
0.264258	1.549189
0.264355	1.552799
0.264453	1.540216
0.264551	1.537156
0.264648	1.541166
0.264746	1.546578
0.264844	1.555739
0.264941	1.557882
0.265039	1.551775
0.265137	1.547401
0.265234	1.541088
0.265332	1.528600
0.265430	1.523481
0.265527	1.524768
0.265625	1.544890
0.265723	1.553523
0.265820	1.528133
0.265918	1.515685
0.266016	1.506637
0.266113	1.509298
0.266211	1.520630
0.266309	1.539122
0.266406	1.533219
0.266504	1.516948
0.266602	1.514963
0.266699	1.534684
0.266797	1.554701
0.266895	1.573666
0.266992	1.561844
0.267090	1.563351
0.267187	1.573104
0.267285	1.569410
0.267383	1.558753
0.267480	1.562963
0.267578	1.572640
0.267676	1.593836
0.267773	1.590049
0.267871	1.578298
0.267969	1.579859
0.268066	1.572223
0.268164	1.562089
0.268262	1.566022
0.268359	1.571454
0.268457	1.567435
0.268555	1.574334
0.268652	1.578575
0.268750	1.588729
0.268848	1.594583
0.268945	1.602041
0.269043	1.611378
0.269141	1.619731
0.269238	1.625896
0.269336	1.632683
0.269434	1.644728
0.269531	1.666613
0.269629	1.664313
0.269727	1.663070
0.269824	1.657488
0.269922	1.659665
0.270020	1.659743
0.270117	1.656767
0.270215	1.626507
0.270312	1.643069
0.270410	1.679616
0.270508	1.674505
0.270605	1.687488
0.270703	1.675773
0.270801	1.669078
0.270898	1.664320
0.270996	1.641003
0.271094	1.633178
0.271191	1.631810
0.271289	1.640621
0.271387	1.647332
0.271484	1.638067
0.271582	1.641467
0.271680	1.636138
0.271777	1.634942
0.271875	1.632384
0.271973	1.631991
0.272070	1.631251
0.272168	1.631105
0.272266	1.632043
0.272363	1.629395
0.272461	1.639025
0.272559	1.653008
0.272656	1.649973
0.272754	1.649625
0.272852	1.654398
0.272949	1.645943
0.273047	1.622111
0.273145	1.633524
0.273242	1.639595
0.273340	1.644423
0.273437	1.648688
0.273535	1.647576
0.273633	1.646306
0.273730	1.642112
0.273828	1.639310
0.273926	1.633841
0.274023	1.624039
0.274121	1.620062
0.274219	1.615585
0.274316	1.590125
0.274414	1.565332
0.274512	1.556661
0.274609	1.560704
0.274707	1.552758
0.274805	1.556916
0.274902	1.546989
0.275000	1.562431
0.275098	1.605040
0.275195	1.600747
0.275293	1.608716
0.275391	1.633618
0.275488	1.648429
0.275586	1.641107
0.275684	1.610566
0.275781	1.607321
0.275879	1.615879
0.275977	1.616312
0.276074	1.619904
0.276172	1.587164
0.276270	1.563011
0.276367	1.591633
0.276465	1.635987
0.276562	1.660787
0.276660	1.667603
0.276758	1.668907
0.276855	1.670383
0.276953	1.670627
0.277051	1.669543
0.277148	1.671312
0.277246	1.673437
0.277344	1.675314
0.277441	1.676523
0.277539	1.676356
0.277637	1.676150
0.277734	1.678050
0.277832	1.677221
0.277930	1.678467
0.278027	1.681588
0.278125	1.680356
0.278223	1.683306
0.278320	1.655762
0.278418	1.612766
0.278516	1.588471
0.278613	1.582217
0.278711	1.566571
0.278809	1.547790
0.278906	1.565652
0.279004	1.608632
0.279102	1.610071
0.279199	1.588574
0.279297	1.591184
0.279395	1.564614
0.279492	1.557814
0.279590	1.568683
0.279687	1.611525
0.279785	1.596865
0.279883	1.686167
0.279980	1.663204
0.280078	1.624022
0.280176	1.620089
0.280273	1.619433
0.280371	1.648668
0.280469	1.658133
0.280566	1.631762
0.280664	1.590583
0.280762	1.582104
0.280859	1.605826
0.280957	1.607050
0.281055	1.625870
0.281152	1.616632
0.281250	1.609285
0.281348	1.606499
0.281445	1.586883
0.281543	1.576789
0.281641	1.542787
0.281738	1.557341
0.281836	1.553180
0.281934	1.570528
0.282031	1.580784
0.282129	1.548401
0.282227	1.506702
0.282324	1.483628
0.282422	1.509591
0.282520	1.526092
0.282617	1.517558
0.282715	1.481168
0.282812	1.441901
0.282910	1.392445
0.283008	1.422824
0.283105	1.500357
0.283203	1.530989
0.283301	1.550149
0.283398	1.573104
0.283496	1.593163
0.283594	1.589610
0.283691	1.573738
0.283789	1.561549
0.283887	1.543022
0.283984	1.535363
0.284082	1.559202
0.284180	1.597944
0.284277	1.599059
0.284375	1.601577
0.284473	1.596754
0.284570	1.611833
0.284668	1.613756
0.284766	1.611798
0.284863	1.610080
0.284961	1.609626
0.285059	1.599745
0.285156	1.598393
0.285254	1.608609
0.285352	1.608023
0.285449	1.606339
0.285547	1.603970
0.285645	1.599356
0.285742	1.591010
0.285840	1.581381
0.285937	1.564312
0.286035	1.563313
0.286133	1.573145
0.286230	1.584889
0.286328	1.598765
0.286426	1.607525
0.286523	1.623280
0.286621	1.615785
0.286719	1.607365
0.286816	1.601493
0.286914	1.597397
0.287012	1.591187
0.287109	1.601140
0.287207	1.590708
0.287305	1.583153
0.287402	1.584736
0.287500	1.586930
0.287598	1.580027
0.287695	1.581426
0.287793	1.591557
0.287891	1.601041
0.287988	1.596197
0.288086	1.606329
0.288184	1.610697
0.288281	1.619935
0.288379	1.621816
0.288477	1.635613
0.288574	1.638774
0.288672	1.609621
0.288770	1.590108
0.288867	1.588428
0.288965	1.599680
0.289062	1.593962
0.289160	1.588920
0.289258	1.578137
0.289355	1.568260
0.289453	1.574398
0.289551	1.584391
0.289648	1.582961
0.289746	1.578591
0.289844	1.573836
0.289941	1.611855
0.290039	1.633649
0.290137	1.667272
0.290234	1.697434
0.290332	1.700073
0.290430	1.677868
0.290527	1.656582
0.290625	1.639531
0.290723	1.623364
0.290820	1.628899
0.290918	1.610084
0.291016	1.607444
0.291113	1.637898
0.291211	1.642038
0.291309	1.650754
0.291406	1.652049
0.291504	1.657096
0.291602	1.629271
0.291699	1.627532
0.291797	1.647979
0.291895	1.676680
0.291992	1.664275
0.292090	1.670015
0.292187	1.655873
0.292285	1.638487
0.292383	1.622062
0.292480	1.634308
0.292578	1.641400
0.292676	1.649046
0.292773	1.675016
0.292871	1.680143
0.292969	1.678907
0.293066	1.667758
0.293164	1.640032
0.293262	1.645043
0.293359	1.641790
0.293457	1.621589
0.293555	1.618318
0.293652	1.594861
0.293750	1.586812
0.293848	1.588155
0.293945	1.613038
0.294043	1.644338
0.294141	1.664335
0.294238	1.670672
0.294336	1.668868
0.294434	1.673882
0.294531	1.665570
0.294629	1.658994
0.294727	1.640698
0.294824	1.625437
0.294922	1.633266
0.295020	1.621885
0.295117	1.613946
0.295215	1.610170
0.295312	1.605646
0.295410	1.653645
0.295508	1.633773
0.295605	1.629290
0.295703	1.637776
0.295801	1.649777
0.295898	1.681312
0.295996	1.689754
0.296094	1.678083
0.296191	1.659867
0.296289	1.661932
0.296387	1.663894
0.296484	1.656047
0.296582	1.650248
0.296680	1.660538
0.296777	1.677065
0.296875	1.697634
0.296973	1.695082
0.297070	1.695188
0.297168	1.705237
0.297266	1.701215
0.297363	1.670562
0.297461	1.657832
0.297559	1.643908
0.297656	1.624960
0.297754	1.579739
0.297852	1.570322
0.297949	1.558457
0.298047	1.533921
0.298145	1.511914
0.298242	1.507594
0.298340	1.507976
0.298437	1.515043
0.298535	1.534691
0.298633	1.525490
0.298730	1.511916
0.298828	1.493585
0.298926	1.483557
0.299023	1.471878
0.299121	1.449489
0.299219	1.459583
0.299316	1.484886
0.299414	1.517284
0.299512	1.583070
0.299609	1.569197
0.299707	1.566344
0.299805	1.552863
0.299902	1.540848
0.300000	1.541607
0.300098	1.542952
0.300195	1.541352
0.300293	1.555987
0.300391	1.595342
0.300488	1.583596
0.300586	1.568694
0.300684	1.516454
0.300781	1.514581
0.300879	1.541412
0.300977	1.590188
0.301074	1.563833
0.301172	1.523857
0.301270	1.524591
0.301367	1.494183
0.301465	1.530197
0.301562	1.555997
0.301660	1.556505
0.301758	1.597729
0.301855	1.607175
0.301953	1.586543
0.302051	1.594285
0.302148	1.630600
0.302246	1.649129
0.302344	1.648506
0.302441	1.651174
0.302539	1.664778
0.302637	1.690458
0.302734	1.674670
0.302832	1.641513
0.302930	1.608261
0.303027	1.599913
0.303125	1.599447
0.303223	1.559287
0.303320	1.573984
0.303418	1.579796
0.303516	1.555885
0.303613	1.565474
0.303711	1.561248
0.303809	1.539871
0.303906	1.535919
0.304004	1.536344
0.304102	1.504917
0.304199	1.547063
0.304297	1.553613
0.304395	1.571093
0.304492	1.555651
0.304590	1.560007
0.304687	1.568922
0.304785	1.530348
0.304883	1.514189
0.304980	1.580399
0.305078	1.643804
0.305176	1.650460
0.305273	1.633114
0.305371	1.606648
0.305469	1.603582
0.305566	1.601710
0.305664	1.589911
0.305762	1.572714
0.305859	1.564453
0.305957	1.588162
0.306055	1.628394
0.306152	1.651648
0.306250	1.605762
0.306348	1.583730
0.306445	1.531389
0.306543	1.530520
0.306641	1.563353
0.306738	1.581680
0.306836	1.587367
0.306934	1.584320
0.307031	1.568938
0.307129	1.536698
0.307227	1.531270
0.307324	1.503211
0.307422	1.480382
0.307520	1.469344
0.307617	1.469517
0.307715	1.442699
0.307812	1.453142
0.307910	1.502911
0.308008	1.516245
0.308105	1.511563
0.308203	1.501615
0.308301	1.512031
0.308398	1.504851
0.308496	1.490245
0.308594	1.459093
0.308691	1.442579
0.308789	1.447046
0.308887	1.471875
0.308984	1.487543
0.309082	1.526140
0.309180	1.554022
0.309277	1.557569
0.309375	1.533417
0.309473	1.536974
0.309570	1.573345
0.309668	1.590949
0.309766	1.634500
0.309863	1.644886
0.309961	1.652307
0.310059	1.615978
0.310156	1.607217
0.310254	1.611510
0.310352	1.606249
0.310449	1.584465
0.310547	1.569975
0.310645	1.579489
0.310742	1.585011
0.310840	1.569100
0.310937	1.550946
0.311035	1.565411
0.311133	1.556995
0.311230	1.551334
0.311328	1.561842
0.311426	1.592886
0.311523	1.613278
0.311621	1.615257
0.311719	1.616873
0.311816	1.664038
0.311914	1.682867
0.312012	1.670068
0.312109	1.671653
0.312207	1.673607
0.312305	1.692821
0.312402	1.690960
0.312500	1.691380
0.312598	1.672073
0.312695	1.662442
0.312793	1.666566
0.312891	1.677189
0.312988	1.671160
0.313086	1.657996
0.313184	1.652798
0.313281	1.650762
0.313379	1.651282
0.313477	1.648931
0.313574	1.643002
0.313672	1.641795
0.313770	1.639365
0.313867	1.639918
0.313965	1.636801
0.314062	1.646775
0.314160	1.639207
0.314258	1.620208
0.314355	1.608104
0.314453	1.600219
0.314551	1.611277
0.314648	1.614759
0.314746	1.620582
0.314844	1.614479
0.314941	1.602720
0.315039	1.586869
0.315137	1.568690
0.315234	1.548073
0.315332	1.539062
0.315430	1.527699
0.315527	1.515459
0.315625	1.510205
0.315723	1.503820
0.315820	1.496617
0.315918	1.472989
0.316016	1.458794
0.316113	1.479153
0.316211	1.508522
0.316309	1.511882
0.316406	1.499416
0.316504	1.520141
0.316602	1.536698
0.316699	1.542002
0.316797	1.556308
0.316895	1.553391
0.316992	1.554547
0.317090	1.568575
0.317187	1.596340
0.317285	1.626860
0.317383	1.671382
0.317480	1.693049
0.317578	1.686436
0.317676	1.690730
0.317773	1.677667
0.317871	1.666396
0.317969	1.651120
0.318066	1.622368
0.318164	1.609051
0.318262	1.603404
0.318359	1.629631
0.318457	1.651383
0.318555	1.632835
0.318652	1.633601
0.318750	1.625668
0.318848	1.623098
0.318945	1.586739
0.319043	1.557526
0.319141	1.569371
0.319238	1.617718
0.319336	1.642901
0.319434	1.646278
0.319531	1.637043
0.319629	1.628126
0.319727	1.604259
0.319824	1.580637
0.319922	1.543986
0.320020	1.532639
0.320117	1.518691
0.320215	1.497715
0.320312	1.513528
0.320410	1.531149
0.320508	1.553505
0.320605	1.521361
0.320703	1.471905
0.320801	1.439320
0.320898	1.451076
0.320996	1.438998
0.321094	1.450538
0.321191	1.502078
0.321289	1.534469
0.321387	1.545629
0.321484	1.549430
0.321582	1.541247
0.321680	1.561597
0.321777	1.565178
0.321875	1.561251
0.321973	1.561236
0.322070	1.543609
0.322168	1.511447
0.322266	1.495651
0.322363	1.473909
0.322461	1.444410
0.322559	1.444932
0.322656	1.496665
0.322754	1.490906
0.322852	1.448349
0.322949	1.406443
0.323047	1.406496
0.323145	1.459771
0.323242	1.492348
0.323340	1.511754
0.323437	1.510390
0.323535	1.480788
0.323633	1.448698
0.323730	1.409791
0.323828	1.399276
0.323926	1.418339
0.324023	1.505378
0.324121	1.526383
0.324219	1.508221
0.324316	1.511855
0.324414	1.503151
0.324512	1.496070
0.324609	1.576461
0.324707	1.584324
0.324805	1.557108
0.324902	1.531278
0.325000	1.531044
0.325098	1.528431
0.325195	1.511073
0.325293	1.507004
0.325391	1.514575
0.325488	1.531667
0.325586	1.560896
0.325684	1.572056
0.325781	1.558132
0.325879	1.555200
0.325977	1.577893
0.326074	1.582337
0.326172	1.584964
0.326270	1.570591
0.326367	1.554000
0.326465	1.546913
0.326562	1.539040
0.326660	1.549167
0.326758	1.594315
0.326855	1.614539
0.326953	1.630714
0.327051	1.627456
0.327148	1.635193
0.327246	1.645021
0.327344	1.643963
0.327441	1.645624
0.327539	1.642086
0.327637	1.640233
0.327734	1.637356
0.327832	1.635842
0.327930	1.632418
0.328027	1.628693
0.328125	1.619706
0.328223	1.614313
0.328320	1.608846
0.328418	1.621207
0.328516	1.622843
0.328613	1.611967
0.328711	1.638659
0.328809	1.657402
0.328906	1.625065
0.329004	1.602424
0.329102	1.579122
0.329199	1.596409
0.329297	1.630564
0.329395	1.630283
0.329492	1.624308
0.329590	1.644530
0.329687	1.659740
0.329785	1.651682
0.329883	1.605927
0.329980	1.627272
0.330078	1.650380
0.330176	1.668916
0.330273	1.671513
0.330371	1.672480
0.330469	1.678511
0.330566	1.670628
0.330664	1.662301
0.330762	1.657115
0.330859	1.643355
0.330957	1.606645
0.331055	1.630585
0.331152	1.662461
0.331250	1.650226
0.331348	1.659329
0.331445	1.681915
0.331543	1.691377
0.331641	1.638591
0.331738	1.611261
0.331836	1.630224
0.331934	1.623511
0.332031	1.625634
0.332129	1.632222
0.332227	1.637689
0.332324	1.623178
0.332422	1.611390
0.332520	1.600761
0.332617	1.584754
0.332715	1.565377
0.332812	1.553810
0.332910	1.583232
0.333008	1.591923
0.333105	1.582765
0.333203	1.570788
0.333301	1.563249
0.333398	1.576477
0.333496	1.589081
0.333594	1.591813
0.333691	1.570705
0.333789	1.572820
0.333887	1.563625
0.333984	1.547229
0.334082	1.544170
0.334180	1.549635
0.334277	1.547531
0.334375	1.554761
0.334473	1.548651
0.334570	1.536463
0.334668	1.520109
0.334766	1.509827
0.334863	1.502620
0.334961	1.511251
0.335059	1.518247
0.335156	1.547204
0.335254	1.555872
0.335352	1.563168
0.335449	1.580464
0.335547	1.580816
0.335645	1.602154
0.335742	1.630008
0.335840	1.642575
0.335937	1.651351
0.336035	1.659169
0.336133	1.663033
0.336230	1.665162
0.336328	1.668381
0.336426	1.640843
0.336523	1.625321
0.336621	1.641125
0.336719	1.620249
0.336816	1.631424
0.336914	1.622469
0.337012	1.624790
0.337109	1.584616
0.337207	1.572153
0.337305	1.614234
0.337402	1.597483
0.337500	1.605178
0.337598	1.614154
0.337695	1.617649
0.337793	1.613445
0.337891	1.606339
0.337988	1.604350
0.338086	1.585797
0.338184	1.593890
0.338281	1.591558
0.338379	1.631007
0.338477	1.616044
0.338574	1.592617
0.338672	1.585478
0.338770	1.542681
0.338867	1.518026
0.338965	1.482911
0.339062	1.465844
0.339160	1.447413
0.339258	1.454933
0.339355	1.488207
0.339453	1.535378
0.339551	1.531813
0.339648	1.536989
0.339746	1.566604
0.339844	1.592793
0.339941	1.628386
0.340039	1.627535
0.340137	1.605645
0.340234	1.584316
0.340332	1.583092
0.340430	1.588883
0.340527	1.604796
0.340625	1.606145
0.340723	1.586776
0.340820	1.583143
0.340918	1.601001
0.341016	1.601840
0.341113	1.604569
0.341211	1.599734
0.341309	1.589399
0.341406	1.608273
0.341504	1.637676
0.341602	1.639846
0.341699	1.648306
0.341797	1.630021
0.341895	1.637798
0.341992	1.644342
0.342090	1.643228
0.342187	1.640941
0.342285	1.630459
0.342383	1.625150
0.342480	1.632925
0.342578	1.638813
0.342676	1.649438
0.342773	1.650189
0.342871	1.644661
0.342969	1.634373
0.343066	1.629158
0.343164	1.623301
0.343262	1.618736
0.343359	1.615738
0.343457	1.612878
0.343555	1.615785
0.343652	1.608411
0.343750	1.582074
0.343848	1.575793
0.343945	1.565456
0.344043	1.566891
0.344141	1.566864
0.344238	1.586470
0.344336	1.585219
0.344434	1.588580
0.344531	1.598395
0.344629	1.631137
0.344727	1.634113
0.344824	1.602554
0.344922	1.590861
0.345020	1.548076
0.345117	1.561425
0.345215	1.556977
0.345312	1.548082
0.345410	1.589635
0.345508	1.580127
0.345605	1.554568
0.345703	1.559493
0.345801	1.539163
0.345898	1.526659
0.345996	1.531152
0.346094	1.523103
0.346191	1.509400
0.346289	1.484154
0.346387	1.464178
0.346484	1.441713
0.346582	1.414612
0.346680	1.410449
0.346777	1.415988
0.346875	1.413476
0.346973	1.414798
0.347070	1.411278
0.347168	1.413361
0.347266	1.441126
0.347363	1.468579
0.347461	1.471906
0.347559	1.459848
0.347656	1.451932
0.347754	1.465528
0.347852	1.490527
0.347949	1.519619
0.348047	1.548814
0.348145	1.564532
0.348242	1.592541
0.348340	1.576333
0.348437	1.559113
0.348535	1.550736
0.348633	1.575264
0.348730	1.593184
0.348828	1.576049
0.348926	1.595631
0.349023	1.600074
0.349121	1.611388
0.349219	1.593865
0.349316	1.557076
0.349414	1.546372
0.349512	1.541820
0.349609	1.537839
0.349707	1.532883
0.349805	1.530604
0.349902	1.563584
0.350000	1.564995
0.350098	1.544605
0.350195	1.535975
0.350293	1.533725
0.350391	1.513905
0.350488	1.505643
0.350586	1.508103
0.350684	1.522950
0.350781	1.522191
0.350879	1.510645
0.350977	1.503035
0.351074	1.513565
0.351172	1.515304
0.351270	1.512155
0.351367	1.511799
0.351465	1.514052
0.351562	1.506069
0.351660	1.490884
0.351758	1.484389
0.351855	1.493043
0.351953	1.498303
0.352051	1.489719
0.352148	1.474934
0.352246	1.466217
0.352344	1.481287
0.352441	1.485135
0.352539	1.492604
0.352637	1.494130
0.352734	1.502423
0.352832	1.512416
0.352930	1.509117
0.353027	1.512298
0.353125	1.514578
0.353223	1.511004
0.353320	1.498895
0.353418	1.489856
0.353516	1.499898
0.353613	1.494538
0.353711	1.486097
0.353809	1.483960
0.353906	1.473925
0.354004	1.464943
0.354102	1.460277
0.354199	1.457834
0.354297	1.463872
0.354395	1.481106
0.354492	1.486801
0.354590	1.486335
0.354687	1.491569
0.354785	1.493657
0.354883	1.485466
0.354980	1.471560
0.355078	1.460019
0.355176	1.454654
0.355273	1.450532
0.355371	1.438866
0.355469	1.412870
0.355566	1.388098
0.355664	1.377147
0.355762	1.375546
0.355859	1.368637
0.355957	1.352429
0.356055	1.337983
0.356152	1.339982
0.356250	1.354671
0.356348	1.384170
0.356445	1.407285
0.356543	1.408299
0.356641	1.420480
0.356738	1.452255
0.356836	1.472477
0.356934	1.472849
0.357031	1.459640
0.357129	1.448321
0.357227	1.435072
0.357324	1.428509
0.357422	1.442471
0.357520	1.477311
0.357617	1.499667
0.357715	1.534475
0.357812	1.543855
0.357910	1.552226
0.358008	1.551346
0.358105	1.537207
0.358203	1.548053
0.358301	1.560777
0.358398	1.560083
0.358496	1.553228
0.358594	1.544900
0.358691	1.549700
0.358789	1.540496
0.358887	1.533105
0.358984	1.547364
0.359082	1.544626
0.359180	1.538812
0.359277	1.531255
0.359375	1.519880
0.359473	1.514515
0.359570	1.511538
0.359668	1.510911
0.359766	1.511789
0.359863	1.511135
0.359961	1.489669
0.360059	1.458058
0.360156	1.411997
0.360254	1.399642
0.360352	1.423170
0.360449	1.428845
0.360547	1.442388
0.360645	1.464189
0.360742	1.511220
0.360840	1.484559
0.360937	1.396052
0.361035	1.308764
0.361133	1.296019
0.361230	1.308792
0.361328	1.305507
0.361426	1.346866
0.361523	1.379020
0.361621	1.372562
0.361719	1.381017
0.361816	1.381234
0.361914	1.389609
0.362012	1.431533
0.362109	1.483701
0.362207	1.510746
0.362305	1.517843
0.362402	1.507921
0.362500	1.493828
0.362598	1.496637
0.362695	1.540957
0.362793	1.600014
0.362891	1.596655
0.362988	1.578480
0.363086	1.604788
0.363184	1.614544
0.363281	1.599564
0.363379	1.595237
0.363477	1.549295
0.363574	1.528957
0.363672	1.500164
0.363770	1.487628
0.363867	1.478100
0.363965	1.468331
0.364062	1.498885
0.364160	1.530067
0.364258	1.570081
0.364355	1.607942
0.364453	1.595729
0.364551	1.597560
0.364648	1.635696
0.364746	1.655676
0.364844	1.648794
0.364941	1.633477
0.365039	1.624856
0.365137	1.615204
0.365234	1.603520
0.365332	1.633898
0.365430	1.657005
0.365527	1.660843
0.365625	1.641503
0.365723	1.624845
0.365820	1.600664
0.365918	1.588635
0.366016	1.599177
0.366113	1.620528
0.366211	1.618875
0.366309	1.600166
0.366406	1.576821
0.366504	1.551315
0.366602	1.531731
0.366699	1.558210
0.366797	1.586635
0.366895	1.580176
0.366992	1.611429
0.367090	1.648007
0.367187	1.627825
0.367285	1.623760
0.367383	1.650247
0.367480	1.636859
0.367578	1.586265
0.367676	1.564561
0.367773	1.554371
0.367871	1.541418
0.367969	1.548585
0.368066	1.544755
0.368164	1.532163
0.368262	1.539786
0.368359	1.521618
0.368457	1.512505
0.368555	1.508284
0.368652	1.489075
0.368750	1.488129
0.368848	1.486569
0.368945	1.504711
0.369043	1.485222
0.369141	1.472084
0.369238	1.464170
0.369336	1.469770
0.369434	1.537689
0.369531	1.526655
0.369629	1.530673
0.369727	1.527089
0.369824	1.588419
0.369922	1.585734
0.370020	1.570054
0.370117	1.539782
0.370215	1.523282
0.370312	1.519623
0.370410	1.548574
0.370508	1.547511
0.370605	1.523104
0.370703	1.495150
0.370801	1.456891
0.370898	1.437158
0.370996	1.481300
0.371094	1.523049
0.371191	1.515533
0.371289	1.542894
0.371387	1.533927
0.371484	1.526363
0.371582	1.516209
0.371680	1.525683
0.371777	1.530231
0.371875	1.524606
0.371973	1.518465
0.372070	1.566306
0.372168	1.588500
0.372266	1.590237
0.372363	1.576748
0.372461	1.566177
0.372559	1.553969
0.372656	1.565954
0.372754	1.586413
0.372852	1.573985
0.372949	1.549527
0.373047	1.543662
0.373145	1.543661
0.373242	1.556970
0.373340	1.564617
0.373437	1.581114
0.373535	1.578265
0.373633	1.557283
0.373730	1.580714
0.373828	1.555451
0.373926	1.572911
0.374023	1.585528
0.374121	1.605104
0.374219	1.610295
0.374316	1.594114
0.374414	1.588497
0.374512	1.586865
0.374609	1.576058
0.374707	1.560667
0.374805	1.529139
0.374902	1.513827
0.375000	1.516039
0.375098	1.520208
0.375195	1.520868
0.375293	1.521175
0.375391	1.603903
0.375488	1.633529
0.375586	1.628976
0.375684	1.615768
0.375781	1.616483
0.375879	1.618895
0.375977	1.619330
0.376074	1.615501
0.376172	1.603714
0.376270	1.586523
0.376367	1.579894
0.376465	1.583691
0.376562	1.585546
0.376660	1.585495
0.376758	1.616440
0.376855	1.647755
0.376953	1.614696
0.377051	1.609557
0.377148	1.617703
0.377246	1.620405
0.377344	1.631700
0.377441	1.619397
0.377539	1.603396
0.377637	1.597281
0.377734	1.595592
0.377832	1.582748
0.377930	1.604827
0.378027	1.628194
0.378125	1.630653
0.378223	1.622159
0.378320	1.608939
0.378418	1.615753
0.378516	1.621556
0.378613	1.624140
0.378711	1.661883
0.378809	1.678760
0.378906	1.670970
0.379004	1.669065
0.379102	1.666011
0.379199	1.659558
0.379297	1.626125
0.379395	1.622742
0.379492	1.645397
0.379590	1.640162
0.379687	1.648845
0.379785	1.662217
0.379883	1.632246
0.379980	1.608866
0.380078	1.609755
0.380176	1.573970
0.380273	1.572913
0.380371	1.576486
0.380469	1.556482
0.380566	1.536034
0.380664	1.518114
0.380762	1.523546
0.380859	1.563753
0.380957	1.581259
0.381055	1.593209
0.381152	1.609614
0.381250	1.610750
0.381348	1.593754
0.381445	1.592082
0.381543	1.605546
0.381641	1.612004
0.381738	1.609837
0.381836	1.593330
0.381934	1.562637
0.382031	1.567559
0.382129	1.586526
0.382227	1.594579
0.382324	1.582407
0.382422	1.591812
0.382520	1.583498
0.382617	1.572139
0.382715	1.568534
0.382812	1.545762
0.382910	1.559829
0.383008	1.589797
0.383105	1.598961
0.383203	1.611313
0.383301	1.569777
0.383398	1.590292
0.383496	1.627116
0.383594	1.638917
0.383691	1.648648
0.383789	1.659801
0.383887	1.665955
0.383984	1.644051
0.384082	1.632938
0.384180	1.637638
0.384277	1.648854
0.384375	1.646004
0.384473	1.654135
0.384570	1.655964
0.384668	1.658938
0.384766	1.659110
0.384863	1.659061
0.384961	1.661343
0.385059	1.662765
0.385156	1.664015
0.385254	1.644185
0.385352	1.649295
0.385449	1.666649
0.385547	1.659589
0.385645	1.615515
0.385742	1.560603
0.385840	1.527410
0.385937	1.528528
0.386035	1.530420
0.386133	1.570138
0.386230	1.594689
0.386328	1.598729
0.386426	1.605262
0.386523	1.596369
0.386621	1.615073
0.386719	1.619552
0.386816	1.630559
0.386914	1.644494
0.387012	1.645178
0.387109	1.622428
0.387207	1.593537
0.387305	1.556364
0.387402	1.535144
0.387500	1.524458
0.387598	1.535263
0.387695	1.566233
0.387793	1.599802
0.387891	1.601561
0.387988	1.602048
0.388086	1.596285
0.388184	1.597893
0.388281	1.656970
0.388379	1.646879
0.388477	1.602330
0.388574	1.615173
0.388672	1.635507
0.388770	1.632403
0.388867	1.606294
0.388965	1.586733
0.389062	1.592724
0.389160	1.604756
0.389258	1.627518
0.389355	1.628463
0.389453	1.637519
0.389551	1.629288
0.389648	1.623067
0.389746	1.627499
0.389844	1.623572
0.389941	1.614103
0.390039	1.626315
0.390137	1.635008
0.390234	1.637836
0.390332	1.652043
0.390430	1.635013
0.390527	1.621260
0.390625	1.618267
0.390723	1.633499
0.390820	1.628908
0.390918	1.600833
0.391016	1.593291
0.391113	1.600572
0.391211	1.636663
0.391309	1.660387
0.391406	1.653374
0.391504	1.643177
0.391602	1.601984
0.391699	1.620633
0.391797	1.665713
0.391895	1.642884
0.391992	1.630291
0.392090	1.633283
0.392187	1.635707
0.392285	1.642256
0.392383	1.678269
0.392480	1.690990
0.392578	1.689098
0.392676	1.687117
0.392773	1.684791
0.392871	1.688221
0.392969	1.695417
0.393066	1.675851
0.393164	1.649575
0.393262	1.658404
0.393359	1.683506
0.393457	1.685408
0.393555	1.690415
0.393652	1.703028
0.393750	1.669182
0.393848	1.660161
0.393945	1.660520
0.394043	1.657042
0.394141	1.640835
0.394238	1.651102
0.394336	1.616227
0.394434	1.618493
0.394531	1.647900
0.394629	1.628062
0.394727	1.605774
0.394824	1.588066
0.394922	1.591419
0.395020	1.575057
0.395117	1.547022
0.395215	1.532628
0.395312	1.518578
0.395410	1.497608
0.395508	1.529425
0.395605	1.555188
0.395703	1.579688
0.395801	1.585988
0.395898	1.589369
0.395996	1.603840
0.396094	1.624953
0.396191	1.650439
0.396289	1.664313
0.396387	1.666346
0.396484	1.630467
0.396582	1.615076
0.396680	1.644395
0.396777	1.652940
0.396875	1.678399
0.396973	1.712563
0.397070	1.712094
0.397168	1.681040
0.397266	1.649857
0.397363	1.646737
0.397461	1.645325
0.397559	1.615670
0.397656	1.605515
0.397754	1.612922
0.397852	1.569910
0.397949	1.535282
0.398047	1.528792
0.398145	1.506429
0.398242	1.490915
0.398340	1.431974
0.398437	1.379867
0.398535	1.422635
0.398633	1.435956
0.398730	1.436058
0.398828	1.445662
0.398926	1.438371
0.399023	1.427578
0.399121	1.423876
0.399219	1.394176
0.399316	1.355645
0.399414	1.343211
0.399512	1.320559
0.399609	1.306166
0.399707	1.315694
0.399805	1.369227
0.399902	1.409720
0.400000	1.423682
0.400098	1.424754
0.400195	1.428267
0.400293	1.428270
0.400391	1.443941
0.400488	1.437474
0.400586	1.444014
0.400684	1.449432
0.400781	1.429130
0.400879	1.386156
0.400977	1.392909
0.401074	1.464851
0.401172	1.517209
0.401270	1.510797
0.401367	1.518665
0.401465	1.526702
0.401562	1.512311
0.401660	1.519609
0.401758	1.522947
0.401855	1.514305
0.401953	1.527045
0.402051	1.604590
0.402148	1.620383
0.402246	1.605391
0.402344	1.587785
0.402441	1.590982
0.402539	1.608754
0.402637	1.632453
0.402734	1.663797
0.402832	1.705719
0.402930	1.704062
0.403027	1.676431
0.403125	1.663496
0.403223	1.653883
0.403320	1.654834
0.403418	1.655520
0.403516	1.659152
0.403613	1.661183
0.403711	1.661327
0.403809	1.664598
0.403906	1.662478
0.404004	1.664058
0.404102	1.668813
0.404199	1.679151
0.404297	1.683693
0.404395	1.681582
0.404492	1.675590
0.404590	1.673589
0.404687	1.675999
0.404785	1.677754
0.404883	1.679138
0.404980	1.682051
0.405078	1.685432
0.405176	1.689315
0.405273	1.689347
0.405371	1.689944
0.405469	1.692228
0.405566	1.691472
0.405664	1.690975
0.405762	1.690891
0.405859	1.693406
0.405957	1.694660
0.406055	1.693228
0.406152	1.690015
0.406250	1.687352
0.406348	1.684362
0.406445	1.682325
0.406543	1.680366
0.406641	1.679927
0.406738	1.679808
0.406836	1.682214
0.406934	1.686109
0.407031	1.689078
0.407129	1.680265
0.407227	1.677018
0.407324	1.671336
0.407422	1.668713
0.407520	1.681428
0.407617	1.665131
0.407715	1.672371
0.407812	1.653613
0.407910	1.657308
0.408008	1.657736
0.408105	1.629593
0.408203	1.642489
0.408301	1.664692
0.408398	1.670501
0.408496	1.668950
0.408594	1.660445
0.408691	1.646973
0.408789	1.640280
0.408887	1.629323
0.408984	1.612237
0.409082	1.598949
0.409180	1.593937
0.409277	1.596228
0.409375	1.586398
0.409473	1.593266
0.409570	1.583077
0.409668	1.576282
0.409766	1.578589
0.409863	1.595741
0.409961	1.648634
0.410059	1.613487
0.410156	1.615361
0.410254	1.599495
0.410352	1.574180
0.410449	1.566256
0.410547	1.586110
0.410645	1.568607
0.410742	1.604838
0.410840	1.616373
0.410937	1.596394
0.411035	1.605754
0.411133	1.625898
0.411230	1.585355
0.411328	1.574421
0.411426	1.585950
0.411523	1.576470
0.411621	1.543372
0.411719	1.519240
0.411816	1.537071
0.411914	1.524508
0.412012	1.494879
0.412109	1.478380
0.412207	1.455272
0.412305	1.402715
0.412402	1.418609
0.412500	1.494189
0.412598	1.501748
0.412695	1.451942
0.412793	1.381865
0.412891	1.357145
0.412988	1.379156
0.413086	1.357906
0.413184	1.386422
0.413281	1.471348
0.413379	1.472022
0.413477	1.432840
0.413574	1.404974
0.413672	1.380570
0.413770	1.384667
0.413867	1.368836
0.413965	1.362853
0.414062	1.413281
0.414160	1.451646
0.414258	1.419168
0.414355	1.419220
0.414453	1.430903
0.414551	1.430727
0.414648	1.457678
0.414746	1.449318
0.414844	1.433526
0.414941	1.483364
0.415039	1.491696
0.415137	1.561338
0.415234	1.592964
0.415332	1.595908
0.415430	1.605708
0.415527	1.613266
0.415625	1.616910
0.415723	1.613343
0.415820	1.620537
0.415918	1.623326
0.416016	1.622750
0.416113	1.624505
0.416211	1.631962
0.416309	1.637421
0.416406	1.631359
0.416504	1.614719
0.416602	1.600121
0.416699	1.594689
0.416797	1.594323
0.416895	1.594212
0.416992	1.594462
0.417090	1.594588
0.417187	1.595030
0.417285	1.595811
0.417383	1.596925
0.417480	1.599106
0.417578	1.602451
0.417676	1.605391
0.417773	1.607014
0.417871	1.607225
0.417969	1.606338
0.418066	1.606333
0.418164	1.607519
0.418262	1.609434
0.418359	1.611354
0.418457	1.613512
0.418555	1.615713
0.418652	1.617758
0.418750	1.619988
0.418848	1.622097
0.418945	1.624221
0.419043	1.626210
0.419141	1.628373
0.419238	1.630652
0.419336	1.633217
0.419434	1.635774
0.419531	1.638751
0.419629	1.643126
0.419727	1.648353
0.419824	1.654316
0.419922	1.663548
0.420020	1.664072
0.420117	1.662761
0.420215	1.666647
0.420312	1.668587
0.420410	1.670081
0.420508	1.670692
0.420605	1.669731
0.420703	1.660354
0.420801	1.664499
0.420898	1.691443
0.420996	1.696615
0.421094	1.693799
0.421191	1.675679
0.421289	1.645782
0.421387	1.642860
0.421484	1.649445
0.421582	1.657243
0.421680	1.656995
0.421777	1.638628
0.421875	1.643187
0.421973	1.627216
0.422070	1.642882
0.422168	1.618976
0.422266	1.592244
0.422363	1.549928
0.422461	1.533892
0.422559	1.566155
0.422656	1.590317
0.422754	1.577988
0.422852	1.540432
0.422949	1.522551
0.423047	1.527747
0.423145	1.547232
0.423242	1.522195
0.423340	1.530994
0.423437	1.557474
0.423535	1.529958
0.423633	1.556414
0.423730	1.598970
0.423828	1.607862
0.423926	1.610606
0.424023	1.599007
0.424121	1.596648
0.424219	1.592059
0.424316	1.589937
0.424414	1.590013
0.424512	1.557874
0.424609	1.515512
0.424707	1.521876
0.424805	1.549152
0.424902	1.531255
0.425000	1.514323
0.425098	1.533387
0.425195	1.539740
0.425293	1.558268
0.425391	1.583265
0.425488	1.597433
0.425586	1.636904
0.425684	1.653570
0.425781	1.654900
0.425879	1.646879
0.425977	1.650561
0.426074	1.660070
0.426172	1.659289
0.426270	1.657162
0.426367	1.630946
0.426465	1.594502
0.426562	1.578757
0.426660	1.567156
0.426758	1.558916
0.426855	1.585998
0.426953	1.622085
0.427051	1.629277
0.427148	1.636508
0.427246	1.639237
0.427344	1.624311
0.427441	1.628647
0.427539	1.634750
0.427637	1.615804
0.427734	1.614214
0.427832	1.599326
0.427930	1.571164
0.428027	1.555248
0.428125	1.530344
0.428223	1.508866
0.428320	1.518322
0.428418	1.509908
0.428516	1.485715
0.428613	1.484353
0.428711	1.487310
0.428809	1.484173
0.428906	1.485892
0.429004	1.478458
0.429102	1.492581
0.429199	1.502449
0.429297	1.496159
0.429395	1.462324
0.429492	1.463048
0.429590	1.480166
0.429687	1.487421
0.429785	1.477992
0.429883	1.461089
0.429980	1.479970
0.430078	1.457752
0.430176	1.442316
0.430273	1.450343
0.430371	1.448233
0.430469	1.443853
0.430566	1.445300
0.430664	1.450492
0.430762	1.439017
0.430859	1.425924
0.430957	1.436948
0.431055	1.439009
0.431152	1.438599
0.431250	1.474946
0.431348	1.489428
0.431445	1.470268
0.431543	1.457713
0.431641	1.468396
0.431738	1.499162
0.431836	1.500734
0.431934	1.497843
0.432031	1.520343
0.432129	1.537948
0.432227	1.544319
0.432324	1.542207
0.432422	1.524200
0.432520	1.528698
0.432617	1.514265
0.432715	1.511428
0.432812	1.485667
0.432910	1.469149
0.433008	1.473867
0.433105	1.473353
0.433203	1.470997
0.433301	1.474269
0.433398	1.494059
0.433496	1.517739
0.433594	1.540886
0.433691	1.533459
0.433789	1.539519
0.433887	1.507420
0.433984	1.544881
0.434082	1.590309
0.434180	1.588339
0.434277	1.591145
0.434375	1.596294
0.434473	1.603542
0.434570	1.608320
0.434668	1.614164
0.434766	1.618209
0.434863	1.622737
0.434961	1.625890
0.435059	1.629014
0.435156	1.631152
0.435254	1.633396
0.435352	1.634824
0.435449	1.636252
0.435547	1.637194
0.435645	1.638334
0.435742	1.639129
0.435840	1.640102
0.435937	1.640841
0.436035	1.641654
0.436133	1.642426
0.436230	1.643153
0.436328	1.643802
0.436426	1.644530
0.436523	1.645034
0.436621	1.645578
0.436719	1.646066
0.436816	1.646557
0.436914	1.646862
0.437012	1.647206
0.437109	1.647310
0.437207	1.647523
0.437305	1.647684
0.437402	1.648046
0.437500	1.648439
0.437598	1.648983
0.437695	1.649644
0.437793	1.650659
0.437891	1.651677
0.437988	1.653245
0.438086	1.654859
0.438184	1.657342
0.438281	1.659699
0.438379	1.663131
0.438477	1.665983
0.438574	1.671084
0.438672	1.676068
0.438770	1.683065
0.438867	1.683636
0.438965	1.684168
0.439062	1.692950
0.439160	1.670720
0.439258	1.639330
0.439355	1.657070
0.439453	1.667648
0.439551	1.646597
0.439648	1.653420
0.439746	1.643233
0.439844	1.636431
0.439941	1.656152
0.440039	1.644628
0.440137	1.623735
0.440234	1.640977
0.440332	1.603702
0.440430	1.583139
0.440527	1.585255
0.440625	1.617232
0.440723	1.616922
0.440820	1.666320
0.440918	1.631370
0.441016	1.581811
0.441113	1.601070
0.441211	1.610391
0.441309	1.617954
0.441406	1.600166
0.441504	1.599542
0.441602	1.586627
0.441699	1.581644
0.441797	1.587067
0.441895	1.593901
0.441992	1.602438
0.442090	1.586337
0.442187	1.583630
0.442285	1.578448
0.442383	1.557771
0.442480	1.551462
0.442578	1.531817
0.442676	1.532994
0.442773	1.565001
0.442871	1.581091
0.442969	1.591202
0.443066	1.601063
0.443164	1.599785
0.443262	1.590755
0.443359	1.614394
0.443457	1.617063
0.443555	1.611757
0.443652	1.619681
0.443750	1.620157
0.443848	1.621779
0.443945	1.628737
0.444043	1.631339
0.444141	1.629838
0.444238	1.629828
0.444336	1.632134
0.444434	1.634737
0.444531	1.635402
0.444629	1.635090
0.444727	1.634157
0.444824	1.633366
0.444922	1.632723
0.445020	1.632362
0.445117	1.632427
0.445215	1.632142
0.445312	1.630101
0.445410	1.628046
0.445508	1.626962
0.445605	1.626485
0.445703	1.626196
0.445801	1.626105
0.445898	1.626212
0.445996	1.626260
0.446094	1.626596
0.446191	1.627032
0.446289	1.627602
0.446387	1.628410
0.446484	1.629289
0.446582	1.630274
0.446680	1.631246
0.446777	1.632345
0.446875	1.633344
0.446973	1.634491
0.447070	1.635738
0.447168	1.637218
0.447266	1.638758
0.447363	1.640700
0.447461	1.642567
0.447559	1.644957
0.447656	1.647142
0.447754	1.649931
0.447852	1.652933
0.447949	1.659457
0.448047	1.657771
0.448145	1.656868
0.448242	1.651028
0.448340	1.652395
0.448437	1.657956
0.448535	1.661019
0.448633	1.665629
0.448730	1.669851
0.448828	1.664717
0.448926	1.657240
0.449023	1.660953
0.449121	1.659209
0.449219	1.659851
0.449316	1.659921
0.449414	1.660615
0.449512	1.661702
0.449609	1.662728
0.449707	1.664690
0.449805	1.666231
0.449902	1.669909
0.450000	1.672701
0.450098	1.674802
0.450195	1.675093
0.450293	1.677297
0.450391	1.675254
0.450488	1.691083
0.450586	1.681314
0.450684	1.652711
0.450781	1.644185
0.450879	1.639973
0.450977	1.590936
0.451074	1.544517
0.451172	1.541437
0.451270	1.565758
0.451367	1.614582
0.451465	1.571687
0.451562	1.533285
0.451660	1.520102
0.451758	1.535917
0.451855	1.527980
0.451953	1.535414
0.452051	1.504745
0.452148	1.462214
0.452246	1.455437
0.452344	1.458901
0.452441	1.464780
0.452539	1.470918
0.452637	1.463614
0.452734	1.442671
0.452832	1.407402
0.452930	1.432654
0.453027	1.491078
0.453125	1.472445
0.453223	1.458227
0.453320	1.480070
0.453418	1.508602
0.453516	1.496006
0.453613	1.498970
0.453711	1.518230
0.453809	1.531898
0.453906	1.557863
0.454004	1.549535
0.454102	1.526629
0.454199	1.508322
0.454297	1.534982
0.454395	1.551291
0.454492	1.558830
0.454590	1.555671
0.454687	1.532896
0.454785	1.528146
0.454883	1.566892
0.454980	1.577462
0.455078	1.561194
0.455176	1.574702
0.455273	1.551912
0.455371	1.525608
0.455469	1.534262
0.455566	1.535443
0.455664	1.543336
0.455762	1.538946
0.455859	1.528326
0.455957	1.526777
0.456055	1.526161
0.456152	1.520132
0.456250	1.502207
0.456348	1.498203
0.456445	1.505672
0.456543	1.482622
0.456641	1.455634
0.456738	1.470245
0.456836	1.485096
0.456934	1.483971
0.457031	1.486899
0.457129	1.453451
0.457227	1.422693
0.457324	1.453716
0.457422	1.470648
0.457520	1.472908
0.457617	1.472666
0.457715	1.459578
0.457812	1.448932
0.457910	1.443001
0.458008	1.467316
0.458105	1.515153
0.458203	1.540256
0.458301	1.547906
0.458398	1.529475
0.458496	1.494099
0.458594	1.492132
0.458691	1.528257
0.458789	1.568188
0.458887	1.603742
0.458984	1.621777
0.459082	1.613389
0.459180	1.605506
0.459277	1.600159
0.459375	1.581102
0.459473	1.574154
0.459570	1.576445
0.459668	1.579312
0.459766	1.547866
0.459863	1.525360
0.459961	1.535402
0.460059	1.565417
0.460156	1.596344
0.460254	1.624915
0.460352	1.622577
0.460449	1.607006
0.460547	1.604475
0.460645	1.611325
0.460742	1.612143
0.460840	1.610864
0.460937	1.616825
0.461035	1.621392
0.461133	1.621201
0.461230	1.618523
0.461328	1.616545
0.461426	1.617033
0.461523	1.620175
0.461621	1.624385
0.461719	1.629095
0.461816	1.634121
0.461914	1.636439
0.462012	1.637787
0.462109	1.640381
0.462207	1.644292
0.462305	1.648414
0.462402	1.653316
0.462500	1.656671
0.462598	1.659419
0.462695	1.659478
0.462793	1.666100
0.462891	1.663369
0.462988	1.662370
0.463086	1.664930
0.463184	1.660695
0.463281	1.661183
0.463379	1.659882
0.463477	1.661977
0.463574	1.662982
0.463672	1.666841
0.463770	1.668575
0.463867	1.671248
0.463965	1.672009
0.464062	1.674784
0.464160	1.677685
0.464258	1.683416
0.464355	1.665820
0.464453	1.684691
0.464551	1.683488
0.464648	1.653377
0.464746	1.631666
0.464844	1.663711
0.464941	1.682186
0.465039	1.688317
0.465137	1.694579
0.465234	1.707143
0.465332	1.713951
0.465430	1.694071
0.465527	1.698552
0.465625	1.704302
0.465723	1.688027
0.465820	1.689552
0.465918	1.696881
0.466016	1.693781
0.466113	1.682766
0.466211	1.674465
0.466309	1.677615
0.466406	1.718171
0.466504	1.709152
0.466602	1.707020
0.466699	1.707433
0.466797	1.703781
0.466895	1.716738
0.466992	1.708794
0.467090	1.698321
0.467187	1.696321
0.467285	1.700000
0.467383	1.713538
0.467480	1.710902
0.467578	1.705418
0.467676	1.709141
0.467773	1.706479
0.467871	1.699956
0.467969	1.695716
0.468066	1.687988
0.468164	1.689182
0.468262	1.692700
0.468359	1.689254
0.468457	1.683683
0.468555	1.682333
0.468652	1.680669
0.468750	1.681104
0.468848	1.681908
0.468945	1.684401
0.469043	1.674843
0.469141	1.676331
0.469238	1.678662
0.469336	1.676522
0.469434	1.679613
0.469531	1.669448
0.469629	1.657298
0.469727	1.655476
0.469824	1.642327
0.469922	1.632874
0.470020	1.599424
0.470117	1.643371
0.470215	1.660279
0.470312	1.616261
0.470410	1.589981
0.470508	1.559651
0.470605	1.550911
0.470703	1.583184
0.470801	1.619698
0.470898	1.591016
0.470996	1.575456
0.471094	1.575657
0.471191	1.578503
0.471289	1.606461
0.471387	1.624594
0.471484	1.640890
0.471582	1.637643
0.471680	1.617177
0.471777	1.592610
0.471875	1.574717
0.471973	1.601936
0.472070	1.591021
0.472168	1.571036
0.472266	1.555564
0.472363	1.551157
0.472461	1.547004
0.472559	1.532285
0.472656	1.496314
0.472754	1.432055
0.472852	1.390330
0.472949	1.388586
0.473047	1.429403
0.473145	1.492324
0.473242	1.513711
0.473340	1.514902
0.473437	1.537653
0.473535	1.547541
0.473633	1.493219
0.473730	1.483027
0.473828	1.525632
0.473926	1.565404
0.474023	1.582363
0.474121	1.591848
0.474219	1.600203
0.474316	1.594252
0.474414	1.590626
0.474512	1.591337
0.474609	1.595762
0.474707	1.602703
0.474805	1.606678
0.474902	1.616198
0.475000	1.615112
0.475098	1.594968
0.475195	1.587030
0.475293	1.586268
0.475391	1.594951
0.475488	1.597471
0.475586	1.604080
0.475684	1.606338
0.475781	1.607717
0.475879	1.612638
0.475977	1.614363
0.476074	1.614953
0.476172	1.617506
0.476270	1.619512
0.476367	1.621846
0.476465	1.624157
0.476562	1.627746
0.476660	1.631463
0.476758	1.633485
0.476855	1.635014
0.476953	1.637557
0.477051	1.641105
0.477148	1.645656
0.477246	1.651261
0.477344	1.657995
0.477441	1.655147
0.477539	1.657893
0.477637	1.660775
0.477734	1.661392
0.477832	1.663823
0.477930	1.665930
0.478027	1.667593
0.478125	1.671980
0.478223	1.670730
0.478320	1.666992
0.478418	1.674295
0.478516	1.677687
0.478613	1.681529
0.478711	1.685270
0.478809	1.690547
0.478906	1.692886
0.479004	1.694862
0.479102	1.696640
0.479199	1.702181
0.479297	1.704147
0.479395	1.705571
0.479492	1.704999
0.479590	1.706975
0.479687	1.709736
0.479785	1.718774
0.479883	1.711614
0.479980	1.699309
0.480078	1.706991
0.480176	1.698886
0.480273	1.696515
0.480371	1.699314
0.480469	1.695033
0.480566	1.690433
0.480664	1.690700
0.480762	1.697097
0.480859	1.692921
0.480957	1.693234
0.481055	1.679373
0.481152	1.639814
0.481250	1.668641
0.481348	1.677762
0.481445	1.689862
0.481543	1.645258
0.481641	1.664822
0.481738	1.686458
0.481836	1.690743
0.481934	1.688483
0.482031	1.691462
0.482129	1.692045
0.482227	1.693923
0.482324	1.695652
0.482422	1.697665
0.482520	1.694132
0.482617	1.690303
0.482715	1.693030
0.482812	1.692385
0.482910	1.696232
0.483008	1.692531
0.483105	1.683545
0.483203	1.662677
0.483301	1.641319
0.483398	1.620053
0.483496	1.616812
0.483594	1.605044
0.483691	1.635252
0.483789	1.632193
0.483887	1.648833
0.483984	1.656114
0.484082	1.630318
0.484180	1.615519
0.484277	1.613388
0.484375	1.627099
0.484473	1.627155
0.484570	1.585637
0.484668	1.552420
0.484766	1.594149
0.484863	1.605199
0.484961	1.591594
0.485059	1.606393
0.485156	1.602849
0.485254	1.586360
0.485352	1.587743
0.485449	1.584177
0.485547	1.599712
0.485645	1.605848
0.485742	1.643729
0.485840	1.644148
0.485937	1.632585
0.486035	1.645155
0.486133	1.636010
0.486230	1.625594
0.486328	1.629437
0.486426	1.612528
0.486523	1.574143
0.486621	1.553410
0.486719	1.540565
0.486816	1.526275
0.486914	1.556592
0.487012	1.563310
0.487109	1.583026
0.487207	1.602582
0.487305	1.596372
0.487402	1.573454
0.487500	1.541449
0.487598	1.606668
0.487695	1.640486
0.487793	1.629803
0.487891	1.636143
0.487988	1.635231
0.488086	1.635652
0.488184	1.627688
0.488281	1.626434
0.488379	1.619636
0.488477	1.614179
0.488574	1.614710
0.488672	1.617298
0.488770	1.611675
0.488867	1.626332
0.488965	1.644603
0.489062	1.612552
0.489160	1.559127
0.489258	1.517757
0.489355	1.504839
0.489453	1.479126
0.489551	1.462531
0.489648	1.446582
0.489746	1.435094
0.489844	1.423969
0.489941	1.409894
0.490039	1.420132
0.490137	1.440478
0.490234	1.457113
0.490332	1.461510
0.490430	1.452059
0.490527	1.455054
0.490625	1.446531
0.490723	1.449963
0.490820	1.441443
0.490918	1.473674
0.491016	1.528669
0.491113	1.548953
0.491211	1.548931
0.491309	1.560080
0.491406	1.591456
0.491504	1.604478
0.491602	1.584072
0.491699	1.585449
0.491797	1.593570
0.491895	1.603301
0.491992	1.633150
0.492090	1.657832
0.492187	1.649287
0.492285	1.672143
0.492383	1.681258
0.492480	1.678545
0.492578	1.675037
0.492676	1.670967
0.492773	1.653062
0.492871	1.639680
0.492969	1.640577
0.493066	1.656675
0.493164	1.663229
0.493262	1.647485
0.493359	1.642696
0.493457	1.640945
0.493555	1.641016
0.493652	1.641249
0.493750	1.642876
0.493848	1.646449
0.493945	1.651582
0.494043	1.656648
0.494141	1.662189
0.494238	1.663168
0.494336	1.660386
0.494434	1.656952
0.494531	1.655365
0.494629	1.654738
0.494727	1.654908
0.494824	1.655397
0.494922	1.656329
0.495020	1.657209
0.495117	1.658575
0.495215	1.660081
0.495312	1.661736
0.495410	1.662979
0.495508	1.663664
0.495605	1.663982
0.495703	1.664303
0.495801	1.664887
0.495898	1.665787
0.495996	1.666921
0.496094	1.667961
0.496191	1.669187
0.496289	1.670223
0.496387	1.671497
0.496484	1.672641
0.496582	1.674099
0.496680	1.675461
0.496777	1.677742
0.496875	1.680616
0.496973	1.682551
0.497070	1.680204
0.497168	1.678553
0.497266	1.680234
0.497363	1.681440
0.497461	1.683861
0.497559	1.686878
0.497656	1.690403
0.497754	1.679570
0.497852	1.657353
0.497949	1.655850
0.498047	1.675071
0.498145	1.677647
0.498242	1.677740
0.498340	1.659438
0.498437	1.650833
0.498535	1.650117
0.498633	1.646410
0.498730	1.615588
0.498828	1.631966
0.498926	1.668734
0.499023	1.672671
0.499121	1.681643
0.499219	1.682534
0.499316	1.674016
0.499414	1.667813
0.499512	1.684203
0.499609	1.679792
0.499707	1.690315
0.499805	1.701185
0.499902	1.710520
0.500000	1.722880
0.500098	1.718195
0.500195	1.715375
0.500293	1.709592
0.500391	1.700723
0.500488	1.702616
0.500586	1.700959
0.500684	1.703236
0.500781	1.704519
0.500879	1.695293
0.500977	1.691130
0.501074	1.687343
0.501172	1.685905
0.501270	1.689989
0.501367	1.690886
0.501465	1.691031
0.501562	1.693315
0.501660	1.687007
0.501758	1.676644
0.501855	1.664032
0.501953	1.663983
0.502051	1.665385
0.502148	1.648493
0.502246	1.645266
0.502344	1.624511
0.502441	1.625993
0.502539	1.647686
0.502637	1.627800
0.502734	1.618133
0.502832	1.628545
0.502930	1.642809
0.503027	1.643088
0.503125	1.641608
0.503223	1.641019
0.503320	1.640320
0.503418	1.640408
0.503516	1.640483
0.503613	1.641098
0.503711	1.641313
0.503809	1.642439
0.503906	1.643656
0.504004	1.652255
0.504102	1.668418
0.504199	1.666908
0.504297	1.660891
0.504395	1.663123
0.504492	1.669150
0.504590	1.674905
0.504687	1.684705
0.504785	1.685488
0.504883	1.680874
0.504980	1.676166
0.505078	1.659010
0.505176	1.628981
0.505273	1.606602
0.505371	1.565204
0.505469	1.525783
0.505566	1.541670
0.505664	1.601644
0.505762	1.634678
0.505859	1.629782
0.505957	1.630361
0.506055	1.633736
0.506152	1.632467
0.506250	1.630750
0.506348	1.630433
0.506445	1.629475
0.506543	1.629050
0.506641	1.629239
0.506738	1.630626
0.506836	1.631902
0.506934	1.634136
0.507031	1.634570
0.507129	1.628698
0.507227	1.631636
0.507324	1.633673
0.507422	1.635317
0.507520	1.637177
0.507617	1.638649
0.507715	1.639989
0.507812	1.640910
0.507910	1.642028
0.508008	1.643030
0.508105	1.644311
0.508203	1.645742
0.508301	1.647835
0.508398	1.650167
0.508496	1.653624
0.508594	1.657561
0.508691	1.662291
0.508789	1.667197
0.508887	1.672986
0.508984	1.676372
0.509082	1.680434
0.509180	1.683038
0.509277	1.684962
0.509375	1.685326
0.509473	1.685042
0.509570	1.684022
0.509668	1.684443
0.509766	1.684976
0.509863	1.687454
0.509961	1.687112
0.510059	1.691136
0.510156	1.691145
0.510254	1.693815
0.510352	1.699229
0.510449	1.704484
0.510547	1.716010
0.510645	1.710046
0.510742	1.671882
0.510840	1.674819
0.510937	1.667649
0.511035	1.652222
0.511133	1.675280
0.511230	1.649616
0.511328	1.634927
0.511426	1.635360
0.511523	1.626178
0.511621	1.617583
0.511719	1.606984
0.511816	1.649616
0.511914	1.656825
0.512012	1.664454
0.512109	1.652342
0.512207	1.640350
0.512305	1.629554
0.512402	1.611439
0.512500	1.584787
0.512598	1.566457
0.512695	1.571332
0.512793	1.602507
0.512891	1.611557
0.512988	1.617501
0.513086	1.627973
0.513184	1.621762
0.513281	1.592343
0.513379	1.565879
0.513477	1.558019
0.513574	1.559975
0.513672	1.553798
0.513770	1.572961
0.513867	1.610690
0.513965	1.588756
0.514062	1.562976
0.514160	1.555344
0.514258	1.547378
0.514355	1.535444
0.514453	1.529414
0.514551	1.538733
0.514648	1.548459
0.514746	1.553129
0.514844	1.558598
0.514941	1.564118
0.515039	1.571285
0.515137	1.540232
0.515234	1.544438
0.515332	1.574026
0.515430	1.558363
0.515527	1.523272
0.515625	1.493691
0.515723	1.486734
0.515820	1.493441
0.515918	1.488173
0.516016	1.487036
0.516113	1.495142
0.516211	1.497708
0.516309	1.510276
0.516406	1.522025
0.516504	1.533714
0.516602	1.516633
0.516699	1.505479
0.516797	1.497780
0.516895	1.515566
0.516992	1.530372
0.517090	1.522225
0.517187	1.549351
0.517285	1.567381
0.517383	1.597077
0.517480	1.600007
0.517578	1.568113
0.517676	1.538643
0.517773	1.528857
0.517871	1.538898
0.517969	1.532744
0.518066	1.495790
0.518164	1.486499
0.518262	1.531188
0.518359	1.554160
0.518457	1.590089
0.518555	1.606189
0.518652	1.607786
0.518750	1.590466
0.518848	1.586177
0.518945	1.552716
0.519043	1.494397
0.519141	1.472436
0.519238	1.521047
0.519336	1.543586
0.519434	1.570094
0.519531	1.610386
0.519629	1.598362
0.519727	1.572992
0.519824	1.553627
0.519922	1.560920
0.520020	1.590407
0.520117	1.628581
0.520215	1.628711
0.520312	1.617907
0.520410	1.608166
0.520508	1.627902
0.520605	1.649289
0.520703	1.641156
0.520801	1.626074
0.520898	1.647700
0.520996	1.644260
0.521094	1.656403
0.521191	1.659126
0.521289	1.646609
0.521387	1.648586
0.521484	1.654446
0.521582	1.642174
0.521680	1.635457
0.521777	1.632652
0.521875	1.631862
0.521973	1.634539
0.522070	1.639821
0.522168	1.644242
0.522266	1.638648
0.522363	1.627532
0.522461	1.637031
0.522559	1.643755
0.522656	1.659454
0.522754	1.645041
0.522852	1.634380
0.522949	1.611834
0.523047	1.616136
0.523145	1.659052
0.523242	1.651883
0.523340	1.648954
0.523437	1.654816
0.523535	1.655714
0.523633	1.645703
0.523730	1.646941
0.523828	1.645434
0.523926	1.644242
0.524023	1.641550
0.524121	1.644054
0.524219	1.644688
0.524316	1.646824
0.524414	1.647632
0.524512	1.649282
0.524609	1.649893
0.524707	1.651078
0.524805	1.651909
0.524902	1.653515
0.525000	1.654902
0.525098	1.657063
0.525195	1.659122
0.525293	1.661601
0.525391	1.663993
0.525488	1.669046
0.525586	1.676699
0.525684	1.673402
0.525781	1.672913
0.525879	1.673896
0.525977	1.672088
0.526074	1.669769
0.526172	1.670694
0.526270	1.670788
0.526367	1.669592
0.526465	1.671262
0.526562	1.673267
0.526660	1.675272
0.526758	1.677758
0.526855	1.679771
0.526953	1.680059
0.527051	1.679817
0.527148	1.678680
0.527246	1.675647
0.527344	1.674800
0.527441	1.668011
0.527539	1.659671
0.527637	1.640403
0.527734	1.601787
0.527832	1.572753
0.527930	1.599351
0.528027	1.611806
0.528125	1.669661
0.528223	1.685519
0.528320	1.682699
0.528418	1.690147
0.528516	1.685131
0.528613	1.684711
0.528711	1.683156
0.528809	1.687899
0.528906	1.691890
0.529004	1.686748
0.529102	1.671542
0.529199	1.673137
0.529297	1.651019
0.529395	1.652470
0.529492	1.660856
0.529590	1.632572
0.529687	1.617583
0.529785	1.604568
0.529883	1.624862
0.529980	1.624755
0.530078	1.620351
0.530176	1.604639
0.530273	1.627337
0.530371	1.649440
0.530469	1.615310
0.530566	1.626390
0.530664	1.634136
0.530762	1.592162
0.530859	1.587378
0.530957	1.615509
0.531055	1.647067
0.531152	1.654350
0.531250	1.656121
0.531348	1.672641
0.531445	1.643981
0.531543	1.601812
0.531641	1.627230
0.531738	1.600471
0.531836	1.601934
0.531934	1.626598
0.532031	1.627831
0.532129	1.622375
0.532227	1.610642
0.532324	1.594096
0.532422	1.579292
0.532520	1.555090
0.532617	1.540851
0.532715	1.548471
0.532812	1.531675
0.532910	1.538761
0.533008	1.520019
0.533105	1.538547
0.533203	1.556438
0.533301	1.553414
0.533398	1.549211
0.533496	1.539214
0.533594	1.537187
0.533691	1.529928
0.533789	1.522416
0.533887	1.494190
0.533984	1.466435
0.534082	1.463559
0.534180	1.459608
0.534277	1.447877
0.534375	1.441086
0.534473	1.439062
0.534570	1.442008
0.534668	1.439194
0.534766	1.437244
0.534863	1.443298
0.534961	1.449010
0.535059	1.441796
0.535156	1.439225
0.535254	1.444908
0.535352	1.442081
0.535449	1.426968
0.535547	1.403549
0.535645	1.379807
0.535742	1.362850
0.535840	1.352795
0.535937	1.344164
0.536035	1.337831
0.536133	1.333066
0.536230	1.341355
0.536328	1.385828
0.536426	1.436458
0.536523	1.467913
0.536621	1.468668
0.536719	1.456256
0.536816	1.438410
0.536914	1.460501
0.537012	1.490989
0.537109	1.507155
0.537207	1.528749
0.537305	1.539726
0.537402	1.548504
0.537500	1.541107
0.537598	1.534629
0.537695	1.563640
0.537793	1.584151
0.537891	1.595151
0.537988	1.592414
0.538086	1.588820
0.538184	1.592508
0.538281	1.594494
0.538379	1.597267
0.538477	1.599061
0.538574	1.601330
0.538672	1.603241
0.538770	1.606158
0.538867	1.608555
0.538965	1.610476
0.539062	1.610239
0.539160	1.618988
0.539258	1.629294
0.539355	1.637743
0.539453	1.631506
0.539551	1.632178
0.539648	1.629271
0.539746	1.625036
0.539844	1.626598
0.539941	1.618551
0.540039	1.634431
0.540137	1.636156
0.540234	1.638599
0.540332	1.638637
0.540430	1.633778
0.540527	1.641109
0.540625	1.645627
0.540723	1.643680
0.540820	1.640728
0.540918	1.649873
0.541016	1.643954
0.541113	1.628466
0.541211	1.623640
0.541309	1.620113
0.541406	1.626551
0.541504	1.636800
0.541602	1.652719
0.541699	1.658386
0.541797	1.658732
0.541895	1.663702
0.541992	1.668946
0.542090	1.664572
0.542187	1.652974
0.542285	1.655685
0.542383	1.660568
0.542480	1.665072
0.542578	1.632711
0.542676	1.602119
0.542773	1.588980
0.542871	1.593987
0.542969	1.590631
0.543066	1.592136
0.543164	1.591084
0.543262	1.579411
0.543359	1.573765
0.543457	1.573210
0.543555	1.569187
0.543652	1.559587
0.543750	1.521025
0.543848	1.496637
0.543945	1.515611
0.544043	1.527084
0.544141	1.533810
0.544238	1.541672
0.544336	1.546033
0.544434	1.570014
0.544531	1.568595
0.544629	1.567086
0.544727	1.551975
0.544824	1.517985
0.544922	1.525434
0.545020	1.560242
0.545117	1.563440
0.545215	1.549145
0.545312	1.535579
0.545410	1.534535
0.545508	1.531504
0.545605	1.513818
0.545703	1.505121
0.545801	1.500027
0.545898	1.484272
0.545996	1.509835
0.546094	1.560554
0.546191	1.582474
0.546289	1.565364
0.546387	1.527631
0.546484	1.524009
0.546582	1.547398
0.546680	1.566267
0.546777	1.617874
0.546875	1.646425
0.546973	1.658158
0.547070	1.647587
0.547168	1.598188
0.547266	1.560138
0.547363	1.560910
0.547461	1.560479
0.547559	1.543690
0.547656	1.520157
0.547754	1.473321
0.547852	1.461339
0.547949	1.530009
0.548047	1.556781
0.548145	1.549668
0.548242	1.545825
0.548340	1.513654
0.548437	1.504643
0.548535	1.488905
0.548633	1.520055
0.548730	1.522937
0.548828	1.550183
0.548926	1.542094
0.549023	1.547762
0.549121	1.544934
0.549219	1.535250
0.549316	1.510138
0.549414	1.511381
0.549512	1.553556
0.549609	1.568977
0.549707	1.541249
0.549805	1.526682
0.549902	1.518011
0.550000	1.533928
0.550098	1.562944
0.550195	1.545228
0.550293	1.521826
0.550391	1.504877
0.550488	1.497988
0.550586	1.482615
0.550684	1.475706
0.550781	1.469803
0.550879	1.453710
0.550977	1.450636
0.551074	1.487404
0.551172	1.509752
0.551270	1.508737
0.551367	1.509823
0.551465	1.497638
0.551562	1.493191
0.551660	1.465497
0.551758	1.451724
0.551855	1.443500
0.551953	1.443576
0.552051	1.445904
0.552148	1.440990
0.552246	1.424349
0.552344	1.400561
0.552441	1.357822
0.552539	1.334295
0.552637	1.341439
0.552734	1.341484
0.552832	1.348737
0.552930	1.377581
0.553027	1.380715
0.553125	1.379668
0.553223	1.383733
0.553320	1.395792
0.553418	1.403095
0.553516	1.438736
0.553613	1.489389
0.553711	1.450686
0.553809	1.420850
0.553906	1.465015
0.554004	1.484982
0.554102	1.481118
0.554199	1.481062
0.554297	1.462877
0.554395	1.418820
0.554492	1.380959
0.554590	1.377670
0.554687	1.434758
0.554785	1.493099
0.554883	1.524609
0.554980	1.536649
0.555078	1.547935
0.555176	1.551518
0.555273	1.565798
0.555371	1.580455
0.555469	1.588781
0.555566	1.593462
0.555664	1.596353
0.555762	1.598848
0.555859	1.604556
0.555957	1.593056
0.556055	1.594341
0.556152	1.605665
0.556250	1.598772
0.556348	1.612763
0.556445	1.632909
0.556543	1.641071
0.556641	1.626103
0.556738	1.599490
0.556836	1.600707
0.556934	1.610925
0.557031	1.626691
0.557129	1.622966
0.557227	1.609400
0.557324	1.598817
0.557422	1.616654
0.557520	1.636439
0.557617	1.622495
0.557715	1.612793
0.557812	1.604096
0.557910	1.631531
0.558008	1.640397
0.558105	1.645561
0.558203	1.636092
0.558301	1.641024
0.558398	1.652160
0.558496	1.663344
0.558594	1.659950
0.558691	1.658887
0.558789	1.661265
0.558887	1.671292
0.558984	1.663616
0.559082	1.656862
0.559180	1.661378
0.559277	1.660015
0.559375	1.655798
0.559473	1.657509
0.559570	1.656527
0.559668	1.660084
0.559766	1.663532
0.559863	1.668822
0.559961	1.671990
0.560059	1.686671
0.560156	1.691211
0.560254	1.684190
0.560352	1.698446
0.560449	1.694552
0.560547	1.700440
0.560645	1.681578
0.560742	1.698711
0.560840	1.694022
0.560937	1.685622
0.561035	1.686930
0.561133	1.679987
0.561230	1.648874
0.561328	1.648907
0.561426	1.636772
0.561523	1.621474
0.561621	1.629477
0.561719	1.640061
0.561816	1.637197
0.561914	1.634511
0.562012	1.627035
0.562109	1.625136
0.562207	1.637784
0.562305	1.641879
0.562402	1.633372
0.562500	1.638713
0.562598	1.657684
0.562695	1.672505
0.562793	1.680635
0.562891	1.689577
0.562988	1.689442
0.563086	1.685388
0.563184	1.687098
0.563281	1.691906
0.563379	1.693643
0.563477	1.673319
0.563574	1.655825
0.563672	1.655596
0.563770	1.650712
0.563867	1.648112
0.563965	1.639633
0.564062	1.637158
0.564160	1.642455
0.564258	1.662084
0.564355	1.666574
0.564453	1.667163
0.564551	1.669742
0.564648	1.674133
0.564746	1.686792
0.564844	1.692427
0.564941	1.693675
0.565039	1.691823
0.565137	1.693448
0.565234	1.689750
0.565332	1.691976
0.565430	1.658583
0.565527	1.624252
0.565625	1.609318
0.565723	1.613562
0.565820	1.617807
0.565918	1.630406
0.566016	1.642176
0.566113	1.634820
0.566211	1.630526
0.566309	1.666448
0.566406	1.676472
0.566504	1.658624
0.566602	1.662024
0.566699	1.660781
0.566797	1.664927
0.566895	1.668184
0.566992	1.661966
0.567090	1.649496
0.567187	1.645712
0.567285	1.626810
0.567383	1.609799
0.567480	1.597846
0.567578	1.606241
0.567676	1.600181
0.567773	1.611372
0.567871	1.632497
0.567969	1.650621
0.568066	1.658552
0.568164	1.667038
0.568262	1.679556
0.568359	1.674879
0.568457	1.619897
0.568555	1.601092
0.568652	1.632787
0.568750	1.662591
0.568848	1.675045
0.568945	1.672272
0.569043	1.637391
0.569141	1.601892
0.569238	1.640640
0.569336	1.659275
0.569434	1.634153
0.569531	1.616708
0.569629	1.617268
0.569727	1.640412
0.569824	1.655439
0.569922	1.642202
0.570020	1.652029
0.570117	1.647150
0.570215	1.626759
0.570312	1.608983
0.570410	1.619805
0.570508	1.600826
0.570605	1.598703
0.570703	1.589102
0.570801	1.582076
0.570898	1.573770
0.570996	1.572422
0.571094	1.556246
0.571191	1.552101
0.571289	1.586299
0.571387	1.568565
0.571484	1.547383
0.571582	1.537900
0.571680	1.531235
0.571777	1.521058
0.571875	1.532451
0.571973	1.537956
0.572070	1.554563
0.572168	1.577428
0.572266	1.570777
0.572363	1.580590
0.572461	1.596221
0.572559	1.582898
0.572656	1.579094
0.572754	1.582080
0.572852	1.584130
0.572949	1.580747
0.573047	1.572722
0.573145	1.571313
0.573242	1.557524
0.573340	1.543356
0.573437	1.550383
0.573535	1.557850
0.573633	1.549183
0.573730	1.578802
0.573828	1.583168
0.573926	1.590988
0.574023	1.606063
0.574121	1.612091
0.574219	1.621192
0.574316	1.616711
0.574414	1.617649
0.574512	1.613353
0.574609	1.609306
0.574707	1.609805
0.574805	1.605837
0.574902	1.610106
0.575000	1.618301
0.575098	1.625179
0.575195	1.626399
0.575293	1.619770
0.575391	1.612954
0.575488	1.619895
0.575586	1.616527
0.575684	1.621316
0.575781	1.620619
0.575879	1.618568
0.575977	1.618730
0.576074	1.612962
0.576172	1.611556
0.576270	1.614630
0.576367	1.620977
0.576465	1.620770
0.576562	1.626290
0.576660	1.621338
0.576758	1.616348
0.576855	1.606331
0.576953	1.603178
0.577051	1.601666
0.577148	1.603558
0.577246	1.593504
0.577344	1.595080
0.577441	1.597921
0.577539	1.592530
0.577637	1.623070
0.577734	1.629439
0.577832	1.615411
0.577930	1.635461
0.578027	1.666406
0.578125	1.673033
0.578223	1.675883
0.578320	1.680576
0.578418	1.672901
0.578516	1.647150
0.578613	1.626973
0.578711	1.580189
0.578809	1.563485
0.578906	1.606034
0.579004	1.620014
0.579102	1.633393
0.579199	1.644530
0.579297	1.632453
0.579395	1.630681
0.579492	1.625982
0.579590	1.607592
0.579687	1.583337
0.579785	1.572997
0.579883	1.559299
0.579980	1.572854
0.580078	1.602757
0.580176	1.612954
0.580273	1.629070
0.580371	1.655762
0.580469	1.669380
0.580566	1.672021
0.580664	1.669204
0.580762	1.666131
0.580859	1.662166
0.580957	1.660372
0.581055	1.659546
0.581152	1.662879
0.581250	1.661207
0.581348	1.652204
0.581445	1.655997
0.581543	1.654703
0.581641	1.657082
0.581738	1.645831
0.581836	1.638663
0.581934	1.653781
0.582031	1.674762
0.582129	1.670716
0.582227	1.662898
0.582324	1.656910
0.582422	1.655349
0.582520	1.659479
0.582617	1.645845
0.582715	1.625329
0.582812	1.624088
0.582910	1.643613
0.583008	1.673448
0.583105	1.670556
0.583203	1.649572
0.583301	1.655841
0.583398	1.661204
0.583496	1.666547
0.583594	1.663718
0.583691	1.654987
0.583789	1.639691
0.583887	1.658079
0.583984	1.685872
0.584082	1.674505
0.584180	1.645538
0.584277	1.636128
0.584375	1.643961
0.584473	1.675105
0.584570	1.655947
0.584668	1.632139
0.584766	1.631201
0.584863	1.619529
0.584961	1.639882
0.585059	1.649049
0.585156	1.610759
0.585254	1.581789
0.585352	1.590492
0.585449	1.593830
0.585547	1.580949
0.585645	1.583733
0.585742	1.587859
0.585840	1.581124
0.585937	1.576672
0.586035	1.583265
0.586133	1.606061
0.586230	1.614114
0.586328	1.620489
0.586426	1.623887
0.586523	1.605369
0.586621	1.615629
0.586719	1.624253
0.586816	1.622483
0.586914	1.621691
0.587012	1.612241
0.587109	1.623361
0.587207	1.646038
0.587305	1.647532
0.587402	1.602983
0.587500	1.555381
0.587598	1.551128
0.587695	1.559556
0.587793	1.583433
0.587891	1.581501
0.587988	1.561007
0.588086	1.552370
0.588184	1.550259
0.588281	1.559564
0.588379	1.564059
0.588477	1.569378
0.588574	1.562290
0.588672	1.576510
0.588770	1.582202
0.588867	1.566809
0.588965	1.544453
0.589062	1.533837
0.589160	1.554144
0.589258	1.579698
0.589355	1.581838
0.589453	1.569012
0.589551	1.551464
0.589648	1.566435
0.589746	1.558116
0.589844	1.567293
0.589941	1.589521
0.590039	1.579004
0.590137	1.553909
0.590234	1.560796
0.590332	1.572449
0.590430	1.561478
0.590527	1.579890
0.590625	1.591545
0.590723	1.601982
0.590820	1.605837
0.590918	1.602340
0.591016	1.620433
0.591113	1.632475
0.591211	1.639728
0.591309	1.641846
0.591406	1.642937
0.591504	1.643177
0.591602	1.633623
0.591699	1.631844
0.591797	1.629959
0.591895	1.619602
0.591992	1.610413
0.592090	1.605264
0.592187	1.626345
0.592285	1.630979
0.592383	1.636881
0.592480	1.651332
0.592578	1.645578
0.592676	1.662678
0.592773	1.679122
0.592871	1.662465
0.592969	1.658287
0.593066	1.659666
0.593164	1.657327
0.593262	1.649895
0.593359	1.636101
0.593457	1.628384
0.593555	1.611504
0.593652	1.611887
0.593750	1.619316
0.593848	1.625045
0.593945	1.621656
0.594043	1.616742
0.594141	1.627077
0.594238	1.649698
0.594336	1.663868
0.594434	1.662428
0.594531	1.657245
0.594629	1.644495
0.594727	1.650169
0.594824	1.660382
0.594922	1.660417
0.595020	1.661042
0.595117	1.660039
0.595215	1.659422
0.595312	1.658987
0.595410	1.658837
0.595508	1.660718
0.595605	1.661324
0.595703	1.657481
0.595801	1.659457
0.595898	1.659785
0.595996	1.661169
0.596094	1.662744
0.596191	1.664728
0.596289	1.668174
0.596387	1.671963
0.596484	1.675172
0.596582	1.674226
0.596680	1.675401
0.596777	1.672143
0.596875	1.663827
0.596973	1.648962
0.597070	1.651730
0.597168	1.664070
0.597266	1.660872
0.597363	1.671325
0.597461	1.668122
0.597559	1.667626
0.597656	1.664098
0.597754	1.661174
0.597852	1.676399
0.597949	1.669550
0.598047	1.629041
0.598145	1.639750
0.598242	1.644723
0.598340	1.628412
0.598437	1.611088
0.598535	1.587424
0.598633	1.560682
0.598730	1.546885
0.598828	1.540244
0.598926	1.526605
0.599023	1.513255
0.599121	1.513980
0.599219	1.517523
0.599316	1.532360
0.599414	1.543198
0.599512	1.515004
0.599609	1.501388
0.599707	1.511118
0.599805	1.513441
0.599902	1.527556
0.600000	1.530055
0.600098	1.563413
0.600195	1.628855
0.600293	1.646807
0.600391	1.646175
0.600488	1.646377
0.600586	1.641439
0.600684	1.639216
0.600781	1.625099
0.600879	1.609915
0.600977	1.601033
0.601074	1.588211
0.601172	1.596616
0.601270	1.604938
0.601367	1.592759
0.601465	1.577392
0.601562	1.564066
0.601660	1.550160
0.601758	1.544098
0.601855	1.549401
0.601953	1.556782
0.602051	1.571398
0.602148	1.575576
0.602246	1.555104
0.602344	1.522751
0.602441	1.503674
0.602539	1.449063
0.602637	1.448071
0.602734	1.500468
0.602832	1.539875
0.602930	1.556222
0.603027	1.549537
0.603125	1.544698
0.603223	1.545567
0.603320	1.558657
0.603418	1.594914
0.603516	1.586662
0.603613	1.565845
0.603711	1.561682
0.603809	1.570640
0.603906	1.556419
0.604004	1.588801
0.604102	1.589930
0.604199	1.539019
0.604297	1.519957
0.604395	1.512039
0.604492	1.501658
0.604590	1.487882
0.604687	1.497880
0.604785	1.583885
0.604883	1.630059
0.604980	1.607553
0.605078	1.623239
0.605176	1.633666
0.605273	1.620226
0.605371	1.619341
0.605469	1.620687
0.605566	1.625733
0.605664	1.617246
0.605762	1.628132
0.605859	1.616374
0.605957	1.593665
0.606055	1.599615
0.606152	1.587124
0.606250	1.579043
0.606348	1.600105
0.606445	1.614543
0.606543	1.594946
0.606641	1.562267
0.606738	1.604586
0.606836	1.642030
0.606934	1.637618
0.607031	1.627841
0.607129	1.617559
0.607227	1.620585
0.607324	1.605091
0.607422	1.618201
0.607520	1.636916
0.607617	1.633285
0.607715	1.631413
0.607812	1.632272
0.607910	1.635625
0.608008	1.638780
0.608105	1.647620
0.608203	1.649094
0.608301	1.644341
0.608398	1.649228
0.608496	1.649827
0.608594	1.659683
0.608691	1.666431
0.608789	1.684433
0.608887	1.691164
0.608984	1.680617
0.609082	1.681900
0.609180	1.681799
0.609277	1.621488
0.609375	1.591390
0.609473	1.605836
0.609570	1.621363
0.609668	1.613655
0.609766	1.605364
0.609863	1.593967
0.609961	1.599792
0.610059	1.593617
0.610156	1.572595
0.610254	1.572052
0.610352	1.572680
0.610449	1.596219
0.610547	1.596467
0.610645	1.577890
0.610742	1.574795
0.610840	1.559471
0.610937	1.546622
0.611035	1.578388
0.611133	1.622936
0.611230	1.660061
0.611328	1.648235
0.611426	1.644393
0.611523	1.630368
0.611621	1.620529
0.611719	1.601790
0.611816	1.605538
0.611914	1.605885
0.612012	1.624198
0.612109	1.640660
0.612207	1.639047
0.612305	1.647287
0.612402	1.654834
0.612500	1.646565
0.612598	1.611009
0.612695	1.610690
0.612793	1.607396
0.612891	1.601599
0.612988	1.607995
0.613086	1.619374
0.613184	1.614890
0.613281	1.618643
0.613379	1.621530
0.613477	1.598902
0.613574	1.625018
0.613672	1.653909
0.613770	1.660531
0.613867	1.653544
0.613965	1.646887
0.614062	1.624485
0.614160	1.618107
0.614258	1.612142
0.614355	1.627596
0.614453	1.647316
0.614551	1.666649
0.614648	1.667037
0.614746	1.663285
0.614844	1.655743
0.614941	1.625571
0.615039	1.670460
0.615137	1.674255
0.615234	1.648630
0.615332	1.656319
0.615430	1.667884
0.615527	1.677641
0.615625	1.671755
0.615723	1.672619
0.615820	1.674759
0.615918	1.677327
0.616016	1.679090
0.616113	1.684681
0.616211	1.674047
0.616309	1.653282
0.616406	1.614106
0.616504	1.620980
0.616602	1.631714
0.616699	1.662780
0.616797	1.669169
0.616895	1.636043
0.616992	1.641518
0.617090	1.643431
0.617187	1.600917
0.617285	1.572942
0.617383	1.568218
0.617480	1.542657
0.617578	1.525104
0.617676	1.525295
0.617773	1.511658
0.617871	1.525028
0.617969	1.507348
0.618066	1.488364
0.618164	1.455117
0.618262	1.427633
0.618359	1.423256
0.618457	1.454429
0.618555	1.467090
0.618652	1.503616
0.618750	1.568864
0.618848	1.591337
0.618945	1.617599
0.619043	1.601622
0.619141	1.615153
0.619238	1.597159
0.619336	1.579919
0.619434	1.571723
0.619531	1.576497
0.619629	1.585657
0.619727	1.578095
0.619824	1.564033
0.619922	1.539741
0.620020	1.557874
0.620117	1.584475
0.620215	1.593939
0.620312	1.597110
0.620410	1.590071
0.620508	1.580690
0.620605	1.588828
0.620703	1.590636
0.620801	1.565841
0.620898	1.516976
0.620996	1.507647
0.621094	1.543976
0.621191	1.576918
0.621289	1.549188
0.621387	1.528095
0.621484	1.510614
0.621582	1.508134
0.621680	1.499651
0.621777	1.505493
0.621875	1.573434
0.621973	1.613401
0.622070	1.626825
0.622168	1.650889
0.622266	1.656270
0.622363	1.647655
0.622461	1.641969
0.622559	1.631645
0.622656	1.632269
0.622754	1.634728
0.622852	1.627290
0.622949	1.618051
0.623047	1.596831
0.623145	1.583320
0.623242	1.576795
0.623340	1.582893
0.623437	1.595259
0.623535	1.601788
0.623633	1.595852
0.623730	1.602084
0.623828	1.605641
0.623926	1.602180
0.624023	1.581188
0.624121	1.577164
0.624219	1.586417
0.624316	1.573889
0.624414	1.551302
0.624512	1.533914
0.624609	1.528999
0.624707	1.565212
0.624805	1.596924
0.624902	1.600664
0.625000	1.608634
0.625098	1.605069
0.625195	1.596877
0.625293	1.589653
0.625391	1.589066
0.625488	1.600648
0.625586	1.631901
0.625684	1.663708
0.625781	1.648185
0.625879	1.655496
0.625977	1.669823
0.626074	1.657302
0.626172	1.641355
0.626270	1.647889
0.626367	1.656054
0.626465	1.649198
0.626562	1.643039
0.626660	1.629202
0.626758	1.600796
0.626855	1.595084
0.626953	1.611629
0.627051	1.622880
0.627148	1.607625
0.627246	1.624177
0.627344	1.623019
0.627441	1.592226
0.627539	1.578221
0.627637	1.566153
0.627734	1.558353
0.627832	1.586783
0.627930	1.585464
0.628027	1.601381
0.628125	1.648611
0.628223	1.660821
0.628320	1.646879
0.628418	1.627954
0.628516	1.623865
0.628613	1.611474
0.628711	1.633142
0.628809	1.636303
0.628906	1.636111
0.629004	1.635578
0.629102	1.636066
0.629199	1.632928
0.629297	1.632417
0.629395	1.631663
0.629492	1.632975
0.629590	1.634706
0.629687	1.639011
0.629785	1.645771
0.629883	1.649281
0.629980	1.649852
0.630078	1.649431
0.630176	1.646242
0.630273	1.650945
0.630371	1.654688
0.630469	1.653721
0.630566	1.652946
0.630664	1.656350
0.630762	1.659433
0.630859	1.656053
0.630957	1.655105
0.631055	1.655249
0.631152	1.657922
0.631250	1.660435
0.631348	1.660050
0.631445	1.660566
0.631543	1.659166
0.631641	1.659195
0.631738	1.661600
0.631836	1.663986
0.631934	1.665810
0.632031	1.663657
0.632129	1.657402
0.632227	1.651297
0.632324	1.645292
0.632422	1.635936
0.632520	1.627089
0.632617	1.614173
0.632715	1.606610
0.632812	1.606888
0.632910	1.610847
0.633008	1.631063
0.633105	1.651305
0.633203	1.651264
0.633301	1.647822
0.633398	1.651144
0.633496	1.633358
0.633594	1.610746
0.633691	1.600948
0.633789	1.597234
0.633887	1.604715
0.633984	1.614729
0.634082	1.634205
0.634180	1.636822
0.634277	1.626206
0.634375	1.647480
0.634473	1.646318
0.634570	1.659524
0.634668	1.652903
0.634766	1.639349
0.634863	1.646937
0.634961	1.656908
0.635059	1.638624
0.635156	1.619683
0.635254	1.610502
0.635352	1.622539
0.635449	1.642300
0.635547	1.635080
0.635645	1.611222
0.635742	1.638743
0.635840	1.639409
0.635937	1.651303
0.636035	1.626257
0.636133	1.584555
0.636230	1.575012
0.636328	1.591846
0.636426	1.619752
0.636523	1.602693
0.636621	1.626165
0.636719	1.616978
0.636816	1.617019
0.636914	1.613625
0.637012	1.617400
0.637109	1.628353
0.637207	1.611625
0.637305	1.604148
0.637402	1.598097
0.637500	1.595102
0.637598	1.589397
0.637695	1.576489
0.637793	1.560254
0.637891	1.550677
0.637988	1.540804
0.638086	1.528437
0.638184	1.527802
0.638281	1.538659
0.638379	1.544969
0.638477	1.546436
0.638574	1.521930
0.638672	1.497211
0.638770	1.495526
0.638867	1.506497
0.638965	1.530774
0.639062	1.552095
0.639160	1.592461
0.639258	1.577282
0.639355	1.530682
0.639453	1.510521
0.639551	1.529318
0.639648	1.552312
0.639746	1.575300
0.639844	1.584684
0.639941	1.607418
0.640039	1.607986
0.640137	1.597604
0.640234	1.591686
0.640332	1.568719
0.640430	1.544297
0.640527	1.502207
0.640625	1.481272
0.640723	1.479947
0.640820	1.478653
0.640918	1.470444
0.641016	1.474963
0.641113	1.478974
0.641211	1.481748
0.641309	1.480122
0.641406	1.478942
0.641504	1.488806
0.641602	1.513911
0.641699	1.512774
0.641797	1.510870
0.641895	1.542049
0.641992	1.554045
0.642090	1.559523
0.642187	1.536160
0.642285	1.468801
0.642383	1.454123
0.642480	1.480507
0.642578	1.480291
0.642676	1.472359
0.642773	1.457812
0.642871	1.490954
0.642969	1.481989
0.643066	1.465078
0.643164	1.444508
0.643262	1.434876
0.643359	1.434582
0.643457	1.445398
0.643555	1.449116
0.643652	1.466237
0.643750	1.497367
0.643848	1.513886
0.643945	1.511847
0.644043	1.495976
0.644141	1.465625
0.644238	1.418223
0.644336	1.350670
0.644434	1.316203
0.644531	1.339172
0.644629	1.374173
0.644727	1.445737
0.644824	1.510122
0.644922	1.515191
0.645020	1.530436
0.645117	1.488845
0.645215	1.462076
0.645312	1.436112
0.645410	1.435924
0.645508	1.483188
0.645605	1.526087
0.645703	1.568633
0.645801	1.603756
0.645898	1.598418
0.645996	1.573613
0.646094	1.574038
0.646191	1.589756
0.646289	1.588649
0.646387	1.576260
0.646484	1.543868
0.646582	1.504742
0.646680	1.511438
0.646777	1.493567
0.646875	1.472552
0.646973	1.487954
0.647070	1.531631
0.647168	1.513224
0.647266	1.529331
0.647363	1.522472
0.647461	1.519504
0.647559	1.496326
0.647656	1.493271
0.647754	1.563964
0.647852	1.602611
0.647949	1.613182
0.648047	1.614012
0.648145	1.619317
0.648242	1.618554
0.648340	1.602493
0.648437	1.594712
0.648535	1.587088
0.648633	1.595607
0.648730	1.598937
0.648828	1.608953
0.648926	1.598991
0.649023	1.605673
0.649121	1.660980
0.649219	1.655840
0.649316	1.677846
0.649414	1.679219
0.649512	1.662201
0.649609	1.634121
0.649707	1.614616
0.649805	1.621016
0.649902	1.647476
0.650000	1.649152
0.650098	1.619249
0.650195	1.627234
0.650293	1.648321
0.650391	1.616111
0.650488	1.592221
0.650586	1.577605
0.650684	1.573022
0.650781	1.592692
0.650879	1.596029
0.650977	1.588963
0.651074	1.622530
0.651172	1.636603
0.651270	1.638169
0.651367	1.634555
0.651465	1.626129
0.651562	1.648056
0.651660	1.635683
0.651758	1.602264
0.651855	1.553919
0.651953	1.551686
0.652051	1.584306
0.652148	1.603415
0.652246	1.608194
0.652344	1.593840
0.652441	1.582119
0.652539	1.578852
0.652637	1.577261
0.652734	1.563116
0.652832	1.593111
0.652930	1.624043
0.653027	1.596649
0.653125	1.605873
0.653223	1.629902
0.653320	1.612208
0.653418	1.604569
0.653516	1.591019
0.653613	1.584831
0.653711	1.568938
0.653809	1.546996
0.653906	1.544427
0.654004	1.550138
0.654102	1.561590
0.654199	1.560175
0.654297	1.555928
0.654395	1.560871
0.654492	1.525054
0.654590	1.528861
0.654687	1.556117
0.654785	1.550797
0.654883	1.536097
0.654980	1.540133
0.655078	1.552550
0.655176	1.548131
0.655273	1.538106
0.655371	1.534001
0.655469	1.550982
0.655566	1.544774
0.655664	1.537227
0.655762	1.536112
0.655859	1.536451
0.655957	1.539031
0.656055	1.550507
0.656152	1.557351
0.656250	1.583126
0.656348	1.588760
0.656445	1.571494
0.656543	1.570535
0.656641	1.578835
0.656738	1.581232
0.656836	1.569103
0.656934	1.566242
0.657031	1.558460
0.657129	1.550990
0.657227	1.542633
0.657324	1.549631
0.657422	1.584033
0.657520	1.608299
0.657617	1.614968
0.657715	1.615818
0.657812	1.596751
0.657910	1.618091
0.658008	1.606753
0.658105	1.606518
0.658203	1.620992
0.658301	1.622449
0.658398	1.630424
0.658496	1.628193
0.658594	1.632934
0.658691	1.628485
0.658789	1.649836
0.658887	1.663745
0.658984	1.654674
0.659082	1.659322
0.659180	1.659252
0.659277	1.662528
0.659375	1.663275
0.659473	1.667594
0.659570	1.669256
0.659668	1.668336
0.659766	1.667603
0.659863	1.670172
0.659961	1.670466
0.660059	1.672400
0.660156	1.671185
0.660254	1.672573
0.660352	1.670324
0.660449	1.676702
0.660547	1.670497
0.660645	1.670345
0.660742	1.676688
0.660840	1.664325
0.660937	1.670872
0.661035	1.670083
0.661133	1.671361
0.661230	1.672879
0.661328	1.673678
0.661426	1.665623
0.661523	1.643449
0.661621	1.627256
0.661719	1.635473
0.661816	1.636469
0.661914	1.641237
0.662012	1.647498
0.662109	1.632173
0.662207	1.625014
0.662305	1.632677
0.662402	1.624116
0.662500	1.604876
0.662598	1.591843
0.662695	1.588416
0.662793	1.590968
0.662891	1.591869
0.662988	1.573403
0.663086	1.564284
0.663184	1.556679
0.663281	1.605918
0.663379	1.640032
0.663477	1.611398
0.663574	1.623218
0.663672	1.614576
0.663770	1.603337
0.663867	1.603270
0.663965	1.601363
0.664062	1.572168
0.664160	1.571757
0.664258	1.594891
0.664355	1.592557
0.664453	1.608127
0.664551	1.660147
0.664648	1.647720
0.664746	1.589147
0.664844	1.564705
0.664941	1.524079
0.665039	1.552436
0.665137	1.589725
0.665234	1.583904
0.665332	1.603186
0.665430	1.612536
0.665527	1.609717
0.665625	1.621908
0.665723	1.656951
0.665820	1.659201
0.665918	1.646486
0.666016	1.648934
0.666113	1.650272
0.666211	1.632370
0.666309	1.614188
0.666406	1.604494
0.666504	1.596344
0.666602	1.599931
0.666699	1.578169
0.666797	1.558839
0.666895	1.593831
0.666992	1.600376
0.667090	1.593159
0.667187	1.602405
0.667285	1.596358
0.667383	1.608463
0.667480	1.600517
0.667578	1.612160
0.667676	1.595730
0.667773	1.575239
0.667871	1.569722
0.667969	1.563892
0.668066	1.567677
0.668164	1.571483
0.668262	1.564561
0.668359	1.552227
0.668457	1.527192
0.668555	1.525708
0.668652	1.543305
0.668750	1.567734
0.668848	1.564232
0.668945	1.552748
0.669043	1.558790
0.669141	1.550160
0.669238	1.532487
0.669336	1.517025
0.669434	1.486242
0.669531	1.448363
0.669629	1.439942
0.669727	1.441796
0.669824	1.458361
0.669922	1.481854
0.670020	1.478178
0.670117	1.478909
0.670215	1.489092
0.670312	1.488777
0.670410	1.490485
0.670508	1.492148
0.670605	1.498213
0.670703	1.496750
0.670801	1.502436
0.670898	1.503979
0.670996	1.486626
0.671094	1.469858
0.671191	1.471851
0.671289	1.461403
0.671387	1.452999
0.671484	1.446694
0.671582	1.488165
0.671680	1.505204
0.671777	1.471264
0.671875	1.476361
0.671973	1.481681
0.672070	1.438949
0.672168	1.387705
0.672266	1.403822
0.672363	1.445849
0.672461	1.448014
0.672559	1.457982
0.672656	1.489140
0.672754	1.487153
0.672852	1.478408
0.672949	1.450761
0.673047	1.416963
0.673145	1.401016
0.673242	1.425895
0.673340	1.428778
0.673437	1.388448
0.673535	1.339525
0.673633	1.319040
0.673730	1.353963
0.673828	1.407770
0.673926	1.439776
0.674023	1.461381
0.674121	1.468983
0.674219	1.447689
0.674316	1.445247
0.674414	1.517139
0.674512	1.549689
0.674609	1.504804
0.674707	1.480198
0.674805	1.465301
0.674902	1.452813
0.675000	1.454941
0.675098	1.456275
0.675195	1.487039
0.675293	1.509042
0.675391	1.525378
0.675488	1.541143
0.675586	1.541866
0.675684	1.561527
0.675781	1.540927
0.675879	1.552092
0.675977	1.577030
0.676074	1.604416
0.676172	1.584261
0.676270	1.583809
0.676367	1.581084
0.676465	1.601896
0.676562	1.601983
0.676660	1.590775
0.676758	1.591874
0.676855	1.604291
0.676953	1.632671
0.677051	1.629500
0.677148	1.605896
0.677246	1.619908
0.677344	1.649809
0.677441	1.638579
0.677539	1.642717
0.677637	1.626398
0.677734	1.651272
0.677832	1.648236
0.677930	1.660165
0.678027	1.674131
0.678125	1.673859
0.678223	1.676619
0.678320	1.683459
0.678418	1.678106
0.678516	1.680373
0.678613	1.700279
0.678711	1.704472
0.678809	1.702356
0.678906	1.693700
0.679004	1.685687
0.679102	1.686410
0.679199	1.686781
0.679297	1.688492
0.679395	1.687021
0.679492	1.669226
0.679590	1.667045
0.679687	1.662776
0.679785	1.652454
0.679883	1.663696
0.679980	1.672582
0.680078	1.670623
0.680176	1.652943
0.680273	1.648503
0.680371	1.649613
0.680469	1.665623
0.680566	1.639437
0.680664	1.628331
0.680762	1.646737
0.680859	1.643141
0.680957	1.647171
0.681055	1.646007
0.681152	1.652042
0.681250	1.650073
0.681348	1.643820
0.681445	1.630208
0.681543	1.617124
0.681641	1.610968
0.681738	1.625784
0.681836	1.637134
0.681934	1.658846
0.682031	1.606838
0.682129	1.596550
0.682227	1.612761
0.682324	1.615026
0.682422	1.649212
0.682520	1.639659
0.682617	1.619325
0.682715	1.614072
0.682812	1.652547
0.682910	1.661142
0.683008	1.637737
0.683105	1.642268
0.683203	1.622630
0.683301	1.618412
0.683398	1.595259
0.683496	1.599685
0.683594	1.614119
0.683691	1.602660
0.683789	1.588698
0.683887	1.584896
0.683984	1.572202
0.684082	1.582918
0.684180	1.604113
0.684277	1.583096
0.684375	1.567601
0.684473	1.509712
0.684570	1.485602
0.684668	1.500671
0.684766	1.494839
0.684863	1.542588
0.684961	1.553058
0.685059	1.583334
0.685156	1.597097
0.685254	1.616185
0.685352	1.626919
0.685449	1.619114
0.685547	1.643470
0.685645	1.668345
0.685742	1.654375
0.685840	1.657159
0.685937	1.627205
0.686035	1.612016
0.686133	1.619241
0.686230	1.607408
0.686328	1.607125
0.686426	1.597670
0.686523	1.594866
0.686621	1.586843
0.686719	1.583492
0.686816	1.572545
0.686914	1.567999
0.687012	1.564150
0.687109	1.565434
0.687207	1.570530
0.687305	1.564199
0.687402	1.555899
0.687500	1.552060
0.687598	1.503925
0.687695	1.457672
0.687793	1.449227
0.687891	1.484412
0.687988	1.494956
0.688086	1.535237
0.688184	1.555940
0.688281	1.518219
0.688379	1.522089
0.688477	1.506538
0.688574	1.500268
0.688672	1.498398
0.688770	1.515876
0.688867	1.568273
0.688965	1.606222
0.689062	1.606866
0.689160	1.611068
0.689258	1.613452
0.689355	1.597047
0.689453	1.584072
0.689551	1.555181
0.689648	1.536155
0.689746	1.528128
0.689844	1.527716
0.689941	1.543347
0.690039	1.557591
0.690137	1.551543
0.690234	1.553617
0.690332	1.549462
0.690430	1.557134
0.690527	1.536321
0.690625	1.555819
0.690723	1.566629
0.690820	1.551096
0.690918	1.552610
0.691016	1.599878
0.691113	1.628390
0.691211	1.637600
0.691309	1.644813
0.691406	1.631406
0.691504	1.607064
0.691602	1.590814
0.691699	1.580080
0.691797	1.562432
0.691895	1.550380
0.691992	1.546913
0.692090	1.569539
0.692187	1.588042
0.692285	1.595118
0.692383	1.595880
0.692480	1.597771
0.692578	1.598549
0.692676	1.600530
0.692773	1.601672
0.692871	1.603363
0.692969	1.604051
0.693066	1.604636
0.693164	1.604024
0.693262	1.602445
0.693359	1.599076
0.693457	1.595987
0.693555	1.579730
0.693652	1.537595
0.693750	1.540334
0.693848	1.588011
0.693945	1.590464
0.694043	1.583998
0.694141	1.587219
0.694238	1.616737
0.694336	1.637985
0.694434	1.645081
0.694531	1.648047
0.694629	1.648617
0.694727	1.653386
0.694824	1.659115
0.694922	1.664754
0.695020	1.657722
0.695117	1.655181
0.695215	1.643822
0.695312	1.632129
0.695410	1.617209
0.695508	1.634130
0.695605	1.661445
0.695703	1.662355
0.695801	1.665579
0.695898	1.664048
0.695996	1.662952
0.696094	1.661859
0.696191	1.662883
0.696289	1.663998
0.696387	1.666044
0.696484	1.667132
0.696582	1.666785
0.696680	1.666603
0.696777	1.663911
0.696875	1.666458
0.696973	1.668040
0.697070	1.669698
0.697168	1.672500
0.697266	1.679547
0.697363	1.683753
0.697461	1.683726
0.697559	1.687241
0.697656	1.690539
0.697754	1.690397
0.697852	1.694408
0.697949	1.692755
0.698047	1.688854
0.698145	1.693132
0.698242	1.687630
0.698340	1.687359
0.698437	1.687054
0.698535	1.687761
0.698633	1.681618
0.698730	1.668661
0.698828	1.667783
0.698926	1.668630
0.699023	1.664033
0.699121	1.681435
0.699219	1.684184
0.699316	1.683966
0.699414	1.679369
0.699512	1.665426
0.699609	1.663644
0.699707	1.664911
0.699805	1.681117
0.699902	1.667837
0.700000	1.652768
0.700098	1.663068
0.700195	1.678293
0.700293	1.673511
0.700391	1.672474
0.700488	1.676049
0.700586	1.675788
0.700684	1.690092
0.700781	1.675563
0.700879	1.648381
0.700977	1.651970
0.701074	1.679391
0.701172	1.659949
0.701270	1.636299
0.701367	1.633261
0.701465	1.658483
0.701562	1.677346
0.701660	1.658602
0.701758	1.656507
0.701855	1.667322
0.701953	1.678272
0.702051	1.682463
0.702148	1.669693
0.702246	1.670504
0.702344	1.666409
0.702441	1.661538
0.702539	1.671942
0.702637	1.650089
0.702734	1.645927
0.702832	1.649052
0.702930	1.641098
0.703027	1.631450
0.703125	1.612473
0.703223	1.627290
0.703320	1.625273
0.703418	1.657908
0.703516	1.655744
0.703613	1.669041
0.703711	1.668994
0.703809	1.676438
0.703906	1.671748
0.704004	1.657420
0.704102	1.671529
0.704199	1.661754
0.704297	1.635286
0.704395	1.623692
0.704492	1.617762
0.704590	1.619566
0.704687	1.603741
0.704785	1.584058
0.704883	1.560448
0.704980	1.566305
0.705078	1.594798
0.705176	1.617378
0.705273	1.620197
0.705371	1.600706
0.705469	1.590794
0.705566	1.612331
0.705664	1.649362
0.705762	1.647311
0.705859	1.634039
0.705957	1.629856
0.706055	1.630933
0.706152	1.618120
0.706250	1.607292
0.706348	1.595384
0.706445	1.599597
0.706543	1.591205
0.706641	1.584556
0.706738	1.593193
0.706836	1.607828
0.706934	1.588073
0.707031	1.598679
0.707129	1.632650
0.707227	1.619433
0.707324	1.601663
0.707422	1.601284
0.707520	1.612788
0.707617	1.626918
0.707715	1.631765
0.707812	1.613260
0.707910	1.605402
0.708008	1.597347
0.708105	1.592140
0.708203	1.581011
0.708301	1.568383
0.708398	1.563878
0.708496	1.555491
0.708594	1.512692
0.708691	1.468405
0.708789	1.445444
0.708887	1.442609
0.708984	1.455829
0.709082	1.467289
0.709180	1.495641
0.709277	1.506351
0.709375	1.534424
0.709473	1.543040
0.709570	1.529188
0.709668	1.537988
0.709766	1.554457
0.709863	1.518175
0.709961	1.489766
0.710059	1.538172
0.710156	1.581462
0.710254	1.603070
0.710352	1.604490
0.710449	1.611842
0.710547	1.598388
0.710645	1.593573
0.710742	1.589779
0.710840	1.602686
0.710937	1.615524
0.711035	1.622748
0.711133	1.659737
0.711230	1.609640
0.711328	1.605657
0.711426	1.668029
0.711523	1.676936
0.711621	1.680129
0.711719	1.663476
0.711816	1.627348
0.711914	1.613428
0.712012	1.619167
0.712109	1.624389
0.712207	1.629845
0.712305	1.659452
0.712402	1.669809
0.712500	1.661113
0.712598	1.640055
0.712695	1.626193
0.712793	1.615560
0.712891	1.603595
0.712988	1.588555
0.713086	1.577477
0.713184	1.576622
0.713281	1.585501
0.713379	1.588767
0.713477	1.571685
0.713574	1.542750
0.713672	1.516873
0.713770	1.500683
0.713867	1.501053
0.713965	1.526627
0.714062	1.537253
0.714160	1.564993
0.714258	1.573069
0.714355	1.588839
0.714453	1.548623
0.714551	1.539909
0.714648	1.548336
0.714746	1.532077
0.714844	1.550969
0.714941	1.562746
0.715039	1.561658
0.715137	1.568918
0.715234	1.570276
0.715332	1.539740
0.715430	1.485397
0.715527	1.490979
0.715625	1.525430
0.715723	1.545515
0.715820	1.551033
0.715918	1.536485
0.716016	1.534167
0.716113	1.564700
0.716211	1.591340
0.716309	1.541728
0.716406	1.561158
0.716504	1.598777
0.716602	1.554709
0.716699	1.516852
0.716797	1.536574
0.716895	1.551223
0.716992	1.535964
0.717090	1.527230
0.717187	1.535099
0.717285	1.560041
0.717383	1.585034
0.717480	1.573180
0.717578	1.565174
0.717676	1.554061
0.717773	1.515309
0.717871	1.516285
0.717969	1.555870
0.718066	1.576990
0.718164	1.566356
0.718262	1.578004
0.718359	1.570059
0.718457	1.565333
0.718555	1.564460
0.718652	1.567637
0.718750	1.583021
0.718848	1.592339
0.718945	1.605802
0.719043	1.593551
0.719141	1.606436
0.719238	1.602793
0.719336	1.593986
0.719434	1.585046
0.719531	1.584926
0.719629	1.589085
0.719727	1.575566
0.719824	1.559762
0.719922	1.542864
0.720020	1.563013
0.720117	1.590978
0.720215	1.588158
0.720312	1.583734
0.720410	1.597510
0.720508	1.596874
0.720605	1.570438
0.720703	1.555649
0.720801	1.568398
0.720898	1.585423
0.720996	1.571532
0.721094	1.574570
0.721191	1.572038
0.721289	1.579465
0.721387	1.570836
0.721484	1.552226
0.721582	1.552633
0.721680	1.582328
0.721777	1.607809
0.721875	1.623094
0.721973	1.629437
0.722070	1.618538
0.722168	1.609818
0.722266	1.586481
0.722363	1.585456
0.722461	1.581800
0.722559	1.592450
0.722656	1.584869
0.722754	1.587871
0.722852	1.583388
0.722949	1.571911
0.723047	1.568312
0.723145	1.556066
0.723242	1.545871
0.723340	1.560858
0.723437	1.534091
0.723535	1.502584
0.723633	1.540277
0.723730	1.536424
0.723828	1.551212
0.723926	1.554168
0.724023	1.584937
0.724121	1.597995
0.724219	1.593577
0.724316	1.626427
0.724414	1.628878
0.724512	1.621437
0.724609	1.624610
0.724707	1.631351
0.724805	1.632836
0.724902	1.649947
0.725000	1.669340
0.725098	1.672594
0.725195	1.659987
0.725293	1.650298
0.725391	1.636243
0.725488	1.632004
0.725586	1.645954
0.725684	1.645754
0.725781	1.643396
0.725879	1.648287
0.725977	1.609987
0.726074	1.603800
0.726172	1.625581
0.726270	1.624552
0.726367	1.626933
0.726465	1.610586
0.726562	1.597000
0.726660	1.612211
0.726758	1.626834
0.726855	1.610247
0.726953	1.583626
0.727051	1.572959
0.727148	1.573930
0.727246	1.577874
0.727344	1.559792
0.727441	1.541315
0.727539	1.543002
0.727637	1.543568
0.727734	1.523637
0.727832	1.501094
0.727930	1.500262
0.728027	1.491995
0.728125	1.488251
0.728223	1.508639
0.728320	1.531593
0.728418	1.533197
0.728516	1.572169
0.728613	1.620571
0.728711	1.622808
0.728809	1.621973
0.728906	1.623464
0.729004	1.623872
0.729102	1.622981
0.729199	1.626378
0.729297	1.625527
0.729395	1.625231
0.729492	1.619698
0.729590	1.616322
0.729687	1.619904
0.729785	1.628316
0.729883	1.639398
0.729980	1.640761
0.730078	1.650225
0.730176	1.641317
0.730273	1.660108
0.730371	1.653042
0.730469	1.612061
0.730566	1.628249
0.730664	1.639704
0.730762	1.615629
0.730859	1.614231
0.730957	1.602046
0.731055	1.596547
0.731152	1.631675
0.731250	1.606582
0.731348	1.599224
0.731445	1.595398
0.731543	1.579977
0.731641	1.572518
0.731738	1.570345
0.731836	1.571490
0.731934	1.553011
0.732031	1.543870
0.732129	1.541040
0.732227	1.562489
0.732324	1.573305
0.732422	1.565558
0.732520	1.565407
0.732617	1.575530
0.732715	1.589994
0.732812	1.604482
0.732910	1.609268
0.733008	1.615825
0.733105	1.615105
0.733203	1.612420
0.733301	1.621268
0.733398	1.632704
0.733496	1.631911
0.733594	1.642451
0.733691	1.639830
0.733789	1.619825
0.733887	1.601135
0.733984	1.585139
0.734082	1.585530
0.734180	1.587430
0.734277	1.594751
0.734375	1.603040
0.734473	1.592817
0.734570	1.583233
0.734668	1.564196
0.734766	1.556621
0.734863	1.578262
0.734961	1.601506
0.735059	1.613329
0.735156	1.608500
0.735254	1.615325
0.735352	1.613373
0.735449	1.598538
0.735547	1.603822
0.735645	1.590686
0.735742	1.609761
0.735840	1.603910
0.735937	1.570854
0.736035	1.583337
0.736133	1.575859
0.736230	1.601135
0.736328	1.628350
0.736426	1.625085
0.736523	1.623477
0.736621	1.639076
0.736719	1.631702
0.736816	1.630163
0.736914	1.613928
0.737012	1.626143
0.737109	1.652886
0.737207	1.663424
0.737305	1.650981
0.737402	1.634607
0.737500	1.636134
0.737598	1.652402
0.737695	1.658483
0.737793	1.674122
0.737891	1.670318
0.737988	1.655229
0.738086	1.678698
0.738184	1.687446
0.738281	1.699912
0.738379	1.685380
0.738477	1.680563
0.738574	1.662058
0.738672	1.635263
0.738770	1.622755
0.738867	1.617816
0.738965	1.620158
0.739062	1.601817
0.739160	1.577072
0.739258	1.578668
0.739355	1.578358
0.739453	1.581104
0.739551	1.574502
0.739648	1.579254
0.739746	1.584195
0.739844	1.584203
0.739941	1.584580
0.740039	1.588047
0.740137	1.590600
0.740234	1.591519
0.740332	1.590275
0.740430	1.588778
0.740527	1.587704
0.740625	1.587516
0.740723	1.587126
0.740820	1.586927
0.740918	1.586084
0.741016	1.586301
0.741113	1.587472
0.741211	1.588657
0.741309	1.581630
0.741406	1.588434
0.741504	1.602075
0.741602	1.603100
0.741699	1.608876
0.741797	1.604721
0.741895	1.586625
0.741992	1.585983
0.742090	1.603593
0.742187	1.613747
0.742285	1.616792
0.742383	1.620427
0.742480	1.623004
0.742578	1.625450
0.742676	1.628230
0.742773	1.638071
0.742871	1.648537
0.742969	1.655564
0.743066	1.655219
0.743164	1.654093
0.743262	1.638358
0.743359	1.610491
0.743457	1.605491
0.743555	1.623392
0.743652	1.629075
0.743750	1.671935
0.743848	1.668169
0.743945	1.658151
0.744043	1.655530
0.744141	1.658325
0.744238	1.661194
0.744336	1.652133
0.744434	1.653920
0.744531	1.643353
0.744629	1.640800
0.744727	1.629787
0.744824	1.619964
0.744922	1.632998
0.745020	1.660949
0.745117	1.680879
0.745215	1.674693
0.745312	1.683755
0.745410	1.686770
0.745508	1.689321
0.745605	1.690938
0.745703	1.695229
0.745801	1.690956
0.745898	1.696428
0.745996	1.683745
0.746094	1.683469
0.746191	1.701168
0.746289	1.717047
0.746387	1.718423
0.746484	1.701725
0.746582	1.704047
0.746680	1.699659
0.746777	1.706185
0.746875	1.703286
0.746973	1.697325
0.747070	1.695180
0.747168	1.694457
0.747266	1.688572
0.747363	1.687322
0.747461	1.682660
0.747559	1.682832
0.747656	1.684686
0.747754	1.681790
0.747852	1.677750
0.747949	1.662289
0.748047	1.625958
0.748145	1.603927
0.748242	1.641705
0.748340	1.626108
0.748437	1.625649
0.748535	1.644753
0.748633	1.668654
0.748730	1.664817
0.748828	1.662080
0.748926	1.660006
0.749023	1.658157
0.749121	1.653569
0.749219	1.650446
0.749316	1.644823
0.749414	1.634615
0.749512	1.631811
0.749609	1.637240
0.749707	1.635695
0.749805	1.630298
0.749902	1.643627
0.750000	1.652252
0.750098	1.651548
0.750195	1.642316
0.750293	1.643452
0.750391	1.638269
0.750488	1.620111
0.750586	1.621286
0.750684	1.641417
0.750781	1.647782
0.750879	1.645301
0.750977	1.654723
0.751074	1.660883
0.751172	1.652119
0.751270	1.631969
0.751367	1.626188
0.751465	1.638409
0.751562	1.631787
0.751660	1.620132
0.751758	1.608410
0.751855	1.606958
0.751953	1.617435
0.752051	1.615178
0.752148	1.588264
0.752246	1.580712
0.752344	1.578127
0.752441	1.571320
0.752539	1.559896
0.752637	1.544848
0.752734	1.534214
0.752832	1.522426
0.752930	1.507632
0.753027	1.492276
0.753125	1.483694
0.753223	1.478769
0.753320	1.513765
0.753418	1.521726
0.753516	1.493032
0.753613	1.478509
0.753711	1.478523
0.753809	1.465928
0.753906	1.455347
0.754004	1.453866
0.754102	1.441730
0.754199	1.445799
0.754297	1.447124
0.754395	1.436495
0.754492	1.428606
0.754590	1.426745
0.754687	1.425755
0.754785	1.427292
0.754883	1.437893
0.754980	1.444583
0.755078	1.444908
0.755176	1.442836
0.755273	1.438628
0.755371	1.451246
0.755469	1.485622
0.755566	1.505346
0.755664	1.502558
0.755762	1.527031
0.755859	1.594844
0.755957	1.616397
0.756055	1.603700
0.756152	1.589890
0.756250	1.571599
0.756348	1.551431
0.756445	1.542972
0.756543	1.555334
0.756641	1.558665
0.756738	1.581140
0.756836	1.593554
0.756934	1.594889
0.757031	1.606053
0.757129	1.612703
0.757227	1.621753
0.757324	1.627578
0.757422	1.634517
0.757520	1.639623
0.757617	1.645361
0.757715	1.649890
0.757812	1.654919
0.757910	1.658995
0.758008	1.662544
0.758105	1.664589
0.758203	1.667476
0.758301	1.671887
0.758398	1.679312
0.758496	1.686629
0.758594	1.673521
0.758691	1.670583
0.758789	1.674022
0.758887	1.672736
0.758984	1.674147
0.759082	1.673937
0.759180	1.678148
0.759277	1.675195
0.759375	1.678713
0.759473	1.676394
0.759570	1.678052
0.759668	1.671646
0.759766	1.672143
0.759863	1.670642
0.759961	1.678598
0.760059	1.686945
0.760156	1.687232
0.760254	1.692960
0.760352	1.691156
0.760449	1.692524
0.760547	1.687100
0.760645	1.691393
0.760742	1.692024
0.760840	1.689178
0.760937	1.677385
0.761035	1.678742
0.761133	1.682992
0.761230	1.664575
0.761328	1.637304
0.761426	1.626178
0.761523	1.629615
0.761621	1.624077
0.761719	1.637965
0.761816	1.647108
0.761914	1.660673
0.762012	1.675492
0.762109	1.683345
0.762207	1.686757
0.762305	1.694236
0.762402	1.702877
0.762500	1.700521
0.762598	1.691848
0.762695	1.679027
0.762793	1.634942
0.762891	1.619097
0.762988	1.642102
0.763086	1.639251
0.763184	1.632890
0.763281	1.655017
0.763379	1.658999
0.763477	1.657490
0.763574	1.644631
0.763672	1.658860
0.763770	1.652831
0.763867	1.645187
0.763965	1.637018
0.764062	1.665333
0.764160	1.660904
0.764258	1.652301
0.764355	1.671160
0.764453	1.673634
0.764551	1.681017
0.764648	1.671704
0.764746	1.677646
0.764844	1.673798
0.764941	1.670859
0.765039	1.656596
0.765137	1.654809
0.765234	1.647067
0.765332	1.631625
0.765430	1.619278
0.765527	1.614715
0.765625	1.636119
0.765723	1.625055
0.765820	1.607063
0.765918	1.596152
0.766016	1.599493
0.766113	1.589264
0.766211	1.588562
0.766309	1.570187
0.766406	1.587457
0.766504	1.628483
0.766602	1.637533
0.766699	1.633567
0.766797	1.639434
0.766895	1.649400
0.766992	1.629743
0.767090	1.613522
0.767187	1.598837
0.767285	1.582436
0.767383	1.591361
0.767480	1.590271
0.767578	1.571416
0.767676	1.578886
0.767773	1.579259
0.767871	1.575220
0.767969	1.607886
0.768066	1.613043
0.768164	1.584545
0.768262	1.579321
0.768359	1.555882
0.768457	1.543715
0.768555	1.542988
0.768652	1.541311
0.768750	1.530485
0.768848	1.516242
0.768945	1.510981
0.769043	1.530211
0.769141	1.551337
0.769238	1.551129
0.769336	1.562958
0.769434	1.603017
0.769531	1.626699
0.769629	1.627619
0.769727	1.628639
0.769824	1.640835
0.769922	1.656469
0.770020	1.657994
0.770117	1.644597
0.770215	1.626112
0.770312	1.624766
0.770410	1.662532
0.770508	1.652748
0.770605	1.653084
0.770703	1.653739
0.770801	1.666955
0.770898	1.660731
0.770996	1.648005
0.771094	1.643697
0.771191	1.658715
0.771289	1.657781
0.771387	1.660258
0.771484	1.655389
0.771582	1.628582
0.771680	1.643980
0.771777	1.680093
0.771875	1.672156
0.771973	1.652454
0.772070	1.637557
0.772168	1.619021
0.772266	1.590018
0.772363	1.594576
0.772461	1.594444
0.772559	1.594160
0.772656	1.547483
0.772754	1.534572
0.772852	1.540524
0.772949	1.534861
0.773047	1.535386
0.773145	1.530524
0.773242	1.528448
0.773340	1.518498
0.773437	1.509465
0.773535	1.522718
0.773633	1.520596
0.773730	1.546385
0.773828	1.561833
0.773926	1.553021
0.774023	1.577098
0.774121	1.582022
0.774219	1.574129
0.774316	1.552200
0.774414	1.553087
0.774512	1.586879
0.774609	1.600035
0.774707	1.579661
0.774805	1.564362
0.774902	1.550066
0.775000	1.565826
0.775098	1.573128
0.775195	1.543923
0.775293	1.579060
0.775391	1.600276
0.775488	1.592959
0.775586	1.603255
0.775684	1.616662
0.775781	1.627995
0.775879	1.602356
0.775977	1.593265
0.776074	1.573893
0.776172	1.527285
0.776270	1.495564
0.776367	1.526635
0.776465	1.553488
0.776562	1.582309
0.776660	1.592992
0.776758	1.611317
0.776855	1.606638
0.776953	1.602909
0.777051	1.613146
0.777148	1.596752
0.777246	1.584126
0.777344	1.558634
0.777441	1.533998
0.777539	1.510576
0.777637	1.500792
0.777734	1.508414
0.777832	1.523143
0.777930	1.513630
0.778027	1.486775
0.778125	1.469619
0.778223	1.482336
0.778320	1.538273
0.778418	1.574422
0.778516	1.567274
0.778613	1.560899
0.778711	1.549994
0.778809	1.530019
0.778906	1.510248
0.779004	1.521904
0.779102	1.521068
0.779199	1.508027
0.779297	1.504065
0.779395	1.497927
0.779492	1.487675
0.779590	1.488285
0.779687	1.479438
0.779785	1.454033
0.779883	1.424119
0.779980	1.430560
0.780078	1.444960
0.780176	1.487695
0.780273	1.490332
0.780371	1.533778
0.780469	1.585356
0.780566	1.583933
0.780664	1.589491
0.780762	1.561070
0.780859	1.525657
0.780957	1.508405
0.781055	1.512618
0.781152	1.546416
0.781250	1.596733
0.781348	1.616997
0.781445	1.621110
0.781543	1.604757
0.781641	1.593377
0.781738	1.605089
0.781836	1.609646
0.781934	1.608877
0.782031	1.596387
0.782129	1.553761
0.782227	1.542303
0.782324	1.576124
0.782422	1.609411
0.782520	1.634967
0.782617	1.642855
0.782715	1.642147
0.782812	1.629257
0.782910	1.633614
0.783008	1.628759
0.783105	1.623600
0.783203	1.621883
0.783301	1.618336
0.783398	1.612620
0.783496	1.604484
0.783594	1.600807
0.783691	1.594863
0.783789	1.579706
0.783887	1.587352
0.783984	1.580799
0.784082	1.548535
0.784180	1.518128
0.784277	1.497302
0.784375	1.482218
0.784473	1.484269
0.784570	1.481774
0.784668	1.480569
0.784766	1.490140
0.784863	1.485079
0.784961	1.470388
0.785059	1.496211
0.785156	1.533834
0.785254	1.531828
0.785352	1.539873
0.785449	1.546447
0.785547	1.534337
0.785645	1.511088
0.785742	1.501842
0.785840	1.515904
0.785937	1.517311
0.786035	1.521428
0.786133	1.515394
0.786230	1.515648
0.786328	1.495275
0.786426	1.481090
0.786523	1.478819
0.786621	1.483266
0.786719	1.482939
0.786816	1.478216
0.786914	1.483391
0.787012	1.487260
0.787109	1.513313
0.787207	1.542165
0.787305	1.584213
0.787402	1.603203
0.787500	1.602656
0.787598	1.608271
0.787695	1.602201
0.787793	1.634117
0.787891	1.644008
0.787988	1.638949
0.788086	1.633875
0.788184	1.615802
0.788281	1.614188
0.788379	1.567842
0.788477	1.544600
0.788574	1.568456
0.788672	1.583134
0.788770	1.585447
0.788867	1.615167
0.788965	1.624206
0.789062	1.587560
0.789160	1.577346
0.789258	1.600439
0.789355	1.609554
0.789453	1.607447
0.789551	1.596690
0.789648	1.582755
0.789746	1.595553
0.789844	1.593782
0.789941	1.576159
0.790039	1.567197
0.790137	1.575524
0.790234	1.576358
0.790332	1.564733
0.790430	1.550968
0.790527	1.576859
0.790625	1.592519
0.790723	1.597893
0.790820	1.609774
0.790918	1.620366
0.791016	1.621548
0.791113	1.626737
0.791211	1.631318
0.791309	1.638825
0.791406	1.645598
0.791504	1.651440
0.791602	1.651109
0.791699	1.652864
0.791797	1.652625
0.791895	1.655537
0.791992	1.656980
0.792090	1.660726
0.792187	1.661235
0.792285	1.679744
0.792383	1.693926
0.792480	1.682468
0.792578	1.678535
0.792676	1.664261
0.792773	1.669729
0.792871	1.656507
0.792969	1.654154
0.793066	1.655623
0.793164	1.656509
0.793262	1.656568
0.793359	1.657711
0.793457	1.658794
0.793555	1.659755
0.793652	1.659894
0.793750	1.660930
0.793848	1.661429
0.793945	1.662381
0.794043	1.659842
0.794141	1.653818
0.794238	1.652451
0.794336	1.665606
0.794434	1.668053
0.794531	1.665969
0.794629	1.665070
0.794727	1.663272
0.794824	1.659644
0.794922	1.664619
0.795020	1.659867
0.795117	1.639162
0.795215	1.623217
0.795312	1.634636
0.795410	1.620371
0.795508	1.601282
0.795605	1.580386
0.795703	1.563494
0.795801	1.571948
0.795898	1.589252
0.795996	1.581912
0.796094	1.595655
0.796191	1.622866
0.796289	1.621717
0.796387	1.640984
0.796484	1.658796
0.796582	1.639127
0.796680	1.625627
0.796777	1.610644
0.796875	1.591126
0.796973	1.580588
0.797070	1.600329
0.797168	1.616041
0.797266	1.637688
0.797363	1.643177
0.797461	1.653524
0.797559	1.668835
0.797656	1.714053
0.797754	1.688664
0.797852	1.640063
0.797949	1.659760
0.798047	1.659212
0.798145	1.662130
0.798242	1.649281
0.798340	1.628157
0.798437	1.600830
0.798535	1.600107
0.798633	1.604246
0.798730	1.633513
0.798828	1.621824
0.798926	1.628133
0.799023	1.665454
0.799121	1.659040
0.799219	1.652821
0.799316	1.648600
0.799414	1.641169
0.799512	1.637563
0.799609	1.641622
0.799707	1.626562
0.799805	1.605978
0.799902	1.587043
0.800000	1.585342
0.800098	1.602372
0.800195	1.612199
0.800293	1.605945
0.800391	1.596665
0.800488	1.590666
0.800586	1.578279
0.800684	1.584656
0.800781	1.594606
0.800879	1.599670
0.800977	1.595351
0.801074	1.592369
0.801172	1.593587
0.801270	1.597737
0.801367	1.593377
0.801465	1.608895
0.801562	1.644894
0.801660	1.647980
0.801758	1.663937
0.801855	1.680460
0.801953	1.678440
0.802051	1.672264
0.802148	1.667098
0.802246	1.628864
0.802344	1.606846
0.802441	1.597124
0.802539	1.587151
0.802637	1.614735
0.802734	1.606432
0.802832	1.657039
0.802930	1.683717
0.803027	1.656191
0.803125	1.653750
0.803223	1.668846
0.803320	1.669675
0.803418	1.672687
0.803516	1.659875
0.803613	1.644594
0.803711	1.634280
0.803809	1.635093
0.803906	1.626871
0.804004	1.620516
0.804102	1.612295
0.804199	1.599250
0.804297	1.589763
0.804395	1.581131
0.804492	1.565794
0.804590	1.580565
0.804687	1.606228
0.804785	1.617213
0.804883	1.623085
0.804980	1.608071
0.805078	1.585078
0.805176	1.555120
0.805273	1.539089
0.805371	1.535878
0.805469	1.543837
0.805566	1.548851
0.805664	1.523711
0.805762	1.501617
0.805859	1.480558
0.805957	1.482715
0.806055	1.485286
0.806152	1.485339
0.806250	1.479587
0.806348	1.468792
0.806445	1.454355
0.806543	1.439907
0.806641	1.420762
0.806738	1.386933
0.806836	1.362175
0.806934	1.362636
0.807031	1.396345
0.807129	1.414115
0.807227	1.412544
0.807324	1.437034
0.807422	1.471028
0.807520	1.498162
0.807617	1.504116
0.807715	1.476132
0.807812	1.464283
0.807910	1.494478
0.808008	1.535336
0.808105	1.553938
0.808203	1.557641
0.808301	1.539124
0.808398	1.539508
0.808496	1.525033
0.808594	1.534790
0.808691	1.539241
0.808789	1.551060
0.808887	1.555102
0.808984	1.541467
0.809082	1.551469
0.809180	1.540990
0.809277	1.510240
0.809375	1.489253
0.809473	1.492700
0.809570	1.519572
0.809668	1.526465
0.809766	1.511243
0.809863	1.495382
0.809961	1.503374
0.810059	1.518938
0.810156	1.517706
0.810254	1.515905
0.810352	1.509116
0.810449	1.497984
0.810547	1.500977
0.810645	1.520704
0.810742	1.553145
0.810840	1.577104
0.810937	1.581150
0.811035	1.591236
0.811133	1.601981
0.811230	1.606028
0.811328	1.613522
0.811426	1.619848
0.811523	1.620534
0.811621	1.621408
0.811719	1.621792
0.811816	1.622697
0.811914	1.623060
0.812012	1.624165
0.812109	1.625049
0.812207	1.626475
0.812305	1.627724
0.812402	1.629548
0.812500	1.630908
0.812598	1.632518
0.812695	1.635152
0.812793	1.637987
0.812891	1.640760
0.812988	1.643053
0.813086	1.642613
0.813184	1.642142
0.813281	1.647283
0.813379	1.629747
0.813477	1.638180
0.813574	1.645919
0.813672	1.643103
0.813770	1.666166
0.813867	1.658756
0.813965	1.639803
0.814062	1.626226
0.814160	1.617302
0.814258	1.607818
0.814355	1.622996
0.814453	1.666742
0.814551	1.672604
0.814648	1.645506
0.814746	1.646413
0.814844	1.668733
0.814941	1.654849
0.815039	1.657227
0.815137	1.637298
0.815234	1.615320
0.815332	1.631423
0.815430	1.618356
0.815527	1.630940
0.815625	1.617817
0.815723	1.600605
0.815820	1.602150
0.815918	1.597248
0.816016	1.561293
0.816113	1.570962
0.816211	1.569815
0.816309	1.570477
0.816406	1.562319
0.816504	1.580548
0.816602	1.623780
0.816699	1.634232
0.816797	1.646484
0.816895	1.671234
0.816992	1.667404
0.817090	1.637475
0.817187	1.637075
0.817285	1.648876
0.817383	1.650785
0.817480	1.665640
0.817578	1.658032
0.817676	1.640039
0.817773	1.626384
0.817871	1.609549
0.817969	1.621130
0.818066	1.606201
0.818164	1.587791
0.818262	1.579992
0.818359	1.598575
0.818457	1.610604
0.818555	1.614440
0.818652	1.618193
0.818750	1.590522
0.818848	1.582168
0.818945	1.596487
0.819043	1.600282
0.819141	1.612686
0.819238	1.611259
0.819336	1.604000
0.819434	1.591666
0.819531	1.611545
0.819629	1.635606
0.819727	1.613039
0.819824	1.599722
0.819922	1.586292
0.820020	1.612664
0.820117	1.627705
0.820215	1.652073
0.820312	1.654070
0.820410	1.643104
0.820508	1.637249
0.820605	1.629156
0.820703	1.643745
0.820801	1.639957
0.820898	1.642891
0.820996	1.631281
0.821094	1.638628
0.821191	1.649682
0.821289	1.630131
0.821387	1.602472
0.821484	1.606144
0.821582	1.626835
0.821680	1.624454
0.821777	1.626636
0.821875	1.624072
0.821973	1.624444
0.822070	1.622854
0.822168	1.623303
0.822266	1.622644
0.822363	1.623442
0.822461	1.623657
0.822559	1.624692
0.822656	1.625932
0.822754	1.627560
0.822852	1.629941
0.822949	1.631291
0.823047	1.633348
0.823145	1.637176
0.823242	1.647092
0.823340	1.657973
0.823437	1.663568
0.823535	1.668510
0.823633	1.656227
0.823730	1.657933
0.823828	1.646570
0.823926	1.648055
0.824023	1.638847
0.824121	1.626268
0.824219	1.609012
0.824316	1.609649
0.824414	1.617308
0.824512	1.612480
0.824609	1.639946
0.824707	1.653980
0.824805	1.657153
0.824902	1.656699
0.825000	1.617716
0.825098	1.581492
0.825195	1.554742
0.825293	1.546882
0.825391	1.528849
0.825488	1.561153
0.825586	1.582749
0.825684	1.587659
0.825781	1.603031
0.825879	1.587281
0.825977	1.575360
0.826074	1.585300
0.826172	1.619989
0.826270	1.641972
0.826367	1.642197
0.826465	1.644402
0.826562	1.644664
0.826660	1.631602
0.826758	1.618360
0.826855	1.602089
0.826953	1.591967
0.827051	1.569318
0.827148	1.549726
0.827246	1.539761
0.827344	1.544480
0.827441	1.546418
0.827539	1.582390
0.827637	1.604379
0.827734	1.596300
0.827832	1.569859
0.827930	1.545575
0.828027	1.543082
0.828125	1.547281
0.828223	1.563833
0.828320	1.593399
0.828418	1.619947
0.828516	1.617201
0.828613	1.615837
0.828711	1.609708
0.828809	1.627492
0.828906	1.631152
0.829004	1.616520
0.829102	1.578696
0.829199	1.540870
0.829297	1.515659
0.829395	1.445954
0.829492	1.420480
0.829590	1.470908
0.829687	1.459072
0.829785	1.495103
0.829883	1.548990
0.829980	1.589833
0.830078	1.608449
0.830176	1.606393
0.830273	1.585228
0.830371	1.567428
0.830469	1.553889
0.830566	1.537621
0.830664	1.534884
0.830762	1.524573
0.830859	1.514006
0.830957	1.502332
0.831055	1.493063
0.831152	1.483000
0.831250	1.498716
0.831348	1.517104
0.831445	1.525461
0.831543	1.545953
0.831641	1.559888
0.831738	1.546456
0.831836	1.544994
0.831934	1.543428
0.832031	1.536329
0.832129	1.526707
0.832227	1.536184
0.832324	1.530229
0.832422	1.530266
0.832520	1.535759
0.832617	1.529669
0.832715	1.533226
0.832812	1.546471
0.832910	1.553903
0.833008	1.536461
0.833105	1.563267
0.833203	1.588552
0.833301	1.595353
0.833398	1.582547
0.833496	1.566260
0.833594	1.577124
0.833691	1.587542
0.833789	1.580839
0.833887	1.605133
0.833984	1.603615
0.834082	1.594734
0.834180	1.617188
0.834277	1.618767
0.834375	1.603856
0.834473	1.581698
0.834570	1.585341
0.834668	1.587592
0.834766	1.593135
0.834863	1.593310
0.834961	1.596631
0.835059	1.598986
0.835156	1.602977
0.835254	1.605175
0.835352	1.606753
0.835449	1.607592
0.835547	1.611350
0.835645	1.615626
0.835742	1.618813
0.835840	1.621639
0.835937	1.623063
0.836035	1.625028
0.836133	1.622966
0.836230	1.625384
0.836328	1.623015
0.836426	1.632803
0.836523	1.636168
0.836621	1.633393
0.836719	1.634321
0.836816	1.635689
0.836914	1.637260
0.837012	1.639631
0.837109	1.640966
0.837207	1.643946
0.837305	1.644426
0.837402	1.648473
0.837500	1.647985
0.837598	1.652878
0.837695	1.646177
0.837793	1.662920
0.837891	1.684263
0.837988	1.685337
0.838086	1.688071
0.838184	1.672768
0.838281	1.657063
0.838379	1.645743
0.838477	1.644866
0.838574	1.641972
0.838672	1.639164
0.838770	1.636484
0.838867	1.638901
0.838965	1.638679
0.839062	1.639618
0.839160	1.628754
0.839258	1.600254
0.839355	1.579270
0.839453	1.583121
0.839551	1.565881
0.839648	1.546093
0.839746	1.529844
0.839844	1.527729
0.839941	1.506456
0.840039	1.458361
0.840137	1.423063
0.840234	1.396338
0.840332	1.428634
0.840430	1.469417
0.840527	1.511340
0.840625	1.534329
0.840723	1.538744
0.840820	1.554080
0.840918	1.540015
0.841016	1.472408
0.841113	1.432723
0.841211	1.437776
0.841309	1.453392
0.841406	1.467573
0.841504	1.459546
0.841602	1.442300
0.841699	1.418263
0.841797	1.423935
0.841895	1.424231
0.841992	1.436668
0.842090	1.533112
0.842187	1.594186
0.842285	1.535087
0.842383	1.508702
0.842480	1.531924
0.842578	1.539135
0.842676	1.552413
0.842773	1.539095
0.842871	1.556165
0.842969	1.570407
0.843066	1.545662
0.843164	1.510595
0.843262	1.474291
0.843359	1.419297
0.843457	1.369380
0.843555	1.409377
0.843652	1.447606
0.843750	1.426681
0.843848	1.438541
0.843945	1.493068
0.844043	1.517466
0.844141	1.517710
0.844238	1.530339
0.844336	1.534353
0.844434	1.534464
0.844531	1.518194
0.844629	1.492360
0.844727	1.463336
0.844824	1.452896
0.844922	1.470773
0.845020	1.476054
0.845117	1.467894
0.845215	1.482725
0.845312	1.514466
0.845410	1.540068
0.845508	1.553613
0.845605	1.546936
0.845703	1.525409
0.845801	1.488004
0.845898	1.433781
0.845996	1.490797
0.846094	1.544089
0.846191	1.584967
0.846289	1.585427
0.846387	1.567509
0.846484	1.536057
0.846582	1.592813
0.846680	1.652689
0.846777	1.623606
0.846875	1.634895
0.846973	1.628336
0.847070	1.640788
0.847168	1.643122
0.847266	1.639212
0.847363	1.630418
0.847461	1.625345
0.847559	1.628167
0.847656	1.641769
0.847754	1.650974
0.847852	1.669127
0.847949	1.658616
0.848047	1.650812
0.848145	1.632668
0.848242	1.630078
0.848340	1.629753
0.848437	1.620477
0.848535	1.619375
0.848633	1.638183
0.848730	1.650215
0.848828	1.650565
0.848926	1.645250
0.849023	1.649525
0.849121	1.647913
0.849219	1.648517
0.849316	1.646950
0.849414	1.647755
0.849512	1.646828
0.849609	1.646563
0.849707	1.645456
0.849805	1.644685
0.849902	1.645031
0.850000	1.646549
0.850098	1.636792
0.850195	1.636457
0.850293	1.638907
0.850391	1.638728
0.850488	1.641518
0.850586	1.643651
0.850684	1.646659
0.850781	1.659297
0.850879	1.654114
0.850977	1.659126
0.851074	1.664706
0.851172	1.651990
0.851270	1.636491
0.851367	1.624277
0.851465	1.620124
0.851562	1.614023
0.851660	1.626285
0.851758	1.640742
0.851855	1.632322
0.851953	1.638156
0.852051	1.662768
0.852148	1.660376
0.852246	1.670554
0.852344	1.626723
0.852441	1.599257
0.852539	1.606322
0.852637	1.612911
0.852734	1.587391
0.852832	1.587954
0.852930	1.616084
0.853027	1.582503
0.853125	1.568157
0.853223	1.577360
0.853320	1.592212
0.853418	1.608947
0.853516	1.617039
0.853613	1.630028
0.853711	1.637556
0.853809	1.643049
0.853906	1.632225
0.854004	1.624285
0.854102	1.609552
0.854199	1.639135
0.854297	1.687454
0.854395	1.646857
0.854492	1.645279
0.854590	1.668876
0.854687	1.683434
0.854785	1.682234
0.854883	1.680540
0.854980	1.679954
0.855078	1.682151
0.855176	1.682195
0.855273	1.677522
0.855371	1.672854
0.855469	1.673259
0.855566	1.674442
0.855664	1.676992
0.855762	1.678437
0.855859	1.679643
0.855957	1.665272
0.856055	1.646529
0.856152	1.645053
0.856250	1.644038
0.856348	1.634620
0.856445	1.627500
0.856543	1.599464
0.856641	1.587401
0.856738	1.569697
0.856836	1.541010
0.856934	1.537008
0.857031	1.531951
0.857129	1.535972
0.857227	1.544744
0.857324	1.530826
0.857422	1.534452
0.857520	1.532489
0.857617	1.521669
0.857715	1.535621
0.857812	1.541278
0.857910	1.534965
0.858008	1.525738
0.858105	1.523883
0.858203	1.518598
0.858301	1.508652
0.858398	1.495651
0.858496	1.516549
0.858594	1.527778
0.858691	1.530544
0.858789	1.523982
0.858887	1.509225
0.858984	1.479160
0.859082	1.463691
0.859180	1.488734
0.859277	1.535208
0.859375	1.554706
0.859473	1.581933
0.859570	1.574319
0.859668	1.566106
0.859766	1.546433
0.859863	1.547433
0.859961	1.561721
0.860059	1.545684
0.860156	1.557826
0.860254	1.555915
0.860352	1.549149
0.860449	1.534006
0.860547	1.507646
0.860645	1.485898
0.860742	1.487604
0.860840	1.483731
0.860937	1.472320
0.861035	1.427829
0.861133	1.373464
0.861230	1.429780
0.861328	1.446104
0.861426	1.443413
0.861523	1.440587
0.861621	1.443167
0.861719	1.449376
0.861816	1.447355
0.861914	1.447096
0.862012	1.463133
0.862109	1.492864
0.862207	1.538517
0.862305	1.576200
0.862402	1.595811
0.862500	1.614527
0.862598	1.569226
0.862695	1.558042
0.862793	1.586254
0.862891	1.602307
0.862988	1.596013
0.863086	1.614505
0.863184	1.580239
0.863281	1.565558
0.863379	1.579381
0.863477	1.569812
0.863574	1.575012
0.863672	1.570661
0.863770	1.603850
0.863867	1.620614
0.863965	1.591911
0.864062	1.591190
0.864160	1.592555
0.864258	1.553625
0.864355	1.526029
0.864453	1.542278
0.864551	1.542880
0.864648	1.584800
0.864746	1.629274
0.864844	1.627641
0.864941	1.627396
0.865039	1.609681
0.865137	1.612961
0.865234	1.624315
0.865332	1.642775
0.865430	1.619489
0.865527	1.619624
0.865625	1.629124
0.865723	1.627342
0.865820	1.630374
0.865918	1.631405
0.866016	1.635587
0.866113	1.638779
0.866211	1.644172
0.866309	1.649212
0.866406	1.656172
0.866504	1.662249
0.866602	1.667648
0.866699	1.671519
0.866797	1.675292
0.866895	1.677184
0.866992	1.677526
0.867090	1.675731
0.867187	1.673903
0.867285	1.670669
0.867383	1.665568
0.867480	1.662054
0.867578	1.660646
0.867676	1.661573
0.867773	1.663369
0.867871	1.666802
0.867969	1.670874
0.868066	1.677692
0.868164	1.683376
0.868262	1.691267
0.868359	1.694483
0.868457	1.684163
0.868555	1.678601
0.868652	1.675805
0.868750	1.675978
0.868848	1.673020
0.868945	1.675119
0.869043	1.677163
0.869141	1.674437
0.869238	1.669389
0.869336	1.657727
0.869434	1.657146
0.869531	1.658724
0.869629	1.661372
0.869727	1.661915
0.869824	1.660714
0.869922	1.649423
0.870020	1.651946
0.870117	1.657850
0.870215	1.665518
0.870312	1.668555
0.870410	1.661622
0.870508	1.646211
0.870605	1.656554
0.870703	1.668585
0.870801	1.676599
0.870898	1.686119
0.870996	1.682904
0.871094	1.678798
0.871191	1.675661
0.871289	1.675299
0.871387	1.676347
0.871484	1.677513
0.871582	1.678151
0.871680	1.679619
0.871777	1.678389
0.871875	1.675505
0.871973	1.690511
0.872070	1.699333
0.872168	1.685456
0.872266	1.662570
0.872363	1.664818
0.872461	1.671264
0.872559	1.648384
0.872656	1.646354
0.872754	1.670628
0.872852	1.669615
0.872949	1.675079
0.873047	1.676304
0.873145	1.684284
0.873242	1.686084
0.873340	1.679653
0.873437	1.671384
0.873535	1.671709
0.873633	1.672178
0.873730	1.673461
0.873828	1.685946
0.873926	1.676122
0.874023	1.687532
0.874121	1.690355
0.874219	1.695335
0.874316	1.699191
0.874414	1.697765
0.874512	1.694237
0.874609	1.689272
0.874707	1.686334
0.874805	1.682900
0.874902	1.687256
0.875000	1.690308
0.875098	1.696820
0.875195	1.703654
0.875293	1.702283
0.875391	1.700502
0.875488	1.681513
0.875586	1.667262
0.875684	1.674498
0.875781	1.680514
0.875879	1.699602
0.875977	1.709390
0.876074	1.719517
0.876172	1.725173
0.876270	1.714627
0.876367	1.723917
0.876465	1.727196
0.876562	1.730143
0.876660	1.722800
0.876758	1.702724
0.876855	1.703040
0.876953	1.687042
0.877051	1.677797
0.877148	1.669160
0.877246	1.646435
0.877344	1.627882
0.877441	1.610452
0.877539	1.608273
0.877637	1.621273
0.877734	1.572438
0.877832	1.553912
0.877930	1.598188
0.878027	1.587885
0.878125	1.590506
0.878223	1.559442
0.878320	1.536244
0.878418	1.534174
0.878516	1.528329
0.878613	1.591230
0.878711	1.611219
0.878809	1.619791
0.878906	1.649190
0.879004	1.642114
0.879102	1.634817
0.879199	1.631488
0.879297	1.635621
0.879395	1.631765
0.879492	1.640021
0.879590	1.639302
0.879687	1.634637
0.879785	1.631996
0.879883	1.609276
0.879980	1.610064
0.880078	1.584622
0.880176	1.553846
0.880273	1.543768
0.880371	1.578077
0.880469	1.574719
0.880566	1.574627
0.880664	1.608259
0.880762	1.631437
0.880859	1.614898
0.880957	1.592203
0.881055	1.553935
0.881152	1.553239
0.881250	1.545052
0.881348	1.524511
0.881445	1.517907
0.881543	1.526989
0.881641	1.531823
0.881738	1.531119
0.881836	1.528383
0.881934	1.524058
0.882031	1.521492
0.882129	1.516885
0.882227	1.515829
0.882324	1.508313
0.882422	1.484478
0.882520	1.484846
0.882617	1.490548
0.882715	1.444466
0.882812	1.426449
0.882910	1.433480
0.883008	1.427639
0.883105	1.438634
0.883203	1.446203
0.883301	1.450106
0.883398	1.466801
0.883496	1.462488
0.883594	1.440635
0.883691	1.424587
0.883789	1.452461
0.883887	1.467722
0.883984	1.486919
0.884082	1.562225
0.884180	1.601837
0.884277	1.615270
0.884375	1.614853
0.884473	1.618457
0.884570	1.622843
0.884668	1.627978
0.884766	1.632378
0.884863	1.637583
0.884961	1.642503
0.885059	1.648285
0.885156	1.654529
0.885254	1.661802
0.885352	1.670274
0.885449	1.673772
0.885547	1.672834
0.885645	1.667417
0.885742	1.660003
0.885840	1.653981
0.885937	1.646781
0.886035	1.639666
0.886133	1.628597
0.886230	1.627621
0.886328	1.617365
0.886426	1.611036
0.886523	1.616180
0.886621	1.602502
0.886719	1.603124
0.886816	1.614530
0.886914	1.643723
0.887012	1.669870
0.887109	1.677023
0.887207	1.674391
0.887305	1.672347
0.887402	1.703979
0.887500	1.708731
0.887598	1.703597
0.887695	1.694193
0.887793	1.693873
0.887891	1.704986
0.887988	1.677551
0.888086	1.654317
0.888184	1.676954
0.888281	1.667978
0.888379	1.698892
0.888477	1.708301
0.888574	1.701308
0.888672	1.704350
0.888770	1.699961
0.888867	1.691988
0.888965	1.697903
0.889062	1.695642
0.889160	1.697643
0.889258	1.701875
0.889355	1.697044
0.889453	1.696778
0.889551	1.700319
0.889648	1.702056
0.889746	1.706223
0.889844	1.691423
0.889941	1.680389
0.890039	1.673622
0.890137	1.670051
0.890234	1.654770
0.890332	1.627228
0.890430	1.633111
0.890527	1.614960
0.890625	1.583475
0.890723	1.619660
0.890820	1.608070
0.890918	1.571068
0.891016	1.575516
0.891113	1.533303
0.891211	1.560674
0.891309	1.549387
0.891406	1.537172
0.891504	1.483096
0.891602	1.484240
0.891699	1.512082
0.891797	1.474284
0.891895	1.440093
0.891992	1.435828
0.892090	1.427645
0.892187	1.418085
0.892285	1.439940
0.892383	1.445126
0.892480	1.442715
0.892578	1.444189
0.892676	1.478158
0.892773	1.507832
0.892871	1.520877
0.892969	1.513107
0.893066	1.504449
0.893164	1.509966
0.893262	1.501520
0.893359	1.490244
0.893457	1.470576
0.893555	1.484166
0.893652	1.540913
0.893750	1.570701
0.893848	1.556076
0.893945	1.557632
0.894043	1.595858
0.894141	1.609486
0.894238	1.621752
0.894336	1.642565
0.894434	1.614061
0.894531	1.593853
0.894629	1.614187
0.894727	1.607208
0.894824	1.613251
0.894922	1.620102
0.895020	1.625174
0.895117	1.648545
0.895215	1.658661
0.895312	1.665774
0.895410	1.670436
0.895508	1.669363
0.895605	1.656266
0.895703	1.649534
0.895801	1.643020
0.895898	1.645792
0.895996	1.651493
0.896094	1.656724
0.896191	1.657871
0.896289	1.655494
0.896387	1.656417
0.896484	1.657512
0.896582	1.662947
0.896680	1.669372
0.896777	1.658609
0.896875	1.665698
0.896973	1.673142
0.897070	1.671923
0.897168	1.672852
0.897266	1.671484
0.897363	1.669513
0.897461	1.666525
0.897559	1.663632
0.897656	1.661090
0.897754	1.659242
0.897852	1.658423
0.897949	1.658417
0.898047	1.660009
0.898145	1.662026
0.898242	1.663350
0.898340	1.664579
0.898437	1.667804
0.898535	1.668529
0.898633	1.644827
0.898730	1.635677
0.898828	1.647700
0.898926	1.654763
0.899023	1.654312
0.899121	1.655095
0.899219	1.656037
0.899316	1.656033
0.899414	1.656218
0.899512	1.656423
0.899609	1.664665
0.899707	1.662445
0.899805	1.652315
0.899902	1.635914
0.900000	1.621096
0.900098	1.601280
0.900195	1.586185
0.900293	1.593056
0.900391	1.606415
0.900488	1.619652
0.900586	1.639118
0.900684	1.667729
0.900781	1.650450
0.900879	1.645899
0.900977	1.671881
0.901074	1.676843
0.901172	1.658338
0.901270	1.629080
0.901367	1.621103
0.901465	1.609145
0.901562	1.639696
0.901660	1.626948
0.901758	1.628346
0.901855	1.664454
0.901953	1.667404
0.902051	1.668348
0.902148	1.667455
0.902246	1.678269
0.902344	1.667754
0.902441	1.645942
0.902539	1.643982
0.902637	1.637293
0.902734	1.633169
0.902832	1.659716
0.902930	1.666637
0.903027	1.659803
0.903125	1.643680
0.903223	1.632367
0.903320	1.628026
0.903418	1.645242
0.903516	1.633731
0.903613	1.587195
0.903711	1.559084
0.903809	1.571266
0.903906	1.592268
0.904004	1.613567
0.904102	1.582718
0.904199	1.563241
0.904297	1.547902
0.904395	1.569246
0.904492	1.582373
0.904590	1.585483
0.904687	1.591254
0.904785	1.616785
0.904883	1.640060
0.904980	1.665025
0.905078	1.687668
0.905176	1.697964
0.905273	1.687711
0.905371	1.674108
0.905469	1.670952
0.905566	1.672129
0.905664	1.675517
0.905762	1.679537
0.905859	1.683346
0.905957	1.686541
0.906055	1.691516
0.906152	1.693134
0.906250	1.690815
0.906348	1.687441
0.906445	1.680804
0.906543	1.677160
0.906641	1.673929
0.906738	1.675669
0.906836	1.676786
0.906934	1.684179
0.907031	1.695461
0.907129	1.705766
0.907227	1.706572
0.907324	1.710259
0.907422	1.695415
0.907520	1.684620
0.907617	1.655404
0.907715	1.644951
0.907812	1.677415
0.907910	1.668898
0.908008	1.658420
0.908105	1.653032
0.908203	1.660968
0.908301	1.673754
0.908398	1.674409
0.908496	1.674155
0.908594	1.656856
0.908691	1.644027
0.908789	1.620617
0.908887	1.613974
0.908984	1.626974
0.909082	1.657701
0.909180	1.694190
0.909277	1.684140
0.909375	1.672185
0.909473	1.661050
0.909570	1.661379
0.909668	1.668346
0.909766	1.678709
0.909863	1.689233
0.909961	1.661064
0.910059	1.622267
0.910156	1.623776
0.910254	1.634847
0.910352	1.628350
0.910449	1.631347
0.910547	1.627478
0.910645	1.611240
0.910742	1.627486
0.910840	1.594749
0.910937	1.562414
0.911035	1.549008
0.911133	1.555347
0.911230	1.557568
0.911328	1.549736
0.911426	1.554715
0.911523	1.550280
0.911621	1.526108
0.911719	1.509457
0.911816	1.529967
0.911914	1.510394
0.912012	1.487070
0.912109	1.527982
0.912207	1.562414
0.912305	1.566247
0.912402	1.552549
0.912500	1.533579
0.912598	1.533953
0.912695	1.518409
0.912793	1.533589
0.912891	1.566662
0.912988	1.564711
0.913086	1.550742
0.913184	1.530457
0.913281	1.515447
0.913379	1.518900
0.913477	1.477438
0.913574	1.498131
0.913672	1.539777
0.913770	1.552911
0.913867	1.555696
0.913965	1.545693
0.914062	1.520326
0.914160	1.528815
0.914258	1.549385
0.914355	1.539355
0.914453	1.521088
0.914551	1.508281
0.914648	1.491025
0.914746	1.489927
0.914844	1.492640
0.914941	1.517027
0.915039	1.537875
0.915137	1.559574
0.915234	1.595310
0.915332	1.590335
0.915430	1.567075
0.915527	1.552722
0.915625	1.565314
0.915723	1.582201
0.915820	1.582782
0.915918	1.583946
0.916016	1.581961
0.916113	1.600143
0.916211	1.595513
0.916309	1.576062
0.916406	1.557371
0.916504	1.537744
0.916602	1.521129
0.916699	1.516441
0.916797	1.524443
0.916895	1.521239
0.916992	1.503510
0.917090	1.507823
0.917187	1.517051
0.917285	1.507105
0.917383	1.505510
0.917480	1.520072
0.917578	1.545421
0.917676	1.548970
0.917773	1.546971
0.917871	1.562471
0.917969	1.570735
0.918066	1.564989
0.918164	1.561548
0.918262	1.566486
0.918359	1.555555
0.918457	1.544530
0.918555	1.548196
0.918652	1.570691
0.918750	1.567228
0.918848	1.560244
0.918945	1.556860
0.919043	1.610404
0.919141	1.628757
0.919238	1.641743
0.919336	1.634870
0.919434	1.604658
0.919531	1.593894
0.919629	1.591597
0.919727	1.602360
0.919824	1.589793
0.919922	1.594258
0.920020	1.595852
0.920117	1.582598
0.920215	1.557095
0.920312	1.563009
0.920410	1.579886
0.920508	1.589809
0.920605	1.550298
0.920703	1.552435
0.920801	1.567518
0.920898	1.603660
0.920996	1.618755
0.921094	1.604930
0.921191	1.595009
0.921289	1.600123
0.921387	1.601110
0.921484	1.624249
0.921582	1.612063
0.921680	1.608264
0.921777	1.643564
0.921875	1.650265
0.921973	1.651410
0.922070	1.644060
0.922168	1.655525
0.922266	1.659124
0.922363	1.641005
0.922461	1.644063
0.922559	1.638590
0.922656	1.631682
0.922754	1.646472
0.922852	1.633863
0.922949	1.616405
0.923047	1.620520
0.923145	1.627224
0.923242	1.581166
0.923340	1.565677
0.923437	1.561726
0.923535	1.545864
0.923633	1.544630
0.923730	1.544942
0.923828	1.531521
0.923926	1.515551
0.924023	1.528321
0.924121	1.541737
0.924219	1.531239
0.924316	1.540009
0.924414	1.537001
0.924512	1.540114
0.924609	1.547203
0.924707	1.557247
0.924805	1.562439
0.924902	1.553536
0.925000	1.550528
0.925098	1.567859
0.925195	1.561929
0.925293	1.551070
0.925391	1.520600
0.925488	1.506667
0.925586	1.530456
0.925684	1.553366
0.925781	1.560598
0.925879	1.591397
0.925977	1.629725
0.926074	1.634513
0.926172	1.652658
0.926270	1.644555
0.926367	1.631762
0.926465	1.622259
0.926562	1.617434
0.926660	1.621016
0.926758	1.640409
0.926855	1.632181
0.926953	1.597280
0.927051	1.565566
0.927148	1.541805
0.927246	1.540177
0.927344	1.541291
0.927441	1.565279
0.927539	1.600211
0.927637	1.608785
0.927734	1.609165
0.927832	1.611833
0.927930	1.603106
0.928027	1.586258
0.928125	1.573598
0.928223	1.569582
0.928320	1.559155
0.928418	1.558189
0.928516	1.569798
0.928613	1.599761
0.928711	1.620668
0.928809	1.611858
0.928906	1.612689
0.929004	1.596488
0.929102	1.590417
0.929199	1.602123
0.929297	1.618127
0.929395	1.665053
0.929492	1.671805
0.929590	1.663829
0.929687	1.676790
0.929785	1.677397
0.929883	1.675045
0.929980	1.671491
0.930078	1.667294
0.930176	1.666414
0.930273	1.668573
0.930371	1.671068
0.930469	1.672637
0.930566	1.675108
0.930664	1.675534
0.930762	1.673175
0.930859	1.671166
0.930957	1.668072
0.931055	1.665535
0.931152	1.663577
0.931250	1.662113
0.931348	1.662060
0.931445	1.660747
0.931543	1.658092
0.931641	1.659670
0.931738	1.660661
0.931836	1.661739
0.931934	1.662964
0.932031	1.664529
0.932129	1.666605
0.932227	1.668388
0.932324	1.670587
0.932422	1.673488
0.932520	1.675805
0.932617	1.678510
0.932715	1.681300
0.932812	1.684241
0.932910	1.686275
0.933008	1.686020
0.933105	1.684359
0.933203	1.682227
0.933301	1.679867
0.933398	1.676593
0.933496	1.671957
0.933594	1.666359
0.933691	1.661437
0.933789	1.658176
0.933887	1.656361
0.933984	1.655590
0.934082	1.655854
0.934180	1.657273
0.934277	1.659090
0.934375	1.661682
0.934473	1.667014
0.934570	1.673274
0.934668	1.676521
0.934766	1.677865
0.934863	1.679194
0.934961	1.679817
0.935059	1.681348
0.935156	1.683020
0.935254	1.684935
0.935352	1.686345
0.935449	1.696843
0.935547	1.698105
0.935645	1.690291
0.935742	1.683208
0.935840	1.676646
0.935937	1.664391
0.936035	1.667683
0.936133	1.696471
0.936230	1.701074
0.936328	1.717338
0.936426	1.710886
0.936523	1.692363
0.936621	1.692252
0.936719	1.681385
0.936816	1.664036
0.936914	1.657472
0.937012	1.681990
0.937109	1.710054
0.937207	1.717522
0.937305	1.715392
0.937402	1.705241
0.937500	1.706331
0.937598	1.701020
0.937695	1.695533
0.937793	1.697797
0.937891	1.695449
0.937988	1.690829
0.938086	1.685218
0.938184	1.663749
0.938281	1.640478
0.938379	1.648831
0.938477	1.670498
0.938574	1.674310
0.938672	1.634232
0.938770	1.592698
0.938867	1.595471
0.938965	1.617764
0.939062	1.644071
0.939160	1.630120
0.939258	1.622068
0.939355	1.645531
0.939453	1.660338
0.939551	1.663784
0.939648	1.668533
0.939746	1.661056
0.939844	1.661565
0.939941	1.652852
0.940039	1.654498
0.940137	1.656334
0.940234	1.676313
0.940332	1.676683
0.940430	1.644684
0.940527	1.630008
0.940625	1.641574
0.940723	1.644879
0.940820	1.638641
0.940918	1.652388
0.941016	1.618881
0.941113	1.588485
0.941211	1.584615
0.941309	1.609815
0.941406	1.604995
0.941504	1.617199
0.941602	1.623505
0.941699	1.624748
0.941797	1.643290
0.941895	1.634252
0.941992	1.621838
0.942090	1.650300
0.942187	1.653755
0.942285	1.617666
0.942383	1.612520
0.942480	1.621521
0.942578	1.608933
0.942676	1.608826
0.942773	1.588020
0.942871	1.562818
0.942969	1.567394
0.943066	1.568404
0.943164	1.565040
0.943262	1.546628
0.943359	1.524836
0.943457	1.504530
0.943555	1.489912
0.943652	1.484017
0.943750	1.455782
0.943848	1.446848
0.943945	1.450600
0.944043	1.442440
0.944141	1.471796
0.944238	1.515439
0.944336	1.568700
0.944434	1.592204
0.944531	1.582890
0.944629	1.563334
0.944727	1.570032
0.944824	1.547679
0.944922	1.533731
0.945020	1.501514
0.945117	1.535274
0.945215	1.582130
0.945312	1.572082
0.945410	1.584967
0.945508	1.590534
0.945605	1.552842
0.945703	1.529859
0.945801	1.496938
0.945898	1.490261
0.945996	1.489032
0.946094	1.495115
0.946191	1.510777
0.946289	1.526335
0.946387	1.519042
0.946484	1.510166
0.946582	1.523511
0.946680	1.528253
0.946777	1.508222
0.946875	1.512096
0.946973	1.543384
0.947070	1.525658
0.947168	1.521463
0.947266	1.522416
0.947363	1.539990
0.947461	1.566639
0.947559	1.598742
0.947656	1.613441
0.947754	1.636131
0.947852	1.633408
0.947949	1.620258
0.948047	1.617730
0.948145	1.606731
0.948242	1.586496
0.948340	1.569159
0.948437	1.549730
0.948535	1.545490
0.948633	1.534431
0.948730	1.544877
0.948828	1.557491
0.948926	1.547520
0.949023	1.553245
0.949121	1.570718
0.949219	1.571593
0.949316	1.581856
0.949414	1.632004
0.949512	1.667593
0.949609	1.646479
0.949707	1.622965
0.949805	1.633098
0.949902	1.632164
0.950000	1.643582
0.950098	1.647416
0.950195	1.639039
0.950293	1.615159
0.950391	1.573114
0.950488	1.528146
0.950586	1.524291
0.950684	1.542521
0.950781	1.537158
0.950879	1.543287
0.950977	1.606833
0.951074	1.634775
0.951172	1.610846
0.951270	1.617091
0.951367	1.608428
0.951465	1.596521
0.951562	1.566128
0.951660	1.553699
0.951758	1.563834
0.951855	1.562200
0.951953	1.562454
0.952051	1.593167
0.952148	1.595829
0.952246	1.608932
0.952344	1.622675
0.952441	1.619317
0.952539	1.636735
0.952637	1.638345
0.952734	1.636189
0.952832	1.617699
0.952930	1.633975
0.953027	1.625188
0.953125	1.611545
0.953223	1.591990
0.953320	1.600601
0.953418	1.593022
0.953516	1.592255
0.953613	1.580675
0.953711	1.578146
0.953809	1.549185
0.953906	1.522095
0.954004	1.502696
0.954102	1.503729
0.954199	1.504971
0.954297	1.509318
0.954395	1.542716
0.954492	1.539945
0.954590	1.534133
0.954687	1.521378
0.954785	1.516546
0.954883	1.509516
0.954980	1.490997
0.955078	1.492336
0.955176	1.502201
0.955273	1.495671
0.955371	1.491083
0.955469	1.517885
0.955566	1.566029
0.955664	1.551928
0.955762	1.524677
0.955859	1.537068
0.955957	1.550083
0.956055	1.544866
0.956152	1.548821
0.956250	1.547748
0.956348	1.535150
0.956445	1.537629
0.956543	1.533293
0.956641	1.520844
0.956738	1.498003
0.956836	1.489336
0.956934	1.488086
0.957031	1.473172
0.957129	1.455758
0.957227	1.484821
0.957324	1.510790
0.957422	1.518390
0.957520	1.525685
0.957617	1.537800
0.957715	1.557655
0.957812	1.562837
0.957910	1.556229
0.958008	1.540844
0.958105	1.550077
0.958203	1.568414
0.958301	1.571229
0.958398	1.558482
0.958496	1.558194
0.958594	1.548767
0.958691	1.531926
0.958789	1.538686
0.958887	1.548353
0.958984	1.553220
0.959082	1.562848
0.959180	1.555113
0.959277	1.540708
0.959375	1.569358
0.959473	1.587206
0.959570	1.579876
0.959668	1.581805
0.959766	1.587954
0.959863	1.620141
0.959961	1.616156
0.960059	1.611893
0.960156	1.625387
0.960254	1.632485
0.960352	1.635635
0.960449	1.634804
0.960547	1.635345
0.960645	1.636361
0.960742	1.638102
0.960840	1.639681
0.960937	1.635341
0.961035	1.625006
0.961133	1.619561
0.961230	1.615309
0.961328	1.611970
0.961426	1.606620
0.961523	1.607342
0.961621	1.608819
0.961719	1.613168
0.961816	1.629854
0.961914	1.650520
0.962012	1.653199
0.962109	1.621965
0.962207	1.617080
0.962305	1.620203
0.962402	1.618758
0.962500	1.621572
0.962598	1.630152
0.962695	1.629570
0.962793	1.603918
0.962891	1.585903
0.962988	1.574012
0.963086	1.582433
0.963184	1.597143
0.963281	1.640221
0.963379	1.647213
0.963477	1.614223
0.963574	1.567603
0.963672	1.552129
0.963770	1.548616
0.963867	1.542989
0.963965	1.526402
0.964062	1.499239
0.964160	1.500789
0.964258	1.505036
0.964355	1.502512
0.964453	1.485236
0.964551	1.496404
0.964648	1.515623
0.964746	1.525561
0.964844	1.514451
0.964941	1.534337
0.965039	1.560465
0.965137	1.599409
0.965234	1.603135
0.965332	1.580177
0.965430	1.564702
0.965527	1.531770
0.965625	1.561906
0.965723	1.575801
0.965820	1.607565
0.965918	1.608848
0.966016	1.615584
0.966113	1.609453
0.966211	1.588270
0.966309	1.583034
0.966406	1.599773
0.966504	1.615086
0.966602	1.596255
0.966699	1.643337
0.966797	1.673056
0.966895	1.662953
0.966992	1.630158
0.967090	1.633452
0.967187	1.622265
0.967285	1.618678
0.967383	1.606519
0.967480	1.584203
0.967578	1.564401
0.967676	1.615416
0.967773	1.641256
0.967871	1.633098
0.967969	1.606670
0.968066	1.564954
0.968164	1.579228
0.968262	1.564008
0.968359	1.571572
0.968457	1.611589
0.968555	1.585219
0.968652	1.552787
0.968750	1.490720
0.968848	1.516686
0.968945	1.531964
0.969043	1.509448
0.969141	1.520550
0.969238	1.580228
0.969336	1.615350
0.969434	1.632664
0.969531	1.584527
0.969629	1.574810
0.969727	1.568391
0.969824	1.562817
0.969922	1.583781
0.970020	1.590152
0.970117	1.602543
0.970215	1.612866
0.970312	1.572730
0.970410	1.547609
0.970508	1.577013
0.970605	1.653815
0.970703	1.669498
0.970801	1.665671
0.970898	1.657952
0.970996	1.641619
0.971094	1.599190
0.971191	1.601729
0.971289	1.633779
0.971387	1.628110
0.971484	1.588692
0.971582	1.567771
0.971680	1.573146
0.971777	1.540886
0.971875	1.536304
0.971973	1.566940
0.972070	1.577516
0.972168	1.577210
0.972266	1.566059
0.972363	1.577488
0.972461	1.565514
0.972559	1.547096
0.972656	1.551894
0.972754	1.576664
0.972852	1.601029
0.972949	1.601889
0.973047	1.597166
0.973145	1.581664
0.973242	1.568160
0.973340	1.563143
0.973437	1.533966
0.973535	1.538946
0.973633	1.571080
0.973730	1.580073
0.973828	1.582328
0.973926	1.588858
0.974023	1.596104
0.974121	1.566519
0.974219	1.568376
0.974316	1.561572
0.974414	1.565309
0.974512	1.546716
0.974609	1.550894
0.974707	1.575339
0.974805	1.573628
0.974902	1.568247
0.975000	1.575039
0.975098	1.610201
0.975195	1.617754
0.975293	1.630538
0.975391	1.628798
0.975488	1.628715
0.975586	1.624153
0.975684	1.617172
0.975781	1.598250
0.975879	1.582777
0.975977	1.575766
0.976074	1.577364
0.976172	1.579447
0.976270	1.583351
0.976367	1.586436
0.976465	1.589492

