LabVIEW Measurement	
Writer_Version	2
Reader_Version	2
Separator	Tab
Decimal_Separator	.
Multi_Headings	Yes
X_Columns	One
Time_Pref	Absolute
Operator	W-Tunnel
Date	1904/01/01
Time	01:00:00
***End_of_Header***	
	
Channels	1	
Samples	10000	
Date	2024/05/17	
Time	18:33:33.9801027562495049117	
Y_Unit_Label	Volts	
X_Dimension	Time	
X0	0.0000000000000000E+0	
Delta_X	9.765625E-5	
***End_of_Header***		
X_Value	Voltage	Comment
0.000000	1.672592
9.765625E-5	1.672164
0.000195	1.671559
0.000293	1.670983
0.000391	1.670367
0.000488	1.669601
0.000586	1.668875
0.000684	1.668142
0.000781	1.667281
0.000879	1.666399
0.000977	1.665512
0.001074	1.664615
0.001172	1.663656
0.001270	1.662765
0.001367	1.661938
0.001465	1.661070
0.001562	1.660159
0.001660	1.659461
0.001758	1.658712
0.001855	1.657927
0.001953	1.657188
0.002051	1.656534
0.002148	1.655900
0.002246	1.655256
0.002344	1.654769
0.002441	1.654253
0.002539	1.653835
0.002637	1.653382
0.002734	1.653202
0.002832	1.653085
0.002930	1.652888
0.003027	1.652966
0.003125	1.652949
0.003223	1.653162
0.003320	1.653368
0.003418	1.653654
0.003516	1.653998
0.003613	1.654414
0.003711	1.654812
0.003809	1.655336
0.003906	1.655734
0.004004	1.656335
0.004102	1.656880
0.004199	1.657601
0.004297	1.658144
0.004395	1.658724
0.004492	1.659527
0.004590	1.660193
0.004687	1.660871
0.004785	1.661479
0.004883	1.662240
0.004980	1.662840
0.005078	1.663502
0.005176	1.664158
0.005273	1.664889
0.005371	1.665567
0.005469	1.666198
0.005566	1.666897
0.005664	1.667614
0.005762	1.668400
0.005859	1.669121
0.005957	1.669990
0.006055	1.670853
0.006152	1.671785
0.006250	1.672730
0.006348	1.673601
0.006445	1.674689
0.006543	1.675693
0.006641	1.676712
0.006738	1.677669
0.006836	1.678775
0.006934	1.679862
0.007031	1.680990
0.007129	1.682124
0.007227	1.683115
0.007324	1.683997
0.007422	1.684866
0.007520	1.685402
0.007617	1.686018
0.007715	1.686378
0.007812	1.686757
0.007910	1.686997
0.008008	1.687220
0.008105	1.687502
0.008203	1.687609
0.008301	1.688025
0.008398	1.688255
0.008496	1.688437
0.008594	1.688559
0.008691	1.688717
0.008789	1.688916
0.008887	1.689049
0.008984	1.689329
0.009082	1.689693
0.009180	1.689892
0.009277	1.690311
0.009375	1.690530
0.009473	1.690867
0.009570	1.691036
0.009668	1.691238
0.009766	1.691347
0.009863	1.691304
0.009961	1.691167
0.010059	1.691026
0.010156	1.690785
0.010254	1.690577
0.010352	1.690295
0.010449	1.690042
0.010547	1.689798
0.010645	1.689591
0.010742	1.689426
0.010840	1.689258
0.010937	1.688994
0.011035	1.688783
0.011133	1.688382
0.011230	1.688129
0.011328	1.687737
0.011426	1.687460
0.011523	1.687014
0.011621	1.686532
0.011719	1.686118
0.011816	1.685647
0.011914	1.685146
0.012012	1.684746
0.012109	1.684499
0.012207	1.684331
0.012305	1.684182
0.012402	1.684344
0.012500	1.684578
0.012598	1.684897
0.012695	1.685607
0.012793	1.686189
0.012891	1.686872
0.012988	1.687373
0.013086	1.687903
0.013184	1.688300
0.013281	1.688558
0.013379	1.688979
0.013477	1.689248
0.013574	1.689489
0.013672	1.689327
0.013770	1.688637
0.013867	1.687619
0.013965	1.686312
0.014062	1.685059
0.014160	1.683626
0.014258	1.682109
0.014355	1.680626
0.014453	1.678932
0.014551	1.677371
0.014648	1.676179
0.014746	1.675590
0.014844	1.675041
0.014941	1.674568
0.015039	1.674174
0.015137	1.673760
0.015234	1.673417
0.015332	1.673196
0.015430	1.672996
0.015527	1.672993
0.015625	1.673192
0.015723	1.673409
0.015820	1.673747
0.015918	1.674131
0.016016	1.674556
0.016113	1.674941
0.016211	1.675342
0.016309	1.675689
0.016406	1.676130
0.016504	1.676556
0.016602	1.676854
0.016699	1.677136
0.016797	1.677358
0.016895	1.677375
0.016992	1.677483
0.017090	1.677487
0.017187	1.677510
0.017285	1.677501
0.017383	1.677328
0.017480	1.677120
0.017578	1.676868
0.017676	1.676433
0.017773	1.675868
0.017871	1.675113
0.017969	1.674339
0.018066	1.673476
0.018164	1.672567
0.018262	1.671670
0.018359	1.670675
0.018457	1.669693
0.018555	1.668680
0.018652	1.667541
0.018750	1.666473
0.018848	1.665326
0.018945	1.664219
0.019043	1.663010
0.019141	1.661806
0.019238	1.660759
0.019336	1.659611
0.019434	1.658685
0.019531	1.657832
0.019629	1.657098
0.019727	1.656690
0.019824	1.656201
0.019922	1.656027
0.020020	1.655904
0.020117	1.655780
0.020215	1.655898
0.020312	1.656086
0.020410	1.656378
0.020508	1.656612
0.020605	1.656996
0.020703	1.657432
0.020801	1.657907
0.020898	1.658483
0.020996	1.659018
0.021094	1.659472
0.021191	1.659914
0.021289	1.660471
0.021387	1.660773
0.021484	1.661238
0.021582	1.661579
0.021680	1.661928
0.021777	1.662437
0.021875	1.662799
0.021973	1.663387
0.022070	1.663726
0.022168	1.664355
0.022266	1.664846
0.022363	1.665362
0.022461	1.665926
0.022559	1.666340
0.022656	1.666986
0.022754	1.667366
0.022852	1.668042
0.022949	1.668667
0.023047	1.669324
0.023145	1.670055
0.023242	1.670808
0.023340	1.671558
0.023437	1.672303
0.023535	1.673072
0.023633	1.673610
0.023730	1.674350
0.023828	1.674778
0.023926	1.675209
0.024023	1.675663
0.024121	1.676171
0.024219	1.676633
0.024316	1.677181
0.024414	1.677782
0.024512	1.678338
0.024609	1.679135
0.024707	1.679783
0.024805	1.680469
0.024902	1.681253
0.025000	1.682048
0.025098	1.682714
0.025195	1.683438
0.025293	1.683861
0.025391	1.684364
0.025488	1.684540
0.025586	1.684748
0.025684	1.684889
0.025781	1.685081
0.025879	1.685222
0.025977	1.685397
0.026074	1.685684
0.026172	1.685853
0.026270	1.686190
0.026367	1.686403
0.026465	1.686644
0.026562	1.686764
0.026660	1.686791
0.026758	1.686729
0.026855	1.686654
0.026953	1.686510
0.027051	1.686332
0.027148	1.686224
0.027246	1.685916
0.027344	1.685663
0.027441	1.685478
0.027539	1.685383
0.027637	1.685190
0.027734	1.685067
0.027832	1.684981
0.027930	1.684920
0.028027	1.684860
0.028125	1.684762
0.028223	1.684760
0.028320	1.684798
0.028418	1.684939
0.028516	1.684812
0.028613	1.684824
0.028711	1.684709
0.028809	1.684509
0.028906	1.684081
0.029004	1.683788
0.029102	1.683283
0.029199	1.682689
0.029297	1.682051
0.029395	1.681336
0.029492	1.680594
0.029590	1.679876
0.029687	1.679241
0.029785	1.678658
0.029883	1.678146
0.029980	1.677767
0.030078	1.677416
0.030176	1.677198
0.030273	1.677076
0.030371	1.677121
0.030469	1.677136
0.030566	1.677211
0.030664	1.677342
0.030762	1.677508
0.030859	1.677542
0.030957	1.677582
0.031055	1.677562
0.031152	1.677533
0.031250	1.677305
0.031348	1.677004
0.031445	1.676633
0.031543	1.676236
0.031641	1.675836
0.031738	1.675310
0.031836	1.674950
0.031934	1.674644
0.032031	1.674398
0.032129	1.674331
0.032227	1.674170
0.032324	1.674219
0.032422	1.674242
0.032520	1.674238
0.032617	1.674394
0.032715	1.674534
0.032812	1.674480
0.032910	1.674675
0.033008	1.674692
0.033105	1.674787
0.033203	1.674651
0.033301	1.674675
0.033398	1.674703
0.033496	1.674589
0.033594	1.674716
0.033691	1.674686
0.033789	1.674710
0.033887	1.674877
0.033984	1.674969
0.034082	1.675151
0.034180	1.675359
0.034277	1.675603
0.034375	1.675744
0.034473	1.675856
0.034570	1.675885
0.034668	1.675725
0.034766	1.675588
0.034863	1.675289
0.034961	1.675031
0.035059	1.674856
0.035156	1.674760
0.035254	1.674702
0.035352	1.674849
0.035449	1.675132
0.035547	1.675398
0.035645	1.675724
0.035742	1.676067
0.035840	1.676425
0.035937	1.676643
0.036035	1.676816
0.036133	1.676934
0.036230	1.677032
0.036328	1.677109
0.036426	1.677126
0.036523	1.677128
0.036621	1.677226
0.036719	1.677149
0.036816	1.677188
0.036914	1.677084
0.037012	1.677222
0.037109	1.677335
0.037207	1.677465
0.037305	1.677666
0.037402	1.677897
0.037500	1.678200
0.037598	1.678559
0.037695	1.678925
0.037793	1.679336
0.037891	1.679750
0.037988	1.680257
0.038086	1.680680
0.038184	1.681148
0.038281	1.681795
0.038379	1.682344
0.038477	1.683011
0.038574	1.683514
0.038672	1.684044
0.038770	1.684668
0.038867	1.685225
0.038965	1.685735
0.039062	1.686213
0.039160	1.686687
0.039258	1.687040
0.039355	1.687185
0.039453	1.687140
0.039551	1.686622
0.039648	1.686087
0.039746	1.685245
0.039844	1.684552
0.039941	1.683706
0.040039	1.682822
0.040137	1.681726
0.040234	1.680448
0.040332	1.679112
0.040430	1.677906
0.040527	1.676745
0.040625	1.675683
0.040723	1.674694
0.040820	1.673786
0.040918	1.673086
0.041016	1.672594
0.041113	1.672189
0.041211	1.671805
0.041309	1.671525
0.041406	1.671279
0.041504	1.671086
0.041602	1.670892
0.041699	1.670859
0.041797	1.670781
0.041895	1.670761
0.041992	1.670806
0.042090	1.670886
0.042187	1.670933
0.042285	1.671047
0.042383	1.671260
0.042480	1.671420
0.042578	1.671678
0.042676	1.672026
0.042773	1.672279
0.042871	1.672691
0.042969	1.673085
0.043066	1.673548
0.043164	1.674070
0.043262	1.674632
0.043359	1.675396
0.043457	1.676099
0.043555	1.676893
0.043652	1.677566
0.043750	1.678340
0.043848	1.679035
0.043945	1.679710
0.044043	1.680329
0.044141	1.680886
0.044238	1.681531
0.044336	1.682052
0.044434	1.682645
0.044531	1.683222
0.044629	1.683853
0.044727	1.684453
0.044824	1.684805
0.044922	1.684921
0.045020	1.684872
0.045117	1.684738
0.045215	1.684584
0.045312	1.684500
0.045410	1.684412
0.045508	1.684084
0.045605	1.683535
0.045703	1.683103
0.045801	1.682687
0.045898	1.682534
0.045996	1.682444
0.046094	1.682465
0.046191	1.682411
0.046289	1.682363
0.046387	1.682490
0.046484	1.682749
0.046582	1.682828
0.046680	1.683238
0.046777	1.683479
0.046875	1.683867
0.046973	1.684427
0.047070	1.684739
0.047168	1.685273
0.047266	1.685815
0.047363	1.686308
0.047461	1.686701
0.047559	1.687279
0.047656	1.687709
0.047754	1.688025
0.047852	1.688333
0.047949	1.688620
0.048047	1.689017
0.048145	1.689409
0.048242	1.690046
0.048340	1.690574
0.048437	1.690818
0.048535	1.690726
0.048633	1.690580
0.048730	1.690806
0.048828	1.691144
0.048926	1.691707
0.049023	1.692215
0.049121	1.692722
0.049219	1.693032
0.049316	1.693206
0.049414	1.693142
0.049512	1.693034
0.049609	1.692756
0.049707	1.692615
0.049805	1.692346
0.049902	1.692246
0.050000	1.692017
0.050098	1.691797
0.050195	1.691645
0.050293	1.691603
0.050391	1.691682
0.050488	1.691981
0.050586	1.692392
0.050684	1.693035
0.050781	1.693923
0.050879	1.694872
0.050977	1.696011
0.051074	1.697021
0.051172	1.697822
0.051270	1.698052
0.051367	1.698048
0.051465	1.697507
0.051562	1.696654
0.051660	1.695648
0.051758	1.694815
0.051855	1.694006
0.051953	1.693147
0.052051	1.692160
0.052148	1.690712
0.052246	1.688973
0.052344	1.686917
0.052441	1.684816
0.052539	1.682492
0.052637	1.680318
0.052734	1.678249
0.052832	1.676339
0.052930	1.674658
0.053027	1.673170
0.053125	1.671726
0.053223	1.670435
0.053320	1.669394
0.053418	1.668410
0.053516	1.667547
0.053613	1.666815
0.053711	1.666163
0.053809	1.665826
0.053906	1.665381
0.054004	1.665115
0.054102	1.665001
0.054199	1.664754
0.054297	1.664819
0.054395	1.664741
0.054492	1.664793
0.054590	1.664752
0.054687	1.664723
0.054785	1.664809
0.054883	1.664824
0.054980	1.664868
0.055078	1.664819
0.055176	1.664873
0.055273	1.664965
0.055371	1.665100
0.055469	1.665344
0.055566	1.665666
0.055664	1.666127
0.055762	1.666522
0.055859	1.667014
0.055957	1.667502
0.056055	1.668014
0.056152	1.668521
0.056250	1.669036
0.056348	1.669559
0.056445	1.670108
0.056543	1.670517
0.056641	1.671065
0.056738	1.671600
0.056836	1.672129
0.056934	1.672781
0.057031	1.673344
0.057129	1.673995
0.057227	1.674623
0.057324	1.675160
0.057422	1.675675
0.057520	1.676151
0.057617	1.676444
0.057715	1.676607
0.057812	1.676833
0.057910	1.676906
0.058008	1.677113
0.058105	1.677337
0.058203	1.677727
0.058301	1.678220
0.058398	1.678709
0.058496	1.679037
0.058594	1.679352
0.058691	1.679673
0.058789	1.679817
0.058887	1.680013
0.058984	1.680116
0.059082	1.680304
0.059180	1.680509
0.059277	1.680875
0.059375	1.681241
0.059473	1.681772
0.059570	1.682338
0.059668	1.682980
0.059766	1.683789
0.059863	1.684400
0.059961	1.685283
0.060059	1.686007
0.060156	1.686643
0.060254	1.687146
0.060352	1.687340
0.060449	1.687297
0.060547	1.686872
0.060645	1.686227
0.060742	1.685527
0.060840	1.684823
0.060937	1.684206
0.061035	1.683769
0.061133	1.683528
0.061230	1.683457
0.061328	1.683527
0.061426	1.683682
0.061523	1.683906
0.061621	1.684072
0.061719	1.684224
0.061816	1.684303
0.061914	1.684557
0.062012	1.684753
0.062109	1.685006
0.062207	1.685245
0.062305	1.685594
0.062402	1.685811
0.062500	1.686173
0.062598	1.686532
0.062695	1.686935
0.062793	1.687316
0.062891	1.687683
0.062988	1.688129
0.063086	1.688636
0.063184	1.689038
0.063281	1.689406
0.063379	1.689783
0.063477	1.690052
0.063574	1.690217
0.063672	1.690276
0.063770	1.690115
0.063867	1.689597
0.063965	1.688890
0.064062	1.687906
0.064160	1.686842
0.064258	1.685713
0.064355	1.684706
0.064453	1.683919
0.064551	1.683042
0.064648	1.682389
0.064746	1.681875
0.064844	1.681557
0.064941	1.681421
0.065039	1.681402
0.065137	1.681543
0.065234	1.681870
0.065332	1.682296
0.065430	1.683095
0.065527	1.683784
0.065625	1.684758
0.065723	1.685806
0.065820	1.686761
0.065918	1.687699
0.066016	1.688215
0.066113	1.688394
0.066211	1.688010
0.066309	1.687294
0.066406	1.686494
0.066504	1.685464
0.066602	1.684312
0.066699	1.683028
0.066797	1.681689
0.066895	1.680228
0.066992	1.678824
0.067090	1.677436
0.067187	1.676088
0.067285	1.674797
0.067383	1.673551
0.067480	1.672403
0.067578	1.671285
0.067676	1.670431
0.067773	1.669488
0.067871	1.668887
0.067969	1.668291
0.068066	1.667846
0.068164	1.667504
0.068262	1.667417
0.068359	1.667438
0.068457	1.667414
0.068555	1.667707
0.068652	1.667865
0.068750	1.668191
0.068848	1.668522
0.068945	1.668931
0.069043	1.669424
0.069141	1.669841
0.069238	1.670315
0.069336	1.670730
0.069434	1.671200
0.069531	1.671650
0.069629	1.672143
0.069727	1.672665
0.069824	1.673091
0.069922	1.673589
0.070020	1.674165
0.070117	1.674512
0.070215	1.674948
0.070312	1.675324
0.070410	1.675667
0.070508	1.676071
0.070605	1.676396
0.070703	1.676694
0.070801	1.676923
0.070898	1.677112
0.070996	1.677262
0.071094	1.677443
0.071191	1.677545
0.071289	1.677618
0.071387	1.677851
0.071484	1.677965
0.071582	1.678055
0.071680	1.678143
0.071777	1.678253
0.071875	1.678262
0.071973	1.678302
0.072070	1.678360
0.072168	1.678324
0.072266	1.678369
0.072363	1.678423
0.072461	1.678599
0.072559	1.678897
0.072656	1.679314
0.072754	1.679744
0.072852	1.680227
0.072949	1.680751
0.073047	1.681154
0.073145	1.681531
0.073242	1.681594
0.073340	1.681732
0.073437	1.681687
0.073535	1.681622
0.073633	1.681553
0.073730	1.681391
0.073828	1.681419
0.073926	1.681351
0.074023	1.681328
0.074121	1.681461
0.074219	1.681438
0.074316	1.681606
0.074414	1.681793
0.074512	1.682089
0.074609	1.682414
0.074707	1.682835
0.074805	1.683244
0.074902	1.683835
0.075000	1.684270
0.075098	1.684903
0.075195	1.685407
0.075293	1.685856
0.075391	1.686336
0.075488	1.686739
0.075586	1.687193
0.075684	1.687574
0.075781	1.687972
0.075879	1.688297
0.075977	1.688485
0.076074	1.688443
0.076172	1.688498
0.076270	1.688276
0.076367	1.688194
0.076465	1.688223
0.076562	1.688312
0.076660	1.688408
0.076758	1.688630
0.076855	1.688876
0.076953	1.689239
0.077051	1.689497
0.077148	1.689832
0.077246	1.690075
0.077344	1.690331
0.077441	1.690386
0.077539	1.690444
0.077637	1.690438
0.077734	1.690472
0.077832	1.690463
0.077930	1.690313
0.078027	1.690212
0.078125	1.690116
0.078223	1.690228
0.078320	1.690324
0.078418	1.690358
0.078516	1.690453
0.078613	1.690534
0.078711	1.690577
0.078809	1.690600
0.078906	1.690430
0.079004	1.690115
0.079102	1.689741
0.079199	1.689282
0.079297	1.688731
0.079395	1.688205
0.079492	1.687662
0.079590	1.687243
0.079687	1.686584
0.079785	1.686150
0.079883	1.685708
0.079980	1.685211
0.080078	1.684865
0.080176	1.684273
0.080273	1.683795
0.080371	1.683174
0.080469	1.682487
0.080566	1.681737
0.080664	1.680913
0.080762	1.679971
0.080859	1.678957
0.080957	1.677976
0.081055	1.677061
0.081152	1.676292
0.081250	1.675696
0.081348	1.675188
0.081445	1.674925
0.081543	1.674731
0.081641	1.674553
0.081738	1.674457
0.081836	1.674380
0.081934	1.674400
0.082031	1.674313
0.082129	1.674311
0.082227	1.674179
0.082324	1.673997
0.082422	1.673837
0.082520	1.673493
0.082617	1.673114
0.082715	1.672675
0.082812	1.672217
0.082910	1.671672
0.083008	1.671146
0.083105	1.670750
0.083203	1.670202
0.083301	1.669829
0.083398	1.669396
0.083496	1.669178
0.083594	1.668849
0.083691	1.668682
0.083789	1.668432
0.083887	1.668316
0.083984	1.668325
0.084082	1.668089
0.084180	1.668091
0.084277	1.667982
0.084375	1.668043
0.084473	1.668111
0.084570	1.668205
0.084668	1.668324
0.084766	1.668424
0.084863	1.668597
0.084961	1.668648
0.085059	1.668806
0.085156	1.668852
0.085254	1.668834
0.085352	1.668897
0.085449	1.668992
0.085547	1.668989
0.085645	1.669108
0.085742	1.669219
0.085840	1.669268
0.085937	1.669522
0.086035	1.669719
0.086133	1.670000
0.086230	1.670348
0.086328	1.670829
0.086426	1.671284
0.086523	1.671711
0.086621	1.672125
0.086719	1.672651
0.086816	1.672990
0.086914	1.673609
0.087012	1.674088
0.087109	1.674628
0.087207	1.675275
0.087305	1.675838
0.087402	1.676556
0.087500	1.677382
0.087598	1.678183
0.087695	1.679054
0.087793	1.680053
0.087891	1.680955
0.087988	1.682020
0.088086	1.682959
0.088184	1.684038
0.088281	1.685254
0.088379	1.686285
0.088477	1.686979
0.088574	1.687219
0.088672	1.687073
0.088770	1.686635
0.088867	1.686317
0.088965	1.686159
0.089062	1.686029
0.089160	1.686096
0.089258	1.686275
0.089355	1.686684
0.089453	1.687124
0.089551	1.687518
0.089648	1.687981
0.089746	1.688368
0.089844	1.688752
0.089941	1.689007
0.090039	1.689295
0.090137	1.689471
0.090234	1.689780
0.090332	1.689868
0.090430	1.690067
0.090527	1.690178
0.090625	1.690345
0.090723	1.690430
0.090820	1.690552
0.090918	1.690776
0.091016	1.690909
0.091113	1.691177
0.091211	1.691537
0.091309	1.691837
0.091406	1.692202
0.091504	1.692500
0.091602	1.692795
0.091699	1.692985
0.091797	1.693066
0.091895	1.693016
0.091992	1.693044
0.092090	1.692965
0.092187	1.692835
0.092285	1.692742
0.092383	1.692819
0.092480	1.692791
0.092578	1.692921
0.092676	1.693004
0.092773	1.693228
0.092871	1.693283
0.092969	1.693423
0.093066	1.693368
0.093164	1.693372
0.093262	1.693379
0.093359	1.693350
0.093457	1.693350
0.093555	1.693500
0.093652	1.693548
0.093750	1.693503
0.093848	1.693376
0.093945	1.693035
0.094043	1.692797
0.094141	1.692330
0.094238	1.691830
0.094336	1.691532
0.094434	1.691106
0.094531	1.690687
0.094629	1.690214
0.094727	1.689707
0.094824	1.689129
0.094922	1.688229
0.095020	1.687474
0.095117	1.686373
0.095215	1.685381
0.095312	1.684339
0.095410	1.683454
0.095508	1.682681
0.095605	1.682111
0.095703	1.681749
0.095801	1.681311
0.095898	1.680951
0.095996	1.680751
0.096094	1.680259
0.096191	1.679787
0.096289	1.679450
0.096387	1.678932
0.096484	1.678453
0.096582	1.677893
0.096680	1.677551
0.096777	1.677261
0.096875	1.676997
0.096973	1.677009
0.097070	1.676885
0.097168	1.677029
0.097266	1.677234
0.097363	1.677506
0.097461	1.677627
0.097559	1.677818
0.097656	1.677964
0.097754	1.677940
0.097852	1.677920
0.097949	1.677784
0.098047	1.677632
0.098145	1.677392
0.098242	1.677392
0.098340	1.677184
0.098437	1.677061
0.098535	1.676828
0.098633	1.676530
0.098730	1.676297
0.098828	1.676131
0.098926	1.675898
0.099023	1.675706
0.099121	1.675598
0.099219	1.675542
0.099316	1.675362
0.099414	1.675021
0.099512	1.674708
0.099609	1.674132
0.099707	1.673491
0.099805	1.672767
0.099902	1.671906
0.100000	1.670977
0.100098	1.670151
0.100195	1.669341
0.100293	1.668655
0.100391	1.668085
0.100488	1.667610
0.100586	1.667218
0.100684	1.666940
0.100781	1.666574
0.100879	1.666334
0.100977	1.666030
0.101074	1.665730
0.101172	1.665349
0.101270	1.664914
0.101367	1.664499
0.101465	1.663988
0.101562	1.663585
0.101660	1.663056
0.101758	1.662573
0.101855	1.662063
0.101953	1.661774
0.102051	1.661215
0.102148	1.660964
0.102246	1.660594
0.102344	1.660369
0.102441	1.660300
0.102539	1.660168
0.102637	1.660167
0.102734	1.660158
0.102832	1.660194
0.102930	1.660330
0.103027	1.660520
0.103125	1.660537
0.103223	1.660632
0.103320	1.660754
0.103418	1.660740
0.103516	1.660664
0.103613	1.660813
0.103711	1.660682
0.103809	1.660845
0.103906	1.660938
0.104004	1.661106
0.104102	1.661336
0.104199	1.661554
0.104297	1.661918
0.104395	1.662221
0.104492	1.662591
0.104590	1.662948
0.104687	1.663510
0.104785	1.663920
0.104883	1.664537
0.104980	1.665106
0.105078	1.665733
0.105176	1.666318
0.105273	1.666841
0.105371	1.667268
0.105469	1.667667
0.105566	1.668030
0.105664	1.668505
0.105762	1.668873
0.105859	1.669111
0.105957	1.669594
0.106055	1.669934
0.106152	1.670480
0.106250	1.670955
0.106348	1.671517
0.106445	1.672301
0.106543	1.673112
0.106641	1.674003
0.106738	1.674978
0.106836	1.675890
0.106934	1.676877
0.107031	1.677706
0.107129	1.678494
0.107227	1.679277
0.107324	1.680034
0.107422	1.680770
0.107520	1.681711
0.107617	1.682549
0.107715	1.683473
0.107812	1.684428
0.107910	1.685322
0.108008	1.686062
0.108105	1.686595
0.108203	1.687153
0.108301	1.687783
0.108398	1.688243
0.108496	1.688769
0.108594	1.689436
0.108691	1.690112
0.108789	1.690823
0.108887	1.691621
0.108984	1.692490
0.109082	1.693198
0.109180	1.693916
0.109277	1.694536
0.109375	1.695039
0.109473	1.695399
0.109570	1.695886
0.109668	1.696266
0.109766	1.696814
0.109863	1.697462
0.109961	1.698269
0.110059	1.699048
0.110156	1.699790
0.110254	1.700654
0.110352	1.701433
0.110449	1.702165
0.110547	1.702720
0.110645	1.702943
0.110742	1.702949
0.110840	1.702553
0.110937	1.701844
0.111035	1.700858
0.111133	1.699820
0.111230	1.698772
0.111328	1.697614
0.111426	1.696237
0.111523	1.694783
0.111621	1.693469
0.111719	1.692161
0.111816	1.691215
0.111914	1.690402
0.112012	1.689849
0.112109	1.689478
0.112207	1.689342
0.112305	1.689215
0.112402	1.689275
0.112500	1.689300
0.112598	1.689393
0.112695	1.689495
0.112793	1.689643
0.112891	1.689708
0.112988	1.689799
0.113086	1.689871
0.113184	1.689865
0.113281	1.689855
0.113379	1.689710
0.113477	1.689663
0.113574	1.689398
0.113672	1.689207
0.113770	1.688875
0.113867	1.688664
0.113965	1.688322
0.114062	1.688066
0.114160	1.687895
0.114258	1.687632
0.114355	1.687498
0.114453	1.687003
0.114551	1.686639
0.114648	1.685975
0.114746	1.685192
0.114844	1.684138
0.114941	1.683169
0.115039	1.681821
0.115137	1.680721
0.115234	1.679362
0.115332	1.678156
0.115430	1.677108
0.115527	1.676155
0.115625	1.675285
0.115723	1.674492
0.115820	1.673818
0.115918	1.673032
0.116016	1.672317
0.116113	1.671600
0.116211	1.670960
0.116309	1.670327
0.116406	1.669751
0.116504	1.669223
0.116602	1.668666
0.116699	1.668134
0.116797	1.667610
0.116895	1.667262
0.116992	1.666817
0.117090	1.666563
0.117187	1.666239
0.117285	1.666002
0.117383	1.665772
0.117480	1.665650
0.117578	1.665579
0.117676	1.665460
0.117773	1.665416
0.117871	1.665316
0.117969	1.665158
0.118066	1.664919
0.118164	1.664615
0.118262	1.664469
0.118359	1.664092
0.118457	1.663697
0.118555	1.663102
0.118652	1.662635
0.118750	1.661969
0.118848	1.661322
0.118945	1.660650
0.119043	1.659948
0.119141	1.659247
0.119238	1.658603
0.119336	1.657935
0.119434	1.657334
0.119531	1.656826
0.119629	1.656331
0.119727	1.655958
0.119824	1.655586
0.119922	1.655223
0.120020	1.655072
0.120117	1.654876
0.120215	1.654704
0.120312	1.654779
0.120410	1.654692
0.120508	1.654868
0.120605	1.655116
0.120703	1.655250
0.120801	1.655587
0.120898	1.655923
0.120996	1.656352
0.121094	1.656825
0.121191	1.657324
0.121289	1.657894
0.121387	1.658616
0.121484	1.659348
0.121582	1.660076
0.121680	1.660852
0.121777	1.661578
0.121875	1.662235
0.121973	1.662793
0.122070	1.663425
0.122168	1.664104
0.122266	1.664706
0.122363	1.665416
0.122461	1.666180
0.122559	1.667028
0.122656	1.667984
0.122754	1.668934
0.122852	1.670076
0.122949	1.671184
0.123047	1.672286
0.123145	1.673443
0.123242	1.674471
0.123340	1.675426
0.123437	1.676380
0.123535	1.677268
0.123633	1.678156
0.123730	1.679102
0.123828	1.680229
0.123926	1.681462
0.124023	1.682709
0.124121	1.684148
0.124219	1.685555
0.124316	1.687066
0.124414	1.688543
0.124512	1.689736
0.124609	1.690887
0.124707	1.691800
0.124805	1.692523
0.124902	1.693189
0.125000	1.693660
0.125098	1.694075
0.125195	1.694354
0.125293	1.694460
0.125391	1.694599
0.125488	1.694757
0.125586	1.694874
0.125684	1.695085
0.125781	1.695076
0.125879	1.694932
0.125977	1.694657
0.126074	1.694282
0.126172	1.694068
0.126270	1.693761
0.126367	1.693688
0.126465	1.693493
0.126562	1.693476
0.126660	1.693472
0.126758	1.693705
0.126855	1.693872
0.126953	1.694274
0.127051	1.694801
0.127148	1.695482
0.127246	1.696163
0.127344	1.697065
0.127441	1.697998
0.127539	1.699032
0.127637	1.699995
0.127734	1.701050
0.127832	1.702087
0.127930	1.703020
0.128027	1.703837
0.128125	1.704224
0.128223	1.704255
0.128320	1.703894
0.128418	1.703438
0.128516	1.702931
0.128613	1.702611
0.128711	1.702263
0.128809	1.702015
0.128906	1.701688
0.129004	1.701244
0.129102	1.700506
0.129199	1.699319
0.129297	1.697302
0.129395	1.694818
0.129492	1.692077
0.129590	1.689369
0.129687	1.687050
0.129785	1.684941
0.129883	1.683160
0.129980	1.681512
0.130078	1.680116
0.130176	1.678947
0.130273	1.678033
0.130371	1.677405
0.130469	1.676902
0.130566	1.676896
0.130664	1.677161
0.130762	1.677547
0.130859	1.677760
0.130957	1.676647
0.131055	1.674443
0.131152	1.672175
0.131250	1.670194
0.131348	1.668372
0.131445	1.666425
0.131543	1.664779
0.131641	1.663366
0.131738	1.662126
0.131836	1.661135
0.131934	1.660364
0.132031	1.659787
0.132129	1.659279
0.132227	1.658804
0.132324	1.658272
0.132422	1.657510
0.132520	1.656429
0.132617	1.655267
0.132715	1.653836
0.132812	1.652257
0.132910	1.650759
0.133008	1.649329
0.133105	1.648012
0.133203	1.646959
0.133301	1.646103
0.133398	1.645416
0.133496	1.645012
0.133594	1.644534
0.133691	1.644249
0.133789	1.643975
0.133887	1.643750
0.133984	1.643531
0.134082	1.643372
0.134180	1.643210
0.134277	1.643092
0.134375	1.642944
0.134473	1.642953
0.134570	1.642993
0.134668	1.643039
0.134766	1.643173
0.134863	1.643316
0.134961	1.643491
0.135059	1.643711
0.135156	1.644043
0.135254	1.644231
0.135352	1.644530
0.135449	1.644907
0.135547	1.645131
0.135645	1.645466
0.135742	1.645848
0.135840	1.646217
0.135937	1.646605
0.136035	1.646973
0.136133	1.647333
0.136230	1.647897
0.136328	1.648224
0.136426	1.648727
0.136523	1.649091
0.136621	1.649520
0.136719	1.649956
0.136816	1.650393
0.136914	1.650876
0.137012	1.651377
0.137109	1.651975
0.137207	1.652657
0.137305	1.653230
0.137402	1.653912
0.137500	1.654727
0.137598	1.655425
0.137695	1.656222
0.137793	1.657065
0.137891	1.657766
0.137988	1.658696
0.138086	1.659499
0.138184	1.660402
0.138281	1.661401
0.138379	1.662412
0.138477	1.663485
0.138574	1.664451
0.138672	1.665522
0.138770	1.666638
0.138867	1.667688
0.138965	1.668926
0.139062	1.670192
0.139160	1.671285
0.139258	1.672698
0.139355	1.673953
0.139453	1.675312
0.139551	1.676660
0.139648	1.677973
0.139746	1.679230
0.139844	1.680272
0.139941	1.681215
0.140039	1.681917
0.140137	1.682426
0.140234	1.682855
0.140332	1.682934
0.140430	1.683132
0.140527	1.683282
0.140625	1.683605
0.140723	1.684218
0.140820	1.684838
0.140918	1.685696
0.141016	1.686632
0.141113	1.687660
0.141211	1.688691
0.141309	1.689715
0.141406	1.690519
0.141504	1.691201
0.141602	1.691525
0.141699	1.691618
0.141797	1.691487
0.141895	1.691334
0.141992	1.691261
0.142090	1.691180
0.142187	1.691454
0.142285	1.691893
0.142383	1.692486
0.142480	1.693120
0.142578	1.693966
0.142676	1.694603
0.142773	1.695346
0.142871	1.695807
0.142969	1.696240
0.143066	1.696602
0.143164	1.696914
0.143262	1.697162
0.143359	1.697406
0.143457	1.697398
0.143555	1.697430
0.143652	1.697412
0.143750	1.697387
0.143848	1.697463
0.143945	1.697592
0.144043	1.697518
0.144141	1.697400
0.144238	1.697014
0.144336	1.696634
0.144434	1.696102
0.144531	1.695544
0.144629	1.695114
0.144727	1.694585
0.144824	1.694070
0.144922	1.693784
0.145020	1.693463
0.145117	1.693099
0.145215	1.692439
0.145312	1.691394
0.145410	1.690012
0.145508	1.688058
0.145605	1.685941
0.145703	1.684104
0.145801	1.682753
0.145898	1.681471
0.145996	1.680406
0.146094	1.679071
0.146191	1.677873
0.146289	1.676585
0.146387	1.675200
0.146484	1.673947
0.146582	1.672382
0.146680	1.670972
0.146777	1.669288
0.146875	1.667611
0.146973	1.666011
0.147070	1.664317
0.147168	1.662627
0.147266	1.660984
0.147363	1.659214
0.147461	1.657598
0.147559	1.655945
0.147656	1.654331
0.147754	1.652940
0.147852	1.651607
0.147949	1.650421
0.148047	1.649279
0.148145	1.648337
0.148242	1.647776
0.148340	1.647285
0.148437	1.646824
0.148535	1.646426
0.148633	1.646040
0.148730	1.645631
0.148828	1.645282
0.148926	1.644760
0.149023	1.644378
0.149121	1.644046
0.149219	1.643800
0.149316	1.643598
0.149414	1.643446
0.149512	1.643432
0.149609	1.643514
0.149707	1.643633
0.149805	1.643887
0.149902	1.644262
0.150000	1.644586
0.150098	1.645001
0.150195	1.645367
0.150293	1.645727
0.150391	1.646073
0.150488	1.646600
0.150586	1.646997
0.150684	1.647617
0.150781	1.647989
0.150879	1.648539
0.150977	1.649134
0.151074	1.649686
0.151172	1.650305
0.151270	1.650970
0.151367	1.651818
0.151465	1.652575
0.151562	1.653506
0.151660	1.654517
0.151758	1.655685
0.151855	1.656982
0.151953	1.658254
0.152051	1.659633
0.152148	1.661005
0.152246	1.662240
0.152344	1.663446
0.152441	1.664479
0.152539	1.665276
0.152637	1.665989
0.152734	1.666530
0.152832	1.667043
0.152930	1.667430
0.153027	1.667881
0.153125	1.668372
0.153223	1.668966
0.153320	1.669660
0.153418	1.670484
0.153516	1.671398
0.153613	1.672427
0.153711	1.673421
0.153809	1.674744
0.153906	1.676012
0.154004	1.677377
0.154102	1.678636
0.154199	1.679735
0.154297	1.680680
0.154395	1.681363
0.154492	1.681842
0.154590	1.682156
0.154687	1.682433
0.154785	1.682698
0.154883	1.683025
0.154980	1.683507
0.155078	1.684127
0.155176	1.684761
0.155273	1.685630
0.155371	1.686427
0.155469	1.687282
0.155566	1.688181
0.155664	1.689129
0.155762	1.689923
0.155859	1.690631
0.155957	1.691265
0.156055	1.691633
0.156152	1.691968
0.156250	1.692158
0.156348	1.692348
0.156445	1.692563
0.156543	1.692723
0.156641	1.693005
0.156738	1.693157
0.156836	1.693407
0.156934	1.693678
0.157031	1.694025
0.157129	1.694351
0.157227	1.694697
0.157324	1.695069
0.157422	1.695535
0.157520	1.696052
0.157617	1.696609
0.157715	1.697180
0.157812	1.697794
0.157910	1.698397
0.158008	1.698865
0.158105	1.699257
0.158203	1.699663
0.158301	1.700022
0.158398	1.700349
0.158496	1.700617
0.158594	1.700907
0.158691	1.701142
0.158789	1.701227
0.158887	1.701121
0.158984	1.700880
0.159082	1.700327
0.159180	1.699538
0.159277	1.698301
0.159375	1.696676
0.159473	1.694768
0.159570	1.692861
0.159668	1.691099
0.159766	1.689480
0.159863	1.688071
0.159961	1.686826
0.160059	1.685439
0.160156	1.684068
0.160254	1.682621
0.160352	1.681040
0.160449	1.679458
0.160547	1.677842
0.160645	1.676304
0.160742	1.674911
0.160840	1.673514
0.160937	1.672222
0.161035	1.671088
0.161133	1.669801
0.161230	1.668709
0.161328	1.667476
0.161426	1.666345
0.161523	1.665089
0.161621	1.663829
0.161719	1.662470
0.161816	1.661008
0.161914	1.659427
0.162012	1.657571
0.162109	1.655754
0.162207	1.653753
0.162305	1.651822
0.162402	1.649899
0.162500	1.648371
0.162598	1.646889
0.162695	1.645635
0.162793	1.644522
0.162891	1.643517
0.162988	1.642541
0.163086	1.641729
0.163184	1.641015
0.163281	1.640395
0.163379	1.640112
0.163477	1.639786
0.163574	1.639660
0.163672	1.639662
0.163770	1.639869
0.163867	1.640126
0.163965	1.640581
0.164062	1.641165
0.164160	1.641857
0.164258	1.642696
0.164355	1.643617
0.164453	1.644464
0.164551	1.645437
0.164648	1.646410
0.164746	1.647485
0.164844	1.648466
0.164941	1.649528
0.165039	1.650654
0.165137	1.651697
0.165234	1.652673
0.165332	1.653681
0.165430	1.654569
0.165527	1.655526
0.165625	1.656340
0.165723	1.657126
0.165820	1.657973
0.165918	1.658632
0.166016	1.659342
0.166113	1.660134
0.166211	1.660971
0.166309	1.661865
0.166406	1.662906
0.166504	1.663956
0.166602	1.665095
0.166699	1.666287
0.166797	1.667544
0.166895	1.668763
0.166992	1.669933
0.167090	1.671021
0.167187	1.672170
0.167285	1.673247
0.167383	1.674199
0.167480	1.675284
0.167578	1.676212
0.167676	1.677137
0.167773	1.678034
0.167871	1.679032
0.167969	1.679998
0.168066	1.680882
0.168164	1.681718
0.168262	1.682728
0.168359	1.683354
0.168457	1.683889
0.168555	1.684322
0.168652	1.684603
0.168750	1.684767
0.168848	1.684774
0.168945	1.684697
0.169043	1.684372
0.169141	1.684046
0.169238	1.683557
0.169336	1.683244
0.169434	1.682814
0.169531	1.682545
0.169629	1.682538
0.169727	1.682474
0.169824	1.682662
0.169922	1.682825
0.170020	1.683139
0.170117	1.683484
0.170215	1.683749
0.170312	1.684256
0.170410	1.684653
0.170508	1.685053
0.170605	1.685676
0.170703	1.686247
0.170801	1.686923
0.170898	1.687599
0.170996	1.688299
0.171094	1.689051
0.171191	1.689830
0.171289	1.690448
0.171387	1.691189
0.171484	1.691643
0.171582	1.692146
0.171680	1.692284
0.171777	1.692519
0.171875	1.692475
0.171973	1.692293
0.172070	1.692098
0.172168	1.691651
0.172266	1.691077
0.172363	1.690352
0.172461	1.689616
0.172559	1.688593
0.172656	1.687482
0.172754	1.686276
0.172852	1.684954
0.172949	1.683592
0.173047	1.682266
0.173145	1.680904
0.173242	1.679652
0.173340	1.678482
0.173437	1.677347
0.173535	1.676449
0.173633	1.675465
0.173730	1.674680
0.173828	1.673912
0.173926	1.673135
0.174023	1.672377
0.174121	1.671748
0.174219	1.671141
0.174316	1.670750
0.174414	1.670268
0.174512	1.669853
0.174609	1.669417
0.174707	1.669019
0.174805	1.668533
0.174902	1.668180
0.175000	1.667711
0.175098	1.667311
0.175195	1.667023
0.175293	1.666602
0.175391	1.666416
0.175488	1.666182
0.175586	1.666108
0.175684	1.665994
0.175781	1.666013
0.175879	1.666002
0.175977	1.666118
0.176074	1.666088
0.176172	1.666225
0.176270	1.666298
0.176367	1.666444
0.176465	1.666627
0.176562	1.666803
0.176660	1.667107
0.176758	1.667436
0.176855	1.667634
0.176953	1.667896
0.177051	1.668149
0.177148	1.668192
0.177246	1.668218
0.177344	1.668167
0.177441	1.667974
0.177539	1.667774
0.177637	1.667401
0.177734	1.667106
0.177832	1.666686
0.177930	1.666348
0.178027	1.665961
0.178125	1.665432
0.178223	1.665340
0.178320	1.665031
0.178418	1.664869
0.178516	1.664685
0.178613	1.664468
0.178711	1.664317
0.178809	1.664166
0.178906	1.664062
0.179004	1.664015
0.179102	1.663995
0.179199	1.664076
0.179297	1.664119
0.179395	1.664249
0.179492	1.664378
0.179590	1.664493
0.179687	1.664779
0.179785	1.665033
0.179883	1.665330
0.179980	1.665545
0.180078	1.665933
0.180176	1.666090
0.180273	1.666332
0.180371	1.666531
0.180469	1.666661
0.180566	1.666829
0.180664	1.666980
0.180762	1.667229
0.180859	1.667466
0.180957	1.667732
0.181055	1.668150
0.181152	1.668595
0.181250	1.669183
0.181348	1.669692
0.181445	1.670483
0.181543	1.671140
0.181641	1.671898
0.181738	1.672574
0.181836	1.673183
0.181934	1.673772
0.182031	1.674301
0.182129	1.674855
0.182227	1.675340
0.182324	1.675922
0.182422	1.676525
0.182520	1.677269
0.182617	1.678049
0.182715	1.678638
0.182812	1.679133
0.182910	1.679616
0.183008	1.679901
0.183105	1.680170
0.183203	1.680206
0.183301	1.680416
0.183398	1.680301
0.183496	1.680381
0.183594	1.680207
0.183691	1.679980
0.183789	1.679694
0.183887	1.679407
0.183984	1.679166
0.184082	1.678925
0.184180	1.678690
0.184277	1.678554
0.184375	1.678413
0.184473	1.678225
0.184570	1.678038
0.184668	1.677771
0.184766	1.677634
0.184863	1.677344
0.184961	1.677094
0.185059	1.676688
0.185156	1.676168
0.185254	1.675573
0.185352	1.674977
0.185449	1.674267
0.185547	1.673491
0.185645	1.672903
0.185742	1.672236
0.185840	1.671772
0.185937	1.671379
0.186035	1.671152
0.186133	1.670835
0.186230	1.670871
0.186328	1.670972
0.186426	1.671032
0.186523	1.671148
0.186621	1.671431
0.186719	1.671616
0.186816	1.671838
0.186914	1.672020
0.187012	1.672157
0.187109	1.672339
0.187207	1.672490
0.187305	1.672460
0.187402	1.672541
0.187500	1.672560
0.187598	1.672513
0.187695	1.672633
0.187793	1.672517
0.187891	1.672550
0.187988	1.672428
0.188086	1.672344
0.188184	1.672315
0.188281	1.672349
0.188379	1.672378
0.188477	1.672376
0.188574	1.672384
0.188672	1.672370
0.188770	1.672408
0.188867	1.672405
0.188965	1.672408
0.189062	1.672465
0.189160	1.672455
0.189258	1.672403
0.189355	1.672530
0.189453	1.672511
0.189551	1.672614
0.189648	1.672650
0.189746	1.672770
0.189844	1.672970
0.189941	1.673156
0.190039	1.673367
0.190137	1.673535
0.190234	1.673663
0.190332	1.673917
0.190430	1.673948
0.190527	1.674199
0.190625	1.674185
0.190723	1.674272
0.190820	1.674322
0.190918	1.674449
0.191016	1.674418
0.191113	1.674554
0.191211	1.674679
0.191309	1.674784
0.191406	1.675014
0.191504	1.675189
0.191602	1.675481
0.191699	1.675880
0.191797	1.676203
0.191895	1.676570
0.191992	1.677187
0.192090	1.677721
0.192187	1.678340
0.192285	1.678902
0.192383	1.679548
0.192480	1.680063
0.192578	1.680436
0.192676	1.680923
0.192773	1.681225
0.192871	1.681521
0.192969	1.681670
0.193066	1.681858
0.193164	1.681976
0.193262	1.682158
0.193359	1.682231
0.193457	1.682433
0.193555	1.682702
0.193652	1.682968
0.193750	1.683241
0.193848	1.683509
0.193945	1.683637
0.194043	1.683880
0.194141	1.683990
0.194238	1.684088
0.194336	1.684101
0.194434	1.684209
0.194531	1.684246
0.194629	1.684176
0.194727	1.684153
0.194824	1.683977
0.194922	1.683715
0.195020	1.683528
0.195117	1.683323
0.195215	1.683074
0.195312	1.682817
0.195410	1.682617
0.195508	1.682336
0.195605	1.681986
0.195703	1.681699
0.195801	1.681486
0.195898	1.681494
0.195996	1.681655
0.196094	1.681850
0.196191	1.682094
0.196289	1.682285
0.196387	1.682421
0.196484	1.682215
0.196582	1.681946
0.196680	1.681400
0.196777	1.680361
0.196875	1.678940
0.196973	1.677070
0.197070	1.675026
0.197168	1.672896
0.197266	1.670876
0.197363	1.669099
0.197461	1.667624
0.197559	1.666499
0.197656	1.665748
0.197754	1.665375
0.197852	1.665301
0.197949	1.665424
0.198047	1.665582
0.198145	1.665862
0.198242	1.666113
0.198340	1.666451
0.198437	1.666485
0.198535	1.666569
0.198633	1.666475
0.198730	1.666472
0.198828	1.666362
0.198926	1.666230
0.199023	1.666052
0.199121	1.665750
0.199219	1.665632
0.199316	1.665300
0.199414	1.664955
0.199512	1.664626
0.199609	1.664372
0.199707	1.664121
0.199805	1.663934
0.199902	1.663878
0.200000	1.663910
0.200098	1.664064
0.200195	1.664269
0.200293	1.664557
0.200391	1.665006
0.200488	1.665586
0.200586	1.666131
0.200684	1.666705
0.200781	1.667493
0.200879	1.668325
0.200977	1.669249
0.201074	1.670064
0.201172	1.670820
0.201270	1.671664
0.201367	1.672079
0.201465	1.672328
0.201562	1.672434
0.201660	1.672354
0.201758	1.672217
0.201855	1.672245
0.201953	1.672106
0.202051	1.672313
0.202148	1.672379
0.202246	1.672760
0.202344	1.673157
0.202441	1.673703
0.202539	1.674403
0.202637	1.675110
0.202734	1.675979
0.202832	1.676829
0.202930	1.677565
0.203027	1.678377
0.203125	1.679061
0.203223	1.679761
0.203320	1.680532
0.203418	1.681170
0.203516	1.681813
0.203613	1.682477
0.203711	1.683107
0.203809	1.683678
0.203906	1.684267
0.204004	1.684793
0.204102	1.685233
0.204199	1.685669
0.204297	1.685840
0.204395	1.685844
0.204492	1.685721
0.204590	1.685469
0.204687	1.685265
0.204785	1.684988
0.204883	1.684707
0.204980	1.684404
0.205078	1.684093
0.205176	1.683862
0.205273	1.683404
0.205371	1.683208
0.205469	1.682948
0.205566	1.682653
0.205664	1.682446
0.205762	1.682195
0.205859	1.681908
0.205957	1.681550
0.206055	1.681343
0.206152	1.681187
0.206250	1.681106
0.206348	1.681102
0.206445	1.681320
0.206543	1.681342
0.206641	1.681580
0.206738	1.681579
0.206836	1.681457
0.206934	1.681322
0.207031	1.681023
0.207129	1.680724
0.207227	1.680329
0.207324	1.679861
0.207422	1.679522
0.207520	1.679249
0.207617	1.679138
0.207715	1.679151
0.207812	1.679188
0.207910	1.679215
0.208008	1.679317
0.208105	1.679284
0.208203	1.679418
0.208301	1.679601
0.208398	1.679654
0.208496	1.679730
0.208594	1.679743
0.208691	1.679834
0.208789	1.679827
0.208887	1.680108
0.208984	1.680437
0.209082	1.680818
0.209180	1.681298
0.209277	1.681846
0.209375	1.682399
0.209473	1.682807
0.209570	1.683142
0.209668	1.683326
0.209766	1.683410
0.209863	1.683387
0.209961	1.683265
0.210059	1.683362
0.210156	1.683472
0.210254	1.683562
0.210352	1.683812
0.210449	1.684044
0.210547	1.684447
0.210645	1.684765
0.210742	1.685085
0.210840	1.685436
0.210937	1.685648
0.211035	1.685815
0.211133	1.685777
0.211230	1.685471
0.211328	1.684839
0.211426	1.683885
0.211523	1.682466
0.211621	1.680890
0.211719	1.679108
0.211816	1.677398
0.211914	1.675684
0.212012	1.674119
0.212109	1.672588
0.212207	1.671189
0.212305	1.669883
0.212402	1.668535
0.212500	1.667481
0.212598	1.666448
0.212695	1.665667
0.212793	1.664844
0.212891	1.664336
0.212988	1.663831
0.213086	1.663497
0.213184	1.663231
0.213281	1.663144
0.213379	1.663029
0.213477	1.663038
0.213574	1.663145
0.213672	1.663272
0.213770	1.663494
0.213867	1.663693
0.213965	1.663911
0.214062	1.664253
0.214160	1.664530
0.214258	1.664897
0.214355	1.665347
0.214453	1.665657
0.214551	1.666159
0.214648	1.666625
0.214746	1.667160
0.214844	1.667603
0.214941	1.668277
0.215039	1.668886
0.215137	1.669576
0.215234	1.670281
0.215332	1.671135
0.215430	1.672004
0.215527	1.672837
0.215625	1.673934
0.215723	1.674742
0.215820	1.675723
0.215918	1.676614
0.216016	1.677421
0.216113	1.678138
0.216211	1.678920
0.216309	1.679674
0.216406	1.680477
0.216504	1.681297
0.216602	1.682172
0.216699	1.683043
0.216797	1.683946
0.216895	1.684700
0.216992	1.685459
0.217090	1.686151
0.217187	1.686740
0.217285	1.687194
0.217383	1.687607
0.217480	1.687794
0.217578	1.688066
0.217676	1.688294
0.217773	1.688597
0.217871	1.688774
0.217969	1.689034
0.218066	1.689232
0.218164	1.689409
0.218262	1.689585
0.218359	1.689568
0.218457	1.689616
0.218555	1.689810
0.218652	1.689999
0.218750	1.690346
0.218848	1.690937
0.218945	1.691628
0.219043	1.692448
0.219141	1.693345
0.219238	1.694154
0.219336	1.694901
0.219434	1.695304
0.219531	1.695563
0.219629	1.695105
0.219727	1.694103
0.219824	1.692622
0.219922	1.690856
0.220020	1.689299
0.220117	1.687891
0.220215	1.686704
0.220312	1.685518
0.220410	1.684553
0.220508	1.683758
0.220605	1.683251
0.220703	1.683091
0.220801	1.683188
0.220898	1.683367
0.220996	1.683855
0.221094	1.684245
0.221191	1.684697
0.221289	1.685069
0.221387	1.685232
0.221484	1.685266
0.221582	1.685239
0.221680	1.685098
0.221777	1.684925
0.221875	1.684718
0.221973	1.684572
0.222070	1.684343
0.222168	1.684166
0.222266	1.683975
0.222363	1.683846
0.222461	1.683750
0.222559	1.683595
0.222656	1.683372
0.222754	1.683239
0.222852	1.682997
0.222949	1.682760
0.223047	1.682560
0.223145	1.682208
0.223242	1.681960
0.223340	1.681372
0.223437	1.680719
0.223535	1.679746
0.223633	1.678523
0.223730	1.677072
0.223828	1.675537
0.223926	1.673937
0.224023	1.672316
0.224121	1.670619
0.224219	1.668717
0.224316	1.666713
0.224414	1.664580
0.224512	1.662366
0.224609	1.660181
0.224707	1.657977
0.224805	1.655912
0.224902	1.653923
0.225000	1.652044
0.225098	1.650145
0.225195	1.648204
0.225293	1.646389
0.225391	1.644700
0.225488	1.643078
0.225586	1.641672
0.225684	1.640384
0.225781	1.639305
0.225879	1.638560
0.225977	1.637931
0.226074	1.637665
0.226172	1.637585
0.226270	1.637637
0.226367	1.637708
0.226465	1.637994
0.226562	1.638239
0.226660	1.638433
0.226758	1.638747
0.226855	1.639215
0.226953	1.639592
0.227051	1.640172
0.227148	1.640726
0.227246	1.641358
0.227344	1.642059
0.227441	1.642751
0.227539	1.643410
0.227637	1.644353
0.227734	1.645080
0.227832	1.645844
0.227930	1.646707
0.228027	1.647410
0.228125	1.648204
0.228223	1.649127
0.228320	1.650052
0.228418	1.650906
0.228516	1.651804
0.228613	1.652748
0.228711	1.653695
0.228809	1.654683
0.228906	1.655665
0.229004	1.656710
0.229102	1.657735
0.229199	1.658772
0.229297	1.659776
0.229395	1.660886
0.229492	1.661904
0.229590	1.662835
0.229687	1.663798
0.229785	1.664659
0.229883	1.665492
0.229980	1.666353
0.230078	1.667288
0.230176	1.668268
0.230273	1.669133
0.230371	1.670232
0.230469	1.671338
0.230566	1.672435
0.230664	1.673532
0.230762	1.674619
0.230859	1.675597
0.230957	1.676547
0.231055	1.677511
0.231152	1.678426
0.231250	1.679301
0.231348	1.680246
0.231445	1.681082
0.231543	1.681985
0.231641	1.682726
0.231738	1.683382
0.231836	1.683981
0.231934	1.684534
0.232031	1.685113
0.232129	1.685469
0.232227	1.685955
0.232324	1.686432
0.232422	1.686889
0.232520	1.687449
0.232617	1.687849
0.232715	1.688445
0.232812	1.689000
0.232910	1.689572
0.233008	1.690333
0.233105	1.691036
0.233203	1.692008
0.233301	1.693020
0.233398	1.694202
0.233496	1.695450
0.233594	1.696747
0.233691	1.697930
0.233789	1.698957
0.233887	1.699494
0.233984	1.699362
0.234082	1.699129
0.234180	1.698948
0.234277	1.698973
0.234375	1.698957
0.234473	1.699083
0.234570	1.699224
0.234668	1.699771
0.234766	1.700844
0.234863	1.702404
0.234961	1.704232
0.235059	1.705503
0.235156	1.706202
0.235254	1.705994
0.235352	1.705065
0.235449	1.703856
0.235547	1.700812
0.235645	1.696059
0.235742	1.693178
0.235840	1.690848
0.235937	1.688977
0.236035	1.686811
0.236133	1.684642
0.236230	1.683118
0.236328	1.682687
0.236426	1.682808
0.236523	1.683495
0.236621	1.684444
0.236719	1.685660
0.236816	1.687010
0.236914	1.688443
0.237012	1.689913
0.237109	1.691267
0.237207	1.692418
0.237305	1.693497
0.237402	1.694193
0.237500	1.694492
0.237598	1.694215
0.237695	1.693173
0.237793	1.691765
0.237891	1.690272
0.237988	1.688955
0.238086	1.687833
0.238184	1.687160
0.238281	1.686658
0.238379	1.686401
0.238477	1.686342
0.238574	1.686463
0.238672	1.686796
0.238770	1.687458
0.238867	1.688348
0.238965	1.689360
0.239062	1.690751
0.239160	1.692274
0.239258	1.693924
0.239355	1.695551
0.239453	1.696509
0.239551	1.694531
0.239648	1.693238
0.239746	1.690740
0.239844	1.685142
0.239941	1.680312
0.240039	1.676348
0.240137	1.672865
0.240234	1.670225
0.240332	1.667801
0.240430	1.664042
0.240527	1.659197
0.240625	1.655118
0.240723	1.652790
0.240820	1.651298
0.240918	1.650318
0.241016	1.649365
0.241113	1.648918
0.241211	1.648518
0.241309	1.648321
0.241406	1.648406
0.241504	1.648452
0.241602	1.648653
0.241699	1.648873
0.241797	1.649059
0.241895	1.649309
0.241992	1.649557
0.242090	1.649701
0.242187	1.649940
0.242285	1.650055
0.242383	1.650205
0.242480	1.650208
0.242578	1.650194
0.242676	1.650094
0.242773	1.650017
0.242871	1.649908
0.242969	1.649643
0.243066	1.649496
0.243164	1.649481
0.243262	1.649508
0.243359	1.649772
0.243457	1.650356
0.243555	1.651255
0.243652	1.652277
0.243750	1.653315
0.243848	1.654222
0.243945	1.654779
0.244043	1.654739
0.244141	1.654314
0.244238	1.653628
0.244336	1.652971
0.244434	1.652166
0.244531	1.651098
0.244629	1.650159
0.244727	1.649400
0.244824	1.648707
0.244922	1.647557
0.245020	1.646207
0.245117	1.644642
0.245215	1.643216
0.245312	1.641954
0.245410	1.640475
0.245508	1.639291
0.245605	1.638045
0.245703	1.636820
0.245801	1.635564
0.245898	1.634496
0.245996	1.633387
0.246094	1.632539
0.246191	1.631828
0.246289	1.631288
0.246387	1.630897
0.246484	1.630777
0.246582	1.630778
0.246680	1.630814
0.246777	1.631196
0.246875	1.631625
0.246973	1.632253
0.247070	1.632898
0.247168	1.633719
0.247266	1.634495
0.247363	1.635342
0.247461	1.636305
0.247559	1.637246
0.247656	1.638259
0.247754	1.639357
0.247852	1.640312
0.247949	1.641399
0.248047	1.642464
0.248145	1.643589
0.248242	1.644880
0.248340	1.646050
0.248437	1.647257
0.248535	1.648448
0.248633	1.649807
0.248730	1.651054
0.248828	1.652317
0.248926	1.653793
0.249023	1.655205
0.249121	1.656501
0.249219	1.658092
0.249316	1.659576
0.249414	1.660985
0.249512	1.662564
0.249609	1.664026
0.249707	1.665526
0.249805	1.667005
0.249902	1.668398
0.250000	1.669756
0.250098	1.670984
0.250195	1.672219
0.250293	1.673385
0.250391	1.674513
0.250488	1.675699
0.250586	1.676713
0.250684	1.677948
0.250781	1.679028
0.250879	1.680243
0.250977	1.681500
0.251074	1.682782
0.251172	1.684025
0.251270	1.685288
0.251367	1.686671
0.251465	1.688074
0.251562	1.689400
0.251660	1.690901
0.251758	1.692196
0.251855	1.693568
0.251953	1.694716
0.252051	1.695685
0.252148	1.696354
0.252246	1.696815
0.252344	1.697149
0.252441	1.697517
0.252539	1.697968
0.252637	1.698427
0.252734	1.699131
0.252832	1.699895
0.252930	1.700700
0.253027	1.701562
0.253125	1.702444
0.253223	1.703358
0.253320	1.703958
0.253418	1.704206
0.253516	1.704177
0.253613	1.704250
0.253711	1.704567
0.253809	1.704847
0.253906	1.705461
0.254004	1.706124
0.254102	1.706721
0.254199	1.707100
0.254297	1.706987
0.254395	1.706169
0.254492	1.704934
0.254590	1.703473
0.254687	1.702548
0.254785	1.701338
0.254883	1.700718
0.254980	1.699608
0.255078	1.699228
0.255176	1.697902
0.255273	1.697712
0.255371	1.695851
0.255469	1.695612
0.255566	1.693127
0.255664	1.693667
0.255762	1.691530
0.255859	1.697388
0.255957	1.699801
0.256055	1.701147
0.256152	1.681176
0.256250	1.663339
0.256348	1.673509
0.256445	1.675079
0.256543	1.674758
0.256641	1.669747
0.256738	1.625341
0.256836	1.630775
0.256934	1.659442
0.257031	1.646210
0.257129	1.635613
0.257227	1.620612
0.257324	1.629368
0.257422	1.621709
0.257520	1.622212
0.257617	1.618181
0.257715	1.618915
0.257812	1.616471
0.257910	1.616887
0.258008	1.615137
0.258105	1.615519
0.258203	1.614671
0.258301	1.615402
0.258398	1.615087
0.258496	1.615970
0.258594	1.616222
0.258691	1.617087
0.258789	1.617403
0.258887	1.617861
0.258984	1.617586
0.259082	1.617340
0.259180	1.616698
0.259277	1.616305
0.259375	1.615815
0.259473	1.615795
0.259570	1.615919
0.259668	1.616276
0.259766	1.616747
0.259863	1.617376
0.259961	1.618111
0.260059	1.619006
0.260156	1.620021
0.260254	1.621158
0.260352	1.622437
0.260449	1.623798
0.260547	1.625258
0.260645	1.626895
0.260742	1.628447
0.260840	1.630016
0.260937	1.631511
0.261035	1.633066
0.261133	1.634573
0.261230	1.636116
0.261328	1.637582
0.261426	1.639171
0.261523	1.640749
0.261621	1.642398
0.261719	1.643980
0.261816	1.645535
0.261914	1.647216
0.262012	1.648767
0.262109	1.650305
0.262207	1.651892
0.262305	1.653442
0.262402	1.654921
0.262500	1.656527
0.262598	1.658146
0.262695	1.659614
0.262793	1.661242
0.262891	1.662684
0.262988	1.664113
0.263086	1.665482
0.263184	1.666777
0.263281	1.668015
0.263379	1.669225
0.263477	1.670420
0.263574	1.671630
0.263672	1.672912
0.263770	1.674140
0.263867	1.675416
0.263965	1.676583
0.264062	1.677713
0.264160	1.678693
0.264258	1.679609
0.264355	1.680264
0.264453	1.680926
0.264551	1.681717
0.264648	1.682390
0.264746	1.683265
0.264844	1.684077
0.264941	1.684977
0.265039	1.685640
0.265137	1.686461
0.265234	1.687106
0.265332	1.687714
0.265430	1.688368
0.265527	1.689038
0.265625	1.689835
0.265723	1.690688
0.265820	1.691542
0.265918	1.692511
0.266016	1.693357
0.266113	1.694098
0.266211	1.694839
0.266309	1.695302
0.266406	1.695645
0.266504	1.695711
0.266602	1.695370
0.266699	1.694731
0.266797	1.693806
0.266895	1.692845
0.266992	1.691957
0.267090	1.691134
0.267187	1.690698
0.267285	1.690311
0.267383	1.690047
0.267480	1.689875
0.267578	1.689637
0.267676	1.689417
0.267773	1.689174
0.267871	1.688879
0.267969	1.688592
0.268066	1.688329
0.268164	1.688019
0.268262	1.687822
0.268359	1.687571
0.268457	1.687172
0.268555	1.686626
0.268652	1.686012
0.268750	1.685197
0.268848	1.684134
0.268945	1.682808
0.269043	1.681522
0.269141	1.680169
0.269238	1.678967
0.269336	1.677874
0.269434	1.677075
0.269531	1.676333
0.269629	1.675862
0.269727	1.675491
0.269824	1.675196
0.269922	1.674803
0.270020	1.674510
0.270117	1.674032
0.270215	1.673598
0.270312	1.672863
0.270410	1.672134
0.270508	1.671101
0.270605	1.670035
0.270703	1.668962
0.270801	1.667761
0.270898	1.666724
0.270996	1.665719
0.271094	1.664811
0.271191	1.663945
0.271289	1.663074
0.271387	1.662323
0.271484	1.661465
0.271582	1.660673
0.271680	1.659792
0.271777	1.658926
0.271875	1.657883
0.271973	1.657051
0.272070	1.656045
0.272168	1.655001
0.272266	1.653996
0.272363	1.653074
0.272461	1.652027
0.272559	1.651024
0.272656	1.650030
0.272754	1.649167
0.272852	1.648111
0.272949	1.647238
0.273047	1.646336
0.273145	1.645406
0.273242	1.644608
0.273340	1.643745
0.273437	1.642963
0.273535	1.642258
0.273633	1.641622
0.273730	1.641212
0.273828	1.640776
0.273926	1.640464
0.274023	1.640350
0.274121	1.640200
0.274219	1.640262
0.274316	1.640382
0.274414	1.640495
0.274512	1.640883
0.274609	1.641262
0.274707	1.641679
0.274805	1.642238
0.274902	1.642829
0.275000	1.643495
0.275098	1.644386
0.275195	1.645066
0.275293	1.646037
0.275391	1.646947
0.275488	1.647913
0.275586	1.649016
0.275684	1.650064
0.275781	1.651316
0.275879	1.652530
0.275977	1.653750
0.276074	1.655020
0.276172	1.656370
0.276270	1.657737
0.276367	1.658982
0.276465	1.660437
0.276562	1.661799
0.276660	1.663193
0.276758	1.664560
0.276855	1.666077
0.276953	1.667498
0.277051	1.669051
0.277148	1.670430
0.277246	1.671838
0.277344	1.673210
0.277441	1.674463
0.277539	1.675785
0.277637	1.676949
0.277734	1.678267
0.277832	1.679401
0.277930	1.680537
0.278027	1.681572
0.278125	1.682623
0.278223	1.683494
0.278320	1.684523
0.278418	1.685328
0.278516	1.686126
0.278613	1.686910
0.278711	1.687533
0.278809	1.688290
0.278906	1.689025
0.279004	1.689752
0.279102	1.690375
0.279199	1.691131
0.279297	1.691839
0.279395	1.692497
0.279492	1.693129
0.279590	1.693866
0.279687	1.694501
0.279785	1.695292
0.279883	1.696048
0.279980	1.696840
0.280078	1.697490
0.280176	1.698026
0.280273	1.698383
0.280371	1.698427
0.280469	1.698247
0.280566	1.697886
0.280664	1.697596
0.280762	1.697338
0.280859	1.697185
0.280957	1.697193
0.281055	1.697290
0.281152	1.697496
0.281250	1.697595
0.281348	1.697520
0.281445	1.696838
0.281543	1.695765
0.281641	1.694045
0.281738	1.691949
0.281836	1.689654
0.281934	1.687441
0.282031	1.685212
0.282129	1.683185
0.282227	1.681464
0.282324	1.679965
0.282422	1.678625
0.282520	1.677660
0.282617	1.676674
0.282715	1.675966
0.282812	1.675388
0.282910	1.675052
0.283008	1.674888
0.283105	1.674745
0.283203	1.674900
0.283301	1.675041
0.283398	1.675279
0.283496	1.675531
0.283594	1.675777
0.283691	1.676141
0.283789	1.676375
0.283887	1.676721
0.283984	1.677023
0.284082	1.677442
0.284180	1.677918
0.284277	1.678463
0.284375	1.678966
0.284473	1.679221
0.284570	1.679362
0.284668	1.678956
0.284766	1.677988
0.284863	1.676789
0.284961	1.675393
0.285059	1.673930
0.285156	1.672201
0.285254	1.670398
0.285352	1.668664
0.285449	1.666888
0.285547	1.664921
0.285645	1.663170
0.285742	1.661518
0.285840	1.660014
0.285937	1.658591
0.286035	1.657325
0.286133	1.656305
0.286230	1.655444
0.286328	1.654710
0.286426	1.654140
0.286523	1.653882
0.286621	1.653549
0.286719	1.653442
0.286816	1.653361
0.286914	1.653400
0.287012	1.653536
0.287109	1.653635
0.287207	1.653883
0.287305	1.654145
0.287402	1.654375
0.287500	1.654665
0.287598	1.655096
0.287695	1.655411
0.287793	1.655816
0.287891	1.656223
0.287988	1.656533
0.288086	1.656917
0.288184	1.657335
0.288281	1.657740
0.288379	1.658033
0.288477	1.658246
0.288574	1.658308
0.288672	1.658390
0.288770	1.658329
0.288867	1.658228
0.288965	1.658064
0.289062	1.657940
0.289160	1.657853
0.289258	1.657755
0.289355	1.657706
0.289453	1.657791
0.289551	1.657929
0.289648	1.658198
0.289746	1.658452
0.289844	1.658878
0.289941	1.659176
0.290039	1.659734
0.290137	1.660150
0.290234	1.660590
0.290332	1.661110
0.290430	1.661618
0.290527	1.662236
0.290625	1.662876
0.290723	1.663522
0.290820	1.664241
0.290918	1.664947
0.291016	1.665662
0.291113	1.666424
0.291211	1.667162
0.291309	1.667954
0.291406	1.668764
0.291504	1.669706
0.291602	1.670446
0.291699	1.671267
0.291797	1.672114
0.291895	1.672890
0.291992	1.673583
0.292090	1.674247
0.292187	1.674719
0.292285	1.675123
0.292383	1.675275
0.292480	1.675341
0.292578	1.675277
0.292676	1.675190
0.292773	1.675144
0.292871	1.675038
0.292969	1.675151
0.293066	1.675204
0.293164	1.675440
0.293262	1.675615
0.293359	1.676049
0.293457	1.676480
0.293555	1.676924
0.293652	1.677485
0.293750	1.678120
0.293848	1.678748
0.293945	1.679428
0.294043	1.680184
0.294141	1.680884
0.294238	1.681677
0.294336	1.682216
0.294434	1.682958
0.294531	1.683702
0.294629	1.684428
0.294727	1.685228
0.294824	1.685970
0.294922	1.686878
0.295020	1.687645
0.295117	1.688617
0.295215	1.689408
0.295312	1.690223
0.295410	1.690709
0.295508	1.690629
0.295605	1.690019
0.295703	1.688717
0.295801	1.687006
0.295898	1.685362
0.295996	1.683747
0.296094	1.682288
0.296191	1.681020
0.296289	1.679936
0.296387	1.678947
0.296484	1.678105
0.296582	1.677070
0.296680	1.676080
0.296777	1.675200
0.296875	1.674338
0.296973	1.673499
0.297070	1.672810
0.297168	1.672369
0.297266	1.671907
0.297363	1.671796
0.297461	1.671792
0.297559	1.672048
0.297656	1.672514
0.297754	1.673126
0.297852	1.674033
0.297949	1.674773
0.298047	1.675699
0.298145	1.676629
0.298242	1.677742
0.298340	1.678809
0.298437	1.679789
0.298535	1.680636
0.298633	1.681390
0.298730	1.681839
0.298828	1.682039
0.298926	1.681657
0.299023	1.680998
0.299121	1.680024
0.299219	1.678827
0.299316	1.677664
0.299414	1.676680
0.299512	1.675766
0.299609	1.675132
0.299707	1.674634
0.299805	1.674258
0.299902	1.674108
0.300000	1.674041
0.300098	1.673983
0.300195	1.674171
0.300293	1.674208
0.300391	1.674385
0.300488	1.674508
0.300586	1.674582
0.300684	1.674692
0.300781	1.674731
0.300879	1.674633
0.300977	1.674327
0.301074	1.673988
0.301172	1.673660
0.301270	1.673347
0.301367	1.673111
0.301465	1.672884
0.301562	1.672870
0.301660	1.672965
0.301758	1.673116
0.301855	1.673380
0.301953	1.673482
0.302051	1.673610
0.302148	1.673503
0.302246	1.673007
0.302344	1.672474
0.302441	1.671559
0.302539	1.670600
0.302637	1.669504
0.302734	1.668436
0.302832	1.667146
0.302930	1.665981
0.303027	1.664714
0.303125	1.663355
0.303223	1.662122
0.303320	1.660942
0.303418	1.659900
0.303516	1.659153
0.303613	1.658572
0.303711	1.658310
0.303809	1.658262
0.303906	1.658386
0.304004	1.658713
0.304102	1.659223
0.304199	1.659807
0.304297	1.660506
0.304395	1.661179
0.304492	1.661991
0.304590	1.662927
0.304687	1.663810
0.304785	1.664757
0.304883	1.665792
0.304980	1.666710
0.305078	1.667660
0.305176	1.668613
0.305273	1.669505
0.305371	1.670434
0.305469	1.671376
0.305566	1.672412
0.305664	1.673514
0.305762	1.674561
0.305859	1.675569
0.305957	1.676564
0.306055	1.677571
0.306152	1.678491
0.306250	1.679520
0.306348	1.680576
0.306445	1.681652
0.306543	1.682797
0.306641	1.683975
0.306738	1.685047
0.306836	1.686034
0.306934	1.686980
0.307031	1.687743
0.307129	1.688546
0.307227	1.689030
0.307324	1.689484
0.307422	1.689965
0.307520	1.690457
0.307617	1.690948
0.307715	1.691402
0.307812	1.691798
0.307910	1.692075
0.308008	1.692320
0.308105	1.692619
0.308203	1.693134
0.308301	1.693839
0.308398	1.694707
0.308496	1.695574
0.308594	1.696387
0.308691	1.697126
0.308789	1.697670
0.308887	1.697693
0.308984	1.697377
0.309082	1.696556
0.309180	1.695754
0.309277	1.694987
0.309375	1.694524
0.309473	1.694335
0.309570	1.694530
0.309668	1.695190
0.309766	1.696280
0.309863	1.697674
0.309961	1.699397
0.310059	1.700648
0.310156	1.700853
0.310254	1.699867
0.310352	1.698506
0.310449	1.696500
0.310547	1.693532
0.310645	1.690150
0.310742	1.687396
0.310840	1.685413
0.310937	1.684096
0.311035	1.683204
0.311133	1.682577
0.311230	1.682072
0.311328	1.681750
0.311426	1.681610
0.311523	1.681487
0.311621	1.681468
0.311719	1.681586
0.311816	1.681682
0.311914	1.681832
0.312012	1.682026
0.312109	1.682326
0.312207	1.682639
0.312305	1.683094
0.312402	1.683636
0.312500	1.684242
0.312598	1.684834
0.312695	1.685527
0.312793	1.686126
0.312891	1.686496
0.312988	1.686772
0.313086	1.686784
0.313184	1.686701
0.313281	1.686375
0.313379	1.685896
0.313477	1.685428
0.313574	1.684907
0.313672	1.684440
0.313770	1.683913
0.313867	1.683523
0.313965	1.682946
0.314062	1.682399
0.314160	1.681703
0.314258	1.680792
0.314355	1.679650
0.314453	1.678301
0.314551	1.676995
0.314648	1.675486
0.314746	1.674086
0.314844	1.672776
0.314941	1.671444
0.315039	1.670102
0.315137	1.668885
0.315234	1.667603
0.315332	1.666451
0.315430	1.665351
0.315527	1.664404
0.315625	1.663557
0.315723	1.662882
0.315820	1.662254
0.315918	1.661680
0.316016	1.661237
0.316113	1.660929
0.316211	1.660809
0.316309	1.660731
0.316406	1.660912
0.316504	1.661125
0.316602	1.661449
0.316699	1.661898
0.316797	1.662404
0.316895	1.663013
0.316992	1.663773
0.317090	1.664410
0.317187	1.665276
0.317285	1.666101
0.317383	1.667023
0.317480	1.667987
0.317578	1.668990
0.317676	1.669899
0.317773	1.670841
0.317871	1.671796
0.317969	1.672615
0.318066	1.673415
0.318164	1.674440
0.318262	1.675320
0.318359	1.676213
0.318457	1.677014
0.318555	1.677792
0.318652	1.678632
0.318750	1.679384
0.318848	1.680266
0.318945	1.681139
0.319043	1.681977
0.319141	1.682825
0.319238	1.683554
0.319336	1.684230
0.319434	1.684675
0.319531	1.684938
0.319629	1.685165
0.319727	1.685141
0.319824	1.685074
0.319922	1.684935
0.320020	1.684855
0.320117	1.684882
0.320215	1.685090
0.320312	1.685261
0.320410	1.685652
0.320508	1.686028
0.320605	1.686620
0.320703	1.687070
0.320801	1.687478
0.320898	1.687838
0.320996	1.688092
0.321094	1.688348
0.321191	1.688509
0.321289	1.688445
0.321387	1.688585
0.321484	1.688492
0.321582	1.688359
0.321680	1.688209
0.321777	1.688082
0.321875	1.687761
0.321973	1.687513
0.322070	1.687154
0.322168	1.686668
0.322266	1.686294
0.322363	1.685785
0.322461	1.685359
0.322559	1.684962
0.322656	1.684584
0.322754	1.684212
0.322852	1.683816
0.322949	1.683465
0.323047	1.683135
0.323145	1.682735
0.323242	1.682305
0.323340	1.681925
0.323437	1.681519
0.323535	1.681049
0.323633	1.680631
0.323730	1.680095
0.323828	1.679563
0.323926	1.679042
0.324023	1.678494
0.324121	1.677956
0.324219	1.677507
0.324316	1.676969
0.324414	1.676574
0.324512	1.676145
0.324609	1.675821
0.324707	1.675541
0.324805	1.675319
0.324902	1.675203
0.325000	1.675004
0.325098	1.675014
0.325195	1.674864
0.325293	1.674869
0.325391	1.674792
0.325488	1.674907
0.325586	1.675082
0.325684	1.675246
0.325781	1.675413
0.325879	1.675656
0.325977	1.675764
0.326074	1.676031
0.326172	1.676160
0.326270	1.676439
0.326367	1.676773
0.326465	1.677085
0.326562	1.677383
0.326660	1.677646
0.326758	1.677931
0.326855	1.678203
0.326953	1.678526
0.327051	1.678895
0.327148	1.679184
0.327246	1.679454
0.327344	1.679907
0.327441	1.680257
0.327539	1.680671
0.327637	1.680872
0.327734	1.681233
0.327832	1.681457
0.327930	1.681575
0.328027	1.681668
0.328125	1.681774
0.328223	1.682015
0.328320	1.682040
0.328418	1.682033
0.328516	1.682049
0.328613	1.681940
0.328711	1.681917
0.328809	1.681876
0.328906	1.681938
0.329004	1.681926
0.329102	1.681903
0.329199	1.681927
0.329297	1.681986
0.329395	1.682109
0.329492	1.682277
0.329590	1.682462
0.329687	1.682632
0.329785	1.682863
0.329883	1.682975
0.329980	1.683058
0.330078	1.683147
0.330176	1.683276
0.330273	1.683251
0.330371	1.683414
0.330469	1.683369
0.330566	1.683175
0.330664	1.682944
0.330762	1.682537
0.330859	1.682142
0.330957	1.681784
0.331055	1.681310
0.331152	1.680883
0.331250	1.680671
0.331348	1.680380
0.331445	1.680181
0.331543	1.680007
0.331641	1.679833
0.331738	1.679768
0.331836	1.679496
0.331934	1.679476
0.332031	1.679274
0.332129	1.679189
0.332227	1.679075
0.332324	1.678897
0.332422	1.678726
0.332520	1.678555
0.332617	1.678318
0.332715	1.678101
0.332812	1.677935
0.332910	1.677762
0.333008	1.677593
0.333105	1.677490
0.333203	1.677396
0.333301	1.677190
0.333398	1.676981
0.333496	1.676780
0.333594	1.676612
0.333691	1.676417
0.333789	1.676313
0.333887	1.676192
0.333984	1.676064
0.334082	1.676104
0.334180	1.676104
0.334277	1.676063
0.334375	1.676239
0.334473	1.676357
0.334570	1.676362
0.334668	1.676402
0.334766	1.676370
0.334863	1.676383
0.334961	1.676302
0.335059	1.676071
0.335156	1.676039
0.335254	1.675712
0.335352	1.675494
0.335449	1.675143
0.335547	1.674908
0.335645	1.674590
0.335742	1.674513
0.335840	1.674360
0.335937	1.674321
0.336035	1.674382
0.336133	1.674445
0.336230	1.674593
0.336328	1.674708
0.336426	1.675000
0.336523	1.675213
0.336621	1.675365
0.336719	1.675616
0.336816	1.675788
0.336914	1.675967
0.337012	1.676009
0.337109	1.676137
0.337207	1.676209
0.337305	1.676416
0.337402	1.676450
0.337500	1.676606
0.337598	1.676836
0.337695	1.677007
0.337793	1.677189
0.337891	1.677364
0.337988	1.677553
0.338086	1.677733
0.338184	1.678038
0.338281	1.678376
0.338379	1.678569
0.338477	1.678953
0.338574	1.679310
0.338672	1.679647
0.338770	1.680026
0.338867	1.680583
0.338965	1.681107
0.339062	1.681691
0.339160	1.682325
0.339258	1.682944
0.339355	1.683635
0.339453	1.684168
0.339551	1.684846
0.339648	1.685508
0.339746	1.686374
0.339844	1.687178
0.339941	1.688232
0.340039	1.689192
0.340137	1.690136
0.340234	1.690893
0.340332	1.691342
0.340430	1.691325
0.340527	1.690837
0.340625	1.690012
0.340723	1.688936
0.340820	1.687750
0.340918	1.686669
0.341016	1.685677
0.341113	1.684743
0.341211	1.683789
0.341309	1.682991
0.341406	1.682422
0.341504	1.681930
0.341602	1.681680
0.341699	1.681280
0.341797	1.681090
0.341895	1.680830
0.341992	1.680663
0.342090	1.680417
0.342187	1.680082
0.342285	1.679721
0.342383	1.679120
0.342480	1.678463
0.342578	1.677666
0.342676	1.676636
0.342773	1.675518
0.342871	1.674478
0.342969	1.673340
0.343066	1.672247
0.343164	1.671213
0.343262	1.670270
0.343359	1.669394
0.343457	1.668588
0.343555	1.667823
0.343652	1.667149
0.343750	1.666428
0.343848	1.665707
0.343945	1.665025
0.344043	1.664371
0.344141	1.663763
0.344238	1.663106
0.344336	1.662515
0.344434	1.662077
0.344531	1.661600
0.344629	1.661166
0.344727	1.660791
0.344824	1.660576
0.344922	1.660295
0.345020	1.660060
0.345117	1.659804
0.345215	1.659376
0.345312	1.658985
0.345410	1.658486
0.345508	1.657833
0.345605	1.657166
0.345703	1.656471
0.345801	1.655853
0.345898	1.655145
0.345996	1.654399
0.346094	1.653653
0.346191	1.652902
0.346289	1.652124
0.346387	1.651441
0.346484	1.650675
0.346582	1.650070
0.346680	1.649392
0.346777	1.648909
0.346875	1.648309
0.346973	1.647899
0.347070	1.647509
0.347168	1.647105
0.347266	1.646668
0.347363	1.646366
0.347461	1.646098
0.347559	1.645760
0.347656	1.645381
0.347754	1.645165
0.347852	1.644932
0.347949	1.644706
0.348047	1.644600
0.348145	1.644644
0.348242	1.644696
0.348340	1.644876
0.348437	1.644995
0.348535	1.645253
0.348633	1.645381
0.348730	1.645744
0.348828	1.646070
0.348926	1.646357
0.349023	1.646909
0.349121	1.647335
0.349219	1.647956
0.349316	1.648489
0.349414	1.649076
0.349512	1.649739
0.349609	1.650441
0.349707	1.651064
0.349805	1.651908
0.349902	1.652708
0.350000	1.653465
0.350098	1.654395
0.350195	1.655236
0.350293	1.656191
0.350391	1.657126
0.350488	1.658178
0.350586	1.659228
0.350684	1.660370
0.350781	1.661482
0.350879	1.662705
0.350977	1.663806
0.351074	1.665003
0.351172	1.666132
0.351270	1.667300
0.351367	1.668425
0.351465	1.669526
0.351562	1.670596
0.351660	1.671650
0.351758	1.672713
0.351855	1.673748
0.351953	1.674912
0.352051	1.676021
0.352148	1.677319
0.352246	1.678476
0.352344	1.679871
0.352441	1.681194
0.352539	1.682467
0.352637	1.683742
0.352734	1.685070
0.352832	1.686226
0.352930	1.687338
0.353027	1.688318
0.353125	1.689235
0.353223	1.689993
0.353320	1.690773
0.353418	1.691457
0.353516	1.692035
0.353613	1.692500
0.353711	1.692973
0.353809	1.693403
0.353906	1.693970
0.354004	1.694567
0.354102	1.695328
0.354199	1.696265
0.354297	1.697328
0.354395	1.698333
0.354492	1.699265
0.354590	1.700130
0.354687	1.700914
0.354785	1.701495
0.354883	1.702059
0.354980	1.702367
0.355078	1.702562
0.355176	1.702498
0.355273	1.702229
0.355371	1.701850
0.355469	1.701244
0.355566	1.700570
0.355664	1.699975
0.355762	1.699235
0.355859	1.698467
0.355957	1.697526
0.356055	1.696252
0.356152	1.694669
0.356250	1.692894
0.356348	1.690659
0.356445	1.688061
0.356543	1.685269
0.356641	1.682308
0.356738	1.679522
0.356836	1.677295
0.356934	1.675802
0.357031	1.674983
0.357129	1.674238
0.357227	1.673703
0.357324	1.673186
0.357422	1.672785
0.357520	1.672646
0.357617	1.672688
0.357715	1.673147
0.357812	1.673681
0.357910	1.674426
0.358008	1.675470
0.358105	1.676577
0.358203	1.678000
0.358301	1.679345
0.358398	1.680953
0.358496	1.682383
0.358594	1.683719
0.358691	1.684867
0.358789	1.685880
0.358887	1.686666
0.358984	1.687196
0.359082	1.687658
0.359180	1.687677
0.359277	1.687285
0.359375	1.686376
0.359473	1.685300
0.359570	1.684245
0.359668	1.683402
0.359766	1.682493
0.359863	1.681492
0.359961	1.680345
0.360059	1.679173
0.360156	1.677754
0.360254	1.676304
0.360352	1.674999
0.360449	1.673761
0.360547	1.672599
0.360645	1.671536
0.360742	1.670727
0.360840	1.669863
0.360937	1.668954
0.361035	1.668024
0.361133	1.667182
0.361230	1.666382
0.361328	1.665515
0.361426	1.664762
0.361523	1.664083
0.361621	1.663304
0.361719	1.662797
0.361816	1.662220
0.361914	1.661770
0.362012	1.661434
0.362109	1.661135
0.362207	1.661019
0.362305	1.660992
0.362402	1.661153
0.362500	1.661261
0.362598	1.661608
0.362695	1.661890
0.362793	1.662489
0.362891	1.662757
0.362988	1.663192
0.363086	1.663555
0.363184	1.663843
0.363281	1.664144
0.363379	1.664330
0.363477	1.664648
0.363574	1.664811
0.363672	1.665114
0.363770	1.665359
0.363867	1.665761
0.363965	1.666074
0.364062	1.666548
0.364160	1.667069
0.364258	1.667500
0.364355	1.668060
0.364453	1.668652
0.364551	1.669304
0.364648	1.670005
0.364746	1.670734
0.364844	1.671511
0.364941	1.672239
0.365039	1.673089
0.365137	1.673767
0.365234	1.674290
0.365332	1.674875
0.365430	1.675270
0.365527	1.675577
0.365625	1.675988
0.365723	1.676139
0.365820	1.676388
0.365918	1.676771
0.366016	1.677223
0.366113	1.677695
0.366211	1.678474
0.366309	1.679321
0.366406	1.680256
0.366504	1.681239
0.366602	1.682099
0.366699	1.682907
0.366797	1.683619
0.366895	1.684242
0.366992	1.684874
0.367090	1.685265
0.367187	1.685733
0.367285	1.686123
0.367383	1.686459
0.367480	1.686773
0.367578	1.687099
0.367676	1.687389
0.367773	1.687806
0.367871	1.688095
0.367969	1.688666
0.368066	1.688996
0.368164	1.689702
0.368262	1.690441
0.368359	1.691138
0.368457	1.691898
0.368555	1.692449
0.368652	1.693157
0.368750	1.693646
0.368848	1.694198
0.368945	1.694697
0.369043	1.695101
0.369141	1.695349
0.369238	1.695484
0.369336	1.695446
0.369434	1.695303
0.369531	1.694966
0.369629	1.694459
0.369727	1.693946
0.369824	1.693398
0.369922	1.692873
0.370020	1.692330
0.370117	1.691817
0.370215	1.691391
0.370312	1.690954
0.370410	1.690660
0.370508	1.690417
0.370605	1.690330
0.370703	1.690295
0.370801	1.690291
0.370898	1.690307
0.370996	1.690384
0.371094	1.690321
0.371191	1.690101
0.371289	1.689635
0.371387	1.688855
0.371484	1.687925
0.371582	1.687144
0.371680	1.686477
0.371777	1.685904
0.371875	1.685353
0.371973	1.684819
0.372070	1.684152
0.372168	1.683490
0.372266	1.682750
0.372363	1.681965
0.372461	1.681023
0.372559	1.680066
0.372656	1.679018
0.372754	1.677988
0.372852	1.677005
0.372949	1.675987
0.373047	1.674948
0.373145	1.673970
0.373242	1.673035
0.373340	1.672141
0.373437	1.671422
0.373535	1.670625
0.373633	1.669914
0.373730	1.669205
0.373828	1.668632
0.373926	1.667903
0.374023	1.667223
0.374121	1.666631
0.374219	1.665838
0.374316	1.665136
0.374414	1.664287
0.374512	1.663478
0.374609	1.662680
0.374707	1.661750
0.374805	1.661014
0.374902	1.660019
0.375000	1.659249
0.375098	1.658347
0.375195	1.657421
0.375293	1.656684
0.375391	1.655877
0.375488	1.655053
0.375586	1.654325
0.375684	1.653671
0.375781	1.652749
0.375879	1.651950
0.375977	1.651058
0.376074	1.650124
0.376172	1.649261
0.376270	1.648335
0.376367	1.647488
0.376465	1.646667
0.376562	1.646036
0.376660	1.645231
0.376758	1.644511
0.376855	1.643774
0.376953	1.643064
0.377051	1.642518
0.377148	1.641894
0.377246	1.641292
0.377344	1.640724
0.377441	1.640306
0.377539	1.639857
0.377637	1.639416
0.377734	1.638985
0.377832	1.638577
0.377930	1.638282
0.378027	1.637908
0.378125	1.637671
0.378223	1.637566
0.378320	1.637377
0.378418	1.637399
0.378516	1.637248
0.378613	1.637208
0.378711	1.637220
0.378809	1.637278
0.378906	1.637405
0.379004	1.637640
0.379102	1.637892
0.379199	1.638371
0.379297	1.638803
0.379395	1.639387
0.379492	1.639905
0.379590	1.640557
0.379687	1.641311
0.379785	1.642009
0.379883	1.642693
0.379980	1.643578
0.380078	1.644351
0.380176	1.645198
0.380273	1.646115
0.380371	1.647020
0.380469	1.647998
0.380566	1.649008
0.380664	1.650035
0.380762	1.651137
0.380859	1.652234
0.380957	1.653310
0.381055	1.654438
0.381152	1.655513
0.381250	1.656616
0.381348	1.657680
0.381445	1.658791
0.381543	1.659918
0.381641	1.660961
0.381738	1.662141
0.381836	1.663233
0.381934	1.664264
0.382031	1.665420
0.382129	1.666558
0.382227	1.667830
0.382324	1.669020
0.382422	1.670338
0.382520	1.671619
0.382617	1.672950
0.382715	1.674360
0.382812	1.675778
0.382910	1.677042
0.383008	1.678394
0.383105	1.679692
0.383203	1.680837
0.383301	1.681967
0.383398	1.683205
0.383496	1.684429
0.383594	1.685580
0.383691	1.686695
0.383789	1.687691
0.383887	1.688493
0.383984	1.689239
0.384082	1.689954
0.384180	1.690620
0.384277	1.691338
0.384375	1.692044
0.384473	1.692804
0.384570	1.693600
0.384668	1.694320
0.384766	1.695117
0.384863	1.695980
0.384961	1.696582
0.385059	1.697146
0.385156	1.697487
0.385254	1.697614
0.385352	1.697706
0.385449	1.697519
0.385547	1.697392
0.385645	1.697008
0.385742	1.696506
0.385840	1.695960
0.385937	1.695695
0.386035	1.695951
0.386133	1.696654
0.386230	1.697562
0.386328	1.698927
0.386426	1.700699
0.386523	1.703632
0.386621	1.707524
0.386719	1.712016
0.386816	1.708655
0.386914	1.702905
0.387012	1.698866
0.387109	1.692634
0.387207	1.691582
0.387305	1.693157
0.387402	1.696350
0.387500	1.698466
0.387598	1.701005
0.387695	1.703463
0.387793	1.706404
0.387891	1.701394
0.387988	1.694738
0.388086	1.690293
0.388184	1.686214
0.388281	1.679897
0.388379	1.674085
0.388477	1.673766
0.388574	1.668830
0.388672	1.665964
0.388770	1.664033
0.388867	1.663109
0.388965	1.662076
0.389062	1.661400
0.389160	1.660488
0.389258	1.659446
0.389355	1.658153
0.389453	1.656647
0.389551	1.654686
0.389648	1.652444
0.389746	1.649863
0.389844	1.647360
0.389941	1.644858
0.390039	1.642712
0.390137	1.640924
0.390234	1.639811
0.390332	1.638915
0.390430	1.638301
0.390527	1.637657
0.390625	1.637198
0.390723	1.636593
0.390820	1.636046
0.390918	1.635556
0.391016	1.634971
0.391113	1.634483
0.391211	1.634023
0.391309	1.633565
0.391406	1.633137
0.391504	1.632934
0.391602	1.632545
0.391699	1.632374
0.391797	1.632309
0.391895	1.632200
0.391992	1.632112
0.392090	1.632013
0.392187	1.632105
0.392285	1.632141
0.392383	1.632336
0.392480	1.632482
0.392578	1.632706
0.392676	1.632975
0.392773	1.633372
0.392871	1.633642
0.392969	1.634233
0.393066	1.634647
0.393164	1.635119
0.393262	1.635714
0.393359	1.636265
0.393457	1.636789
0.393555	1.637444
0.393652	1.637983
0.393750	1.638598
0.393848	1.639101
0.393945	1.639776
0.394043	1.640419
0.394141	1.641123
0.394238	1.641942
0.394336	1.642688
0.394434	1.643487
0.394531	1.644403
0.394629	1.645223
0.394727	1.646083
0.394824	1.646927
0.394922	1.647852
0.395020	1.648708
0.395117	1.649512
0.395215	1.650345
0.395312	1.651197
0.395410	1.652133
0.395508	1.652963
0.395605	1.653991
0.395703	1.654884
0.395801	1.655910
0.395898	1.656822
0.395996	1.657758
0.396094	1.658779
0.396191	1.659785
0.396289	1.660774
0.396387	1.661731
0.396484	1.662936
0.396582	1.663928
0.396680	1.665039
0.396777	1.666188
0.396875	1.667459
0.396973	1.668576
0.397070	1.669914
0.397168	1.671246
0.397266	1.672519
0.397363	1.673880
0.397461	1.675229
0.397559	1.676531
0.397656	1.677736
0.397754	1.678897
0.397852	1.679958
0.397949	1.680851
0.398047	1.681738
0.398145	1.682502
0.398242	1.683481
0.398340	1.684304
0.398437	1.685209
0.398535	1.686021
0.398633	1.686715
0.398730	1.687362
0.398828	1.687941
0.398926	1.688199
0.399023	1.688415
0.399121	1.688683
0.399219	1.688809
0.399316	1.688986
0.399414	1.689238
0.399512	1.689303
0.399609	1.689583
0.399707	1.689673
0.399805	1.689745
0.399902	1.689998
0.400000	1.690184
0.400098	1.690418
0.400195	1.690831
0.400293	1.691349
0.400391	1.691924
0.400488	1.692774
0.400586	1.693623
0.400684	1.694508
0.400781	1.695344
0.400879	1.696002
0.400977	1.696291
0.401074	1.696284
0.401172	1.695947
0.401270	1.695425
0.401367	1.694867
0.401465	1.694214
0.401562	1.693784
0.401660	1.693318
0.401758	1.692940
0.401855	1.692699
0.401953	1.692449
0.402051	1.692013
0.402148	1.691463
0.402246	1.690638
0.402344	1.689614
0.402441	1.688448
0.402539	1.687207
0.402637	1.686285
0.402734	1.685428
0.402832	1.684966
0.402930	1.684826
0.403027	1.684836
0.403125	1.685013
0.403223	1.685325
0.403320	1.685657
0.403418	1.685966
0.403516	1.686223
0.403613	1.686407
0.403711	1.686582
0.403809	1.686594
0.403906	1.686792
0.404004	1.686818
0.404102	1.686280
0.404199	1.684483
0.404297	1.682212
0.404395	1.679593
0.404492	1.677185
0.404590	1.675135
0.404687	1.673577
0.404785	1.672508
0.404883	1.671545
0.404980	1.670759
0.405078	1.670053
0.405176	1.669250
0.405273	1.668657
0.405371	1.668006
0.405469	1.667433
0.405566	1.666975
0.405664	1.666530
0.405762	1.666147
0.405859	1.665744
0.405957	1.665440
0.406055	1.664989
0.406152	1.664735
0.406250	1.664360
0.406348	1.663978
0.406445	1.663657
0.406543	1.663255
0.406641	1.662799
0.406738	1.662298
0.406836	1.661921
0.406934	1.661433
0.407031	1.660977
0.407129	1.660520
0.407227	1.660147
0.407324	1.659595
0.407422	1.659186
0.407520	1.658780
0.407617	1.658254
0.407715	1.657913
0.407812	1.657545
0.407910	1.657265
0.408008	1.656756
0.408105	1.656487
0.408203	1.656166
0.408301	1.655981
0.408398	1.655805
0.408496	1.655584
0.408594	1.655472
0.408691	1.655423
0.408789	1.655188
0.408887	1.655166
0.408984	1.655043
0.409082	1.655016
0.409180	1.655146
0.409277	1.655087
0.409375	1.655433
0.409473	1.655530
0.409570	1.655928
0.409668	1.656145
0.409766	1.656606
0.409863	1.657001
0.409961	1.657472
0.410059	1.657940
0.410156	1.658540
0.410254	1.659115
0.410352	1.659615
0.410449	1.660256
0.410547	1.660909
0.410645	1.661595
0.410742	1.662305
0.410840	1.663104
0.410937	1.663736
0.411035	1.664507
0.411133	1.665202
0.411230	1.665801
0.411328	1.666426
0.411426	1.667012
0.411523	1.667488
0.411621	1.668065
0.411719	1.668499
0.411816	1.669087
0.411914	1.669736
0.412012	1.670353
0.412109	1.671127
0.412207	1.671942
0.412305	1.672702
0.412402	1.673676
0.412500	1.674608
0.412598	1.675430
0.412695	1.676331
0.412793	1.677028
0.412891	1.677832
0.412988	1.678491
0.413086	1.679133
0.413184	1.679838
0.413281	1.680535
0.413379	1.681416
0.413477	1.682346
0.413574	1.683221
0.413672	1.684317
0.413770	1.685214
0.413867	1.686183
0.413965	1.686904
0.414062	1.687686
0.414160	1.688473
0.414258	1.689214
0.414355	1.689983
0.414453	1.690694
0.414551	1.691487
0.414648	1.692376
0.414746	1.693284
0.414844	1.694030
0.414941	1.694528
0.415039	1.694964
0.415137	1.695104
0.415234	1.695063
0.415332	1.694997
0.415430	1.694787
0.415527	1.694676
0.415625	1.694672
0.415723	1.694519
0.415820	1.694668
0.415918	1.694633
0.416016	1.694836
0.416113	1.695242
0.416211	1.695667
0.416309	1.696277
0.416406	1.696990
0.416504	1.697821
0.416602	1.698445
0.416699	1.699051
0.416797	1.699490
0.416895	1.699607
0.416992	1.699245
0.417090	1.698447
0.417187	1.697382
0.417285	1.696224
0.417383	1.695101
0.417480	1.694170
0.417578	1.693536
0.417676	1.693054
0.417773	1.692615
0.417871	1.692282
0.417969	1.692119
0.418066	1.691870
0.418164	1.691994
0.418262	1.691825
0.418359	1.691393
0.418457	1.690269
0.418555	1.688894
0.418652	1.687175
0.418750	1.685451
0.418848	1.683723
0.418945	1.681970
0.419043	1.680367
0.419141	1.678494
0.419238	1.676702
0.419336	1.674921
0.419434	1.673435
0.419531	1.672334
0.419629	1.671587
0.419727	1.671078
0.419824	1.670840
0.419922	1.670861
0.420020	1.671082
0.420117	1.671414
0.420215	1.671732
0.420312	1.672041
0.420410	1.672275
0.420508	1.672140
0.420605	1.671957
0.420703	1.671578
0.420801	1.670979
0.420898	1.670583
0.420996	1.670210
0.421094	1.669980
0.421191	1.669814
0.421289	1.669764
0.421387	1.669900
0.421484	1.669936
0.421582	1.670071
0.421680	1.670102
0.421777	1.670082
0.421875	1.669963
0.421973	1.669757
0.422070	1.669366
0.422168	1.668752
0.422266	1.667956
0.422363	1.667050
0.422461	1.665887
0.422559	1.664543
0.422656	1.663096
0.422754	1.661443
0.422852	1.659837
0.422949	1.658337
0.423047	1.656726
0.423145	1.655159
0.423242	1.653713
0.423340	1.652504
0.423437	1.651255
0.423535	1.650173
0.423633	1.649260
0.423730	1.648268
0.423828	1.647405
0.423926	1.646505
0.424023	1.645658
0.424121	1.644898
0.424219	1.644009
0.424316	1.643173
0.424414	1.642361
0.424512	1.641781
0.424609	1.640988
0.424707	1.640230
0.424805	1.639611
0.424902	1.639083
0.425000	1.638628
0.425098	1.638296
0.425195	1.637883
0.425293	1.637812
0.425391	1.637748
0.425488	1.637800
0.425586	1.637892
0.425684	1.638117
0.425781	1.638407
0.425879	1.638748
0.425977	1.639184
0.426074	1.639532
0.426172	1.640101
0.426270	1.640600
0.426367	1.641298
0.426465	1.641851
0.426562	1.642563
0.426660	1.643216
0.426758	1.644008
0.426855	1.644697
0.426953	1.645474
0.427051	1.646245
0.427148	1.647157
0.427246	1.648067
0.427344	1.648976
0.427441	1.650096
0.427539	1.651167
0.427637	1.652266
0.427734	1.653436
0.427832	1.654444
0.427930	1.655584
0.428027	1.656498
0.428125	1.657677
0.428223	1.658819
0.428320	1.659977
0.428418	1.660971
0.428516	1.662124
0.428613	1.663110
0.428711	1.664139
0.428809	1.665148
0.428906	1.666016
0.429004	1.666967
0.429102	1.667860
0.429199	1.668845
0.429297	1.669753
0.429395	1.670728
0.429492	1.671686
0.429590	1.672690
0.429687	1.673618
0.429785	1.674636
0.429883	1.675562
0.429980	1.676544
0.430078	1.677399
0.430176	1.678251
0.430273	1.679100
0.430371	1.679955
0.430469	1.680865
0.430566	1.681743
0.430664	1.682579
0.430762	1.683276
0.430859	1.684103
0.430957	1.684849
0.431055	1.685684
0.431152	1.686414
0.431250	1.687404
0.431348	1.688213
0.431445	1.689126
0.431543	1.689987
0.431641	1.690744
0.431738	1.691474
0.431836	1.692216
0.431934	1.692907
0.432031	1.693544
0.432129	1.694237
0.432227	1.694830
0.432324	1.695618
0.432422	1.696385
0.432520	1.697032
0.432617	1.697824
0.432715	1.698455
0.432812	1.699009
0.432910	1.699408
0.433008	1.699729
0.433105	1.699850
0.433203	1.699810
0.433301	1.699795
0.433398	1.699829
0.433496	1.699928
0.433594	1.700090
0.433691	1.700360
0.433789	1.700668
0.433887	1.700778
0.433984	1.700810
0.434082	1.700584
0.434180	1.700435
0.434277	1.700175
0.434375	1.700285
0.434473	1.700321
0.434570	1.700490
0.434668	1.700829
0.434766	1.700934
0.434863	1.700662
0.434961	1.699596
0.435059	1.697809
0.435156	1.695810
0.435254	1.693941
0.435352	1.692490
0.435449	1.691478
0.435547	1.690921
0.435645	1.690669
0.435742	1.690610
0.435840	1.690713
0.435937	1.690810
0.436035	1.690844
0.436133	1.690517
0.436230	1.689831
0.436328	1.688447
0.436426	1.686786
0.436523	1.684866
0.436621	1.682840
0.436719	1.680223
0.436816	1.676479
0.436914	1.671779
0.437012	1.667524
0.437109	1.663903
0.437207	1.660690
0.437305	1.657742
0.437402	1.655058
0.437500	1.652415
0.437598	1.649767
0.437695	1.647225
0.437793	1.644760
0.437891	1.642457
0.437988	1.640293
0.438086	1.638363
0.438184	1.636668
0.438281	1.635023
0.438379	1.633621
0.438477	1.632308
0.438574	1.631209
0.438672	1.630277
0.438770	1.629618
0.438867	1.629152
0.438965	1.628741
0.439062	1.628497
0.439160	1.628468
0.439258	1.628526
0.439355	1.628717
0.439453	1.629011
0.439551	1.629230
0.439648	1.629696
0.439746	1.630052
0.439844	1.630525
0.439941	1.631008
0.440039	1.631638
0.440137	1.632194
0.440234	1.632835
0.440332	1.633532
0.440430	1.634263
0.440527	1.634921
0.440625	1.635659
0.440723	1.636345
0.440820	1.637178
0.440918	1.637874
0.441016	1.638647
0.441113	1.639399
0.441211	1.640187
0.441309	1.641093
0.441406	1.641985
0.441504	1.642924
0.441602	1.643828
0.441699	1.644744
0.441797	1.645671
0.441895	1.646629
0.441992	1.647581
0.442090	1.648528
0.442187	1.649496
0.442285	1.650445
0.442383	1.651468
0.442480	1.652520
0.442578	1.653508
0.442676	1.654582
0.442773	1.655675
0.442871	1.656795
0.442969	1.657841
0.443066	1.658924
0.443164	1.660100
0.443262	1.661321
0.443359	1.662464
0.443457	1.663790
0.443555	1.665050
0.443652	1.666299
0.443750	1.667538
0.443848	1.668721
0.443945	1.669758
0.444043	1.670796
0.444141	1.671704
0.444238	1.672587
0.444336	1.673485
0.444434	1.674383
0.444531	1.675389
0.444629	1.676449
0.444727	1.677621
0.444824	1.678778
0.444922	1.680009
0.445020	1.681107
0.445117	1.682200
0.445215	1.683088
0.445312	1.683797
0.445410	1.684350
0.445508	1.684835
0.445605	1.685190
0.445703	1.685645
0.445801	1.685774
0.445898	1.686010
0.445996	1.686097
0.446094	1.686143
0.446191	1.686259
0.446289	1.686473
0.446387	1.686682
0.446484	1.686890
0.446582	1.687359
0.446680	1.687766
0.446777	1.688228
0.446875	1.688585
0.446973	1.688962
0.447070	1.689182
0.447168	1.689294
0.447266	1.689198
0.447363	1.689160
0.447461	1.689075
0.447559	1.688978
0.447656	1.688921
0.447754	1.688947
0.447852	1.688921
0.447949	1.688800
0.448047	1.688736
0.448145	1.688608
0.448242	1.688464
0.448340	1.688169
0.448437	1.687855
0.448535	1.687321
0.448633	1.686713
0.448730	1.685923
0.448828	1.684982
0.448926	1.683925
0.449023	1.682632
0.449121	1.681339
0.449219	1.679889
0.449316	1.678622
0.449414	1.677244
0.449512	1.675883
0.449609	1.674623
0.449707	1.673333
0.449805	1.672131
0.449902	1.670857
0.450000	1.669727
0.450098	1.668535
0.450195	1.667303
0.450293	1.666063
0.450391	1.664845
0.450488	1.663581
0.450586	1.662432
0.450684	1.661175
0.450781	1.659826
0.450879	1.658497
0.450977	1.657205
0.451074	1.655974
0.451172	1.654708
0.451270	1.653541
0.451367	1.652313
0.451465	1.651205
0.451562	1.650303
0.451660	1.649265
0.451758	1.648437
0.451855	1.647623
0.451953	1.647034
0.452051	1.646467
0.452148	1.645951
0.452246	1.645478
0.452344	1.645061
0.452441	1.644794
0.452539	1.644519
0.452637	1.644298
0.452734	1.644098
0.452832	1.644078
0.452930	1.644004
0.453027	1.644036
0.453125	1.644063
0.453223	1.644223
0.453320	1.644285
0.453418	1.644588
0.453516	1.644738
0.453613	1.644954
0.453711	1.645380
0.453809	1.645644
0.453906	1.645995
0.454004	1.646324
0.454102	1.646662
0.454199	1.647064
0.454297	1.647434
0.454395	1.647797
0.454492	1.648229
0.454590	1.648713
0.454687	1.649214
0.454785	1.649843
0.454883	1.650541
0.454980	1.651155
0.455078	1.652022
0.455176	1.652730
0.455273	1.653445
0.455371	1.654317
0.455469	1.655136
0.455566	1.656055
0.455664	1.656952
0.455762	1.657824
0.455859	1.658851
0.455957	1.659734
0.456055	1.660766
0.456152	1.661761
0.456250	1.662868
0.456348	1.663926
0.456445	1.665028
0.456543	1.666147
0.456641	1.667317
0.456738	1.668372
0.456836	1.669418
0.456934	1.670531
0.457031	1.671633
0.457129	1.672829
0.457227	1.674005
0.457324	1.675036
0.457422	1.675975
0.457520	1.676918
0.457617	1.677653
0.457715	1.678242
0.457812	1.678811
0.457910	1.679353
0.458008	1.679867
0.458105	1.680431
0.458203	1.681168
0.458301	1.681856
0.458398	1.682537
0.458496	1.683325
0.458594	1.684091
0.458691	1.684857
0.458789	1.685823
0.458887	1.686665
0.458984	1.687668
0.459082	1.688617
0.459180	1.689602
0.459277	1.690437
0.459375	1.691172
0.459473	1.691733
0.459570	1.692224
0.459668	1.692386
0.459766	1.692456
0.459863	1.692412
0.459961	1.692074
0.460059	1.691840
0.460156	1.691337
0.460254	1.690872
0.460352	1.690369
0.460449	1.689984
0.460547	1.689798
0.460645	1.689798
0.460742	1.690107
0.460840	1.690532
0.460937	1.691285
0.461035	1.692142
0.461133	1.693022
0.461230	1.693797
0.461328	1.694269
0.461426	1.694302
0.461523	1.693797
0.461621	1.692791
0.461719	1.691565
0.461816	1.690156
0.461914	1.689074
0.462012	1.688158
0.462109	1.687670
0.462207	1.687100
0.462305	1.687033
0.462402	1.686967
0.462500	1.686958
0.462598	1.687031
0.462695	1.687069
0.462793	1.686956
0.462891	1.686585
0.462988	1.686091
0.463086	1.685326
0.463184	1.684249
0.463281	1.682964
0.463379	1.681514
0.463477	1.679996
0.463574	1.678450
0.463672	1.676823
0.463770	1.675465
0.463867	1.674187
0.463965	1.673119
0.464062	1.672305
0.464160	1.671589
0.464258	1.671139
0.464355	1.670715
0.464453	1.670248
0.464551	1.669581
0.464648	1.668612
0.464746	1.667260
0.464844	1.665617
0.464941	1.663749
0.465039	1.661933
0.465137	1.659916
0.465234	1.657984
0.465332	1.656148
0.465430	1.654270
0.465527	1.652495
0.465625	1.650902
0.465723	1.649403
0.465820	1.648177
0.465918	1.647147
0.466016	1.646301
0.466113	1.645559
0.466211	1.645110
0.466309	1.644680
0.466406	1.644454
0.466504	1.644124
0.466602	1.644037
0.466699	1.644055
0.466797	1.643935
0.466895	1.644121
0.466992	1.644249
0.467090	1.644415
0.467187	1.644559
0.467285	1.644781
0.467383	1.644946
0.467480	1.645262
0.467578	1.645439
0.467676	1.645701
0.467773	1.645926
0.467871	1.646299
0.467969	1.646687
0.468066	1.647027
0.468164	1.647680
0.468262	1.648338
0.468359	1.648988
0.468457	1.649625
0.468555	1.650374
0.468652	1.651155
0.468750	1.651840
0.468848	1.652440
0.468945	1.653306
0.469043	1.654052
0.469141	1.654776
0.469238	1.655729
0.469336	1.656643
0.469434	1.657672
0.469531	1.658772
0.469629	1.659912
0.469727	1.661168
0.469824	1.662370
0.469922	1.663621
0.470020	1.664853
0.470117	1.666118
0.470215	1.667296
0.470312	1.668632
0.470410	1.669897
0.470508	1.671215
0.470605	1.672602
0.470703	1.674077
0.470801	1.675702
0.470898	1.677342
0.470996	1.679234
0.471094	1.680910
0.471191	1.682548
0.471289	1.683955
0.471387	1.685045
0.471484	1.686023
0.471582	1.686532
0.471680	1.686601
0.471777	1.686422
0.471875	1.686103
0.471973	1.685874
0.472070	1.685752
0.472168	1.685859
0.472266	1.686116
0.472363	1.686400
0.472461	1.686794
0.472559	1.687424
0.472656	1.688121
0.472754	1.688888
0.472852	1.689724
0.472949	1.690671
0.473047	1.691712
0.473145	1.692737
0.473242	1.693688
0.473340	1.694364
0.473437	1.694565
0.473535	1.694019
0.473633	1.692900
0.473730	1.691285
0.473828	1.689439
0.473926	1.687399
0.474023	1.685740
0.474121	1.684362
0.474219	1.683576
0.474316	1.683186
0.474414	1.683033
0.474512	1.683094
0.474609	1.683261
0.474707	1.683383
0.474805	1.683731
0.474902	1.684190
0.475000	1.684660
0.475098	1.685368
0.475195	1.686020
0.475293	1.686993
0.475391	1.687955
0.475488	1.688821
0.475586	1.689744
0.475684	1.690540
0.475781	1.691107
0.475879	1.691576
0.475977	1.691719
0.476074	1.691867
0.476172	1.691670
0.476270	1.691108
0.476367	1.689990
0.476465	1.688656
0.476562	1.687141
0.476660	1.685697
0.476758	1.684088
0.476855	1.682382
0.476953	1.680605
0.477051	1.678806
0.477148	1.677198
0.477246	1.675600
0.477344	1.674041
0.477441	1.672701
0.477539	1.671359
0.477637	1.670211
0.477734	1.669258
0.477832	1.668362
0.477930	1.667670
0.478027	1.666950
0.478125	1.666486
0.478223	1.666046
0.478320	1.665588
0.478418	1.665260
0.478516	1.664905
0.478613	1.664570
0.478711	1.664326
0.478809	1.664103
0.478906	1.663909
0.479004	1.663727
0.479102	1.663491
0.479199	1.663332
0.479297	1.663062
0.479395	1.662801
0.479492	1.662539
0.479590	1.662282
0.479687	1.661960
0.479785	1.661669
0.479883	1.661420
0.479980	1.660916
0.480078	1.660581
0.480176	1.660105
0.480273	1.659598
0.480371	1.659308
0.480469	1.658785
0.480566	1.658221
0.480664	1.657581
0.480762	1.657021
0.480859	1.656247
0.480957	1.655485
0.481055	1.654665
0.481152	1.653846
0.481250	1.653176
0.481348	1.652462
0.481445	1.651796
0.481543	1.651216
0.481641	1.650792
0.481738	1.650337
0.481836	1.650065
0.481934	1.649921
0.482031	1.649763
0.482129	1.649736
0.482227	1.649848
0.482324	1.649904
0.482422	1.650121
0.482520	1.650314
0.482617	1.650582
0.482715	1.650962
0.482812	1.651280
0.482910	1.651696
0.483008	1.652057
0.483105	1.652570
0.483203	1.652920
0.483301	1.653379
0.483398	1.653910
0.483496	1.654270
0.483594	1.654945
0.483691	1.655302
0.483789	1.655983
0.483887	1.656415
0.483984	1.656996
0.484082	1.657502
0.484180	1.658145
0.484277	1.658706
0.484375	1.659397
0.484473	1.660104
0.484570	1.660954
0.484668	1.661682
0.484766	1.662561
0.484863	1.663208
0.484961	1.664008
0.485059	1.664813
0.485156	1.665451
0.485254	1.666137
0.485352	1.666814
0.485449	1.667474
0.485547	1.668136
0.485645	1.668865
0.485742	1.669576
0.485840	1.670198
0.485937	1.671026
0.486035	1.671740
0.486133	1.672693
0.486230	1.673570
0.486328	1.674507
0.486426	1.675540
0.486523	1.676469
0.486621	1.677474
0.486719	1.678175
0.486816	1.679061
0.486914	1.679781
0.487012	1.680425
0.487109	1.680981
0.487207	1.681562
0.487305	1.682073
0.487402	1.682588
0.487500	1.683140
0.487598	1.683748
0.487695	1.684352
0.487793	1.684823
0.487891	1.685381
0.487988	1.685815
0.488086	1.686156
0.488184	1.686718
0.488281	1.687103
0.488379	1.687478
0.488477	1.687830
0.488574	1.688287
0.488672	1.688655
0.488770	1.689142
0.488867	1.689680
0.488965	1.690292
0.489062	1.690953
0.489160	1.691551
0.489258	1.692193
0.489355	1.692882
0.489453	1.693568
0.489551	1.694115
0.489648	1.694612
0.489746	1.695056
0.489844	1.695275
0.489941	1.695509
0.490039	1.695333
0.490137	1.695228
0.490234	1.694906
0.490332	1.694473
0.490430	1.693965
0.490527	1.693301
0.490625	1.692717
0.490723	1.692147
0.490820	1.691644
0.490918	1.691096
0.491016	1.690713
0.491113	1.690313
0.491211	1.689902
0.491309	1.689581
0.491406	1.689128
0.491504	1.688741
0.491602	1.688240
0.491699	1.687846
0.491797	1.687257
0.491895	1.686711
0.491992	1.686057
0.492090	1.685163
0.492187	1.684114
0.492285	1.682757
0.492383	1.681226
0.492480	1.679526
0.492578	1.677805
0.492676	1.675903
0.492773	1.674211
0.492871	1.672447
0.492969	1.670776
0.493066	1.669234
0.493164	1.667696
0.493262	1.666328
0.493359	1.665058
0.493457	1.664011
0.493555	1.662963
0.493652	1.662203
0.493750	1.661626
0.493848	1.661089
0.493945	1.660769
0.494043	1.660584
0.494141	1.660603
0.494238	1.660787
0.494336	1.660977
0.494434	1.661363
0.494531	1.661801
0.494629	1.662299
0.494727	1.662846
0.494824	1.663440
0.494922	1.664042
0.495020	1.664691
0.495117	1.665180
0.495215	1.665801
0.495312	1.666337
0.495410	1.666715
0.495508	1.667104
0.495605	1.667570
0.495703	1.667809
0.495801	1.668056
0.495898	1.668265
0.495996	1.668336
0.496094	1.668527
0.496191	1.668663
0.496289	1.668840
0.496387	1.668973
0.496484	1.669217
0.496582	1.669394
0.496680	1.669527
0.496777	1.669608
0.496875	1.669736
0.496973	1.669806
0.497070	1.669807
0.497168	1.669940
0.497266	1.669829
0.497363	1.669742
0.497461	1.669661
0.497559	1.669524
0.497656	1.669302
0.497754	1.669155
0.497852	1.668893
0.497949	1.668682
0.498047	1.668421
0.498145	1.668297
0.498242	1.668131
0.498340	1.667946
0.498437	1.667908
0.498535	1.667756
0.498633	1.667650
0.498730	1.667591
0.498828	1.667627
0.498926	1.667548
0.499023	1.667672
0.499121	1.667738
0.499219	1.667805
0.499316	1.667975
0.499414	1.668068
0.499512	1.668201
0.499609	1.668403
0.499707	1.668624
0.499805	1.668826
0.499902	1.668952
0.500000	1.669259
0.500098	1.669507
0.500195	1.669695
0.500293	1.669974
0.500391	1.670243
0.500488	1.670496
0.500586	1.670819
0.500684	1.671145
0.500781	1.671546
0.500879	1.672017
0.500977	1.672580
0.501074	1.673239
0.501172	1.673854
0.501270	1.674605
0.501367	1.675374
0.501465	1.676173
0.501562	1.676961
0.501660	1.677731
0.501758	1.678415
0.501855	1.679085
0.501953	1.679714
0.502051	1.680323
0.502148	1.680872
0.502246	1.681469
0.502344	1.682069
0.502441	1.682618
0.502539	1.683075
0.502637	1.683592
0.502734	1.683864
0.502832	1.684118
0.502930	1.684127
0.503027	1.684198
0.503125	1.683930
0.503223	1.683619
0.503320	1.683246
0.503418	1.682865
0.503516	1.682592
0.503613	1.682167
0.503711	1.682033
0.503809	1.681921
0.503906	1.682024
0.504004	1.682171
0.504102	1.682421
0.504199	1.682666
0.504297	1.682931
0.504395	1.683110
0.504492	1.683308
0.504590	1.683367
0.504687	1.683359
0.504785	1.683257
0.504883	1.683044
0.504980	1.682936
0.505078	1.682648
0.505176	1.682449
0.505273	1.682276
0.505371	1.682146
0.505469	1.681918
0.505566	1.681885
0.505664	1.681793
0.505762	1.681652
0.505859	1.681615
0.505957	1.681564
0.506055	1.681487
0.506152	1.681449
0.506250	1.681602
0.506348	1.681713
0.506445	1.681925
0.506543	1.682104
0.506641	1.682388
0.506738	1.682650
0.506836	1.682834
0.506934	1.683125
0.507031	1.683310
0.507129	1.683486
0.507227	1.683617
0.507324	1.683630
0.507422	1.683776
0.507520	1.683720
0.507617	1.683698
0.507715	1.683584
0.507812	1.683581
0.507910	1.683508
0.508008	1.683292
0.508105	1.683141
0.508203	1.682997
0.508301	1.682455
0.508398	1.681724
0.508496	1.680620
0.508594	1.679547
0.508691	1.678477
0.508789	1.677622
0.508887	1.677032
0.508984	1.676798
0.509082	1.676852
0.509180	1.677177
0.509277	1.677800
0.509375	1.678473
0.509473	1.679239
0.509570	1.680088
0.509668	1.680725
0.509766	1.681315
0.509863	1.681784
0.509961	1.682239
0.510059	1.682603
0.510156	1.682926
0.510254	1.683196
0.510352	1.683381
0.510449	1.683609
0.510547	1.683670
0.510645	1.683725
0.510742	1.683717
0.510840	1.683664
0.510937	1.683296
0.511035	1.683025
0.511133	1.682496
0.511230	1.681885
0.511328	1.681074
0.511426	1.680086
0.511523	1.679240
0.511621	1.678290
0.511719	1.677342
0.511816	1.676506
0.511914	1.675699
0.512012	1.675033
0.512109	1.674288
0.512207	1.673808
0.512305	1.673186
0.512402	1.672829
0.512500	1.672432
0.512598	1.672172
0.512695	1.671998
0.512793	1.671894
0.512891	1.671917
0.512988	1.672031
0.513086	1.671988
0.513184	1.672086
0.513281	1.672259
0.513379	1.672425
0.513477	1.672738
0.513574	1.672830
0.513672	1.673074
0.513770	1.673045
0.513867	1.672788
0.513965	1.672278
0.514062	1.671684
0.514160	1.671069
0.514258	1.670421
0.514355	1.669900
0.514453	1.669432
0.514551	1.669097
0.514648	1.668828
0.514746	1.668680
0.514844	1.668482
0.514941	1.668390
0.515039	1.668464
0.515137	1.668321
0.515234	1.668426
0.515332	1.668418
0.515430	1.668465
0.515527	1.668438
0.515625	1.668604
0.515723	1.668704
0.515820	1.668775
0.515918	1.668818
0.516016	1.668918
0.516113	1.668904
0.516211	1.668924
0.516309	1.669200
0.516406	1.669272
0.516504	1.669683
0.516602	1.669867
0.516699	1.670205
0.516797	1.670554
0.516895	1.670853
0.516992	1.671112
0.517090	1.671437
0.517187	1.671700
0.517285	1.671868
0.517383	1.672110
0.517480	1.672172
0.517578	1.672298
0.517676	1.672309
0.517773	1.672462
0.517871	1.672444
0.517969	1.672480
0.518066	1.672461
0.518164	1.672638
0.518262	1.672613
0.518359	1.672611
0.518457	1.672480
0.518555	1.672321
0.518652	1.672029
0.518750	1.671680
0.518848	1.671462
0.518945	1.671098
0.519043	1.670771
0.519141	1.670464
0.519238	1.670240
0.519336	1.669950
0.519434	1.669902
0.519531	1.669825
0.519629	1.669823
0.519727	1.669960
0.519824	1.670093
0.519922	1.670294
0.520020	1.670479
0.520117	1.670846
0.520215	1.671253
0.520312	1.671642
0.520410	1.672096
0.520508	1.672552
0.520605	1.673092
0.520703	1.673617
0.520801	1.674074
0.520898	1.674569
0.520996	1.674946
0.521094	1.675298
0.521191	1.675685
0.521289	1.676063
0.521387	1.676326
0.521484	1.676770
0.521582	1.677137
0.521680	1.677679
0.521777	1.678300
0.521875	1.678855
0.521973	1.679613
0.522070	1.680397
0.522168	1.681187
0.522266	1.681903
0.522363	1.682705
0.522461	1.683495
0.522559	1.684290
0.522656	1.685035
0.522754	1.685766
0.522852	1.686568
0.522949	1.687305
0.523047	1.688054
0.523145	1.688727
0.523242	1.689229
0.523340	1.689584
0.523437	1.689837
0.523535	1.689824
0.523633	1.689609
0.523730	1.689020
0.523828	1.688075
0.523926	1.686987
0.524023	1.685838
0.524121	1.684919
0.524219	1.684235
0.524316	1.683781
0.524414	1.683653
0.524512	1.683740
0.524609	1.684112
0.524707	1.684633
0.524805	1.685518
0.524902	1.686549
0.525000	1.687886
0.525098	1.689264
0.525195	1.690934
0.525293	1.692644
0.525391	1.694496
0.525488	1.696465
0.525586	1.698211
0.525684	1.698946
0.525781	1.699533
0.525879	1.700177
0.525977	1.699164
0.526074	1.696934
0.526172	1.694447
0.526270	1.692445
0.526367	1.690732
0.526465	1.688801
0.526562	1.686579
0.526660	1.684558
0.526758	1.682747
0.526855	1.681338
0.526953	1.680201
0.527051	1.679595
0.527148	1.679229
0.527246	1.678988
0.527344	1.678894
0.527441	1.678813
0.527539	1.678817
0.527637	1.678989
0.527734	1.679315
0.527832	1.679942
0.527930	1.680608
0.528027	1.681414
0.528125	1.682666
0.528223	1.683927
0.528320	1.685444
0.528418	1.686743
0.528516	1.687918
0.528613	1.688445
0.528711	1.688448
0.528809	1.688443
0.528906	1.688490
0.529004	1.688448
0.529102	1.688782
0.529199	1.689384
0.529297	1.690122
0.529395	1.690857
0.529492	1.691263
0.529590	1.691658
0.529687	1.691989
0.529785	1.692076
0.529883	1.691433
0.529980	1.689942
0.530078	1.687825
0.530176	1.685843
0.530273	1.683887
0.530371	1.682071
0.530469	1.680400
0.530566	1.679298
0.530664	1.678912
0.530762	1.678903
0.530859	1.679354
0.530957	1.679845
0.531055	1.680486
0.531152	1.681114
0.531250	1.681804
0.531348	1.682609
0.531445	1.683513
0.531543	1.684428
0.531641	1.685146
0.531738	1.685677
0.531836	1.686186
0.531934	1.686599
0.532031	1.687179
0.532129	1.687673
0.532227	1.688504
0.532324	1.689569
0.532422	1.690577
0.532520	1.690889
0.532617	1.690330
0.532715	1.689318
0.532812	1.687872
0.532910	1.685948
0.533008	1.683453
0.533105	1.680792
0.533203	1.678369
0.533301	1.676419
0.533398	1.675157
0.533496	1.674199
0.533594	1.673563
0.533691	1.672909
0.533789	1.672276
0.533887	1.671585
0.533984	1.670960
0.534082	1.670480
0.534180	1.670021
0.534277	1.669581
0.534375	1.668895
0.534473	1.667988
0.534570	1.667034
0.534668	1.666296
0.534766	1.665503
0.534863	1.664783
0.534961	1.663775
0.535059	1.662747
0.535156	1.661691
0.535254	1.660774
0.535352	1.659782
0.535449	1.658799
0.535547	1.658015
0.535645	1.657269
0.535742	1.656666
0.535840	1.656124
0.535937	1.655524
0.536035	1.655219
0.536133	1.654814
0.536230	1.654732
0.536328	1.654635
0.536426	1.654755
0.536523	1.654870
0.536621	1.655192
0.536719	1.655486
0.536816	1.656067
0.536914	1.656547
0.537012	1.657087
0.537109	1.657750
0.537207	1.658431
0.537305	1.659211
0.537402	1.659951
0.537500	1.660810
0.537598	1.661621
0.537695	1.662437
0.537793	1.663250
0.537891	1.664045
0.537988	1.664698
0.538086	1.665481
0.538184	1.666189
0.538281	1.666775
0.538379	1.667290
0.538477	1.667711
0.538574	1.668059
0.538672	1.668454
0.538770	1.668825
0.538867	1.669308
0.538965	1.669798
0.539062	1.670360
0.539160	1.670975
0.539258	1.671731
0.539355	1.672469
0.539453	1.673277
0.539551	1.674078
0.539648	1.674970
0.539746	1.675840
0.539844	1.676715
0.539941	1.677729
0.540039	1.678631
0.540137	1.679623
0.540234	1.680596
0.540332	1.681601
0.540430	1.682524
0.540527	1.683489
0.540625	1.684458
0.540723	1.685349
0.540820	1.686234
0.540918	1.687076
0.541016	1.687823
0.541113	1.688700
0.541211	1.689371
0.541309	1.690030
0.541406	1.690611
0.541504	1.691047
0.541602	1.691601
0.541699	1.692178
0.541797	1.692603
0.541895	1.692987
0.541992	1.693408
0.542090	1.693665
0.542187	1.693800
0.542285	1.693755
0.542383	1.693609
0.542480	1.693357
0.542578	1.693001
0.542676	1.692666
0.542773	1.692314
0.542871	1.691904
0.542969	1.691354
0.543066	1.690612
0.543164	1.689982
0.543262	1.689225
0.543359	1.688612
0.543457	1.688205
0.543555	1.687844
0.543652	1.687678
0.543750	1.687632
0.543848	1.687776
0.543945	1.688007
0.544043	1.688280
0.544141	1.688662
0.544238	1.689201
0.544336	1.689564
0.544434	1.690003
0.544531	1.690045
0.544629	1.689993
0.544727	1.689769
0.544824	1.689160
0.544922	1.688410
0.545020	1.687282
0.545117	1.686203
0.545215	1.684813
0.545312	1.683611
0.545410	1.682244
0.545508	1.680907
0.545605	1.679636
0.545703	1.678427
0.545801	1.677280
0.545898	1.676172
0.545996	1.675193
0.546094	1.674393
0.546191	1.673635
0.546289	1.673107
0.546387	1.672563
0.546484	1.672213
0.546582	1.671906
0.546680	1.671762
0.546777	1.671592
0.546875	1.671580
0.546973	1.671473
0.547070	1.671470
0.547168	1.671441
0.547266	1.671308
0.547363	1.671117
0.547461	1.671065
0.547559	1.670739
0.547656	1.670431
0.547754	1.670021
0.547852	1.669599
0.547949	1.669254
0.548047	1.668727
0.548145	1.668668
0.548242	1.668510
0.548340	1.668446
0.548437	1.668320
0.548535	1.668277
0.548633	1.668308
0.548730	1.668295
0.548828	1.668335
0.548926	1.668358
0.549023	1.668439
0.549121	1.668535
0.549219	1.668502
0.549316	1.668594
0.549414	1.668712
0.549512	1.668782
0.549609	1.668784
0.549707	1.668931
0.549805	1.668925
0.549902	1.668989
0.550000	1.669025
0.550098	1.669169
0.550195	1.669275
0.550293	1.669385
0.550391	1.669466
0.550488	1.669619
0.550586	1.669793
0.550684	1.669826
0.550781	1.669954
0.550879	1.670035
0.550977	1.670179
0.551074	1.670252
0.551172	1.670399
0.551270	1.670562
0.551367	1.670734
0.551465	1.670897
0.551562	1.671202
0.551660	1.671487
0.551758	1.671760
0.551855	1.672035
0.551953	1.672324
0.552051	1.672552
0.552148	1.672824
0.552246	1.673052
0.552344	1.673417
0.552441	1.673713
0.552539	1.674092
0.552637	1.674266
0.552734	1.674614
0.552832	1.674963
0.552930	1.675248
0.553027	1.675434
0.553125	1.675688
0.553223	1.675933
0.553320	1.676013
0.553418	1.676066
0.553516	1.676082
0.553613	1.676098
0.553711	1.676005
0.553809	1.675885
0.553906	1.675871
0.554004	1.675865
0.554102	1.675870
0.554199	1.675955
0.554297	1.676118
0.554395	1.676353
0.554492	1.676720
0.554590	1.677087
0.554687	1.677571
0.554785	1.678121
0.554883	1.678648
0.554980	1.679168
0.555078	1.679758
0.555176	1.680132
0.555273	1.680484
0.555371	1.680794
0.555469	1.680842
0.555566	1.680836
0.555664	1.680774
0.555762	1.680661
0.555859	1.680566
0.555957	1.680614
0.556055	1.680520
0.556152	1.680627
0.556250	1.680794
0.556348	1.680977
0.556445	1.681226
0.556543	1.681562
0.556641	1.681893
0.556738	1.682129
0.556836	1.682293
0.556934	1.682466
0.557031	1.682615
0.557129	1.682507
0.557227	1.682506
0.557324	1.682336
0.557422	1.682252
0.557520	1.682024
0.557617	1.681744
0.557715	1.681407
0.557812	1.681151
0.557910	1.680678
0.558008	1.680360
0.558105	1.680174
0.558203	1.679990
0.558301	1.679812
0.558398	1.679626
0.558496	1.679461
0.558594	1.679250
0.558691	1.678968
0.558789	1.678718
0.558887	1.678171
0.558984	1.677881
0.559082	1.677317
0.559180	1.676798
0.559277	1.676265
0.559375	1.675735
0.559473	1.675200
0.559570	1.674664
0.559668	1.674235
0.559766	1.673927
0.559863	1.673505
0.559961	1.673188
0.560059	1.672897
0.560156	1.672576
0.560254	1.672177
0.560352	1.671809
0.560449	1.671346
0.560547	1.670921
0.560645	1.670403
0.560742	1.669906
0.560840	1.669476
0.560937	1.668990
0.561035	1.668636
0.561133	1.668273
0.561230	1.667979
0.561328	1.667710
0.561426	1.667516
0.561523	1.667245
0.561621	1.667073
0.561719	1.666876
0.561816	1.666819
0.561914	1.666570
0.562012	1.666451
0.562109	1.666367
0.562207	1.666287
0.562305	1.666255
0.562402	1.666216
0.562500	1.666260
0.562598	1.666306
0.562695	1.666535
0.562793	1.666782
0.562891	1.667121
0.562988	1.667527
0.563086	1.667924
0.563184	1.668388
0.563281	1.668713
0.563379	1.669275
0.563477	1.669707
0.563574	1.670238
0.563672	1.670645
0.563770	1.671095
0.563867	1.671515
0.563965	1.671923
0.564062	1.672453
0.564160	1.672927
0.564258	1.673430
0.564355	1.674097
0.564453	1.674738
0.564551	1.675515
0.564648	1.676322
0.564746	1.677169
0.564844	1.678120
0.564941	1.678913
0.565039	1.679933
0.565137	1.680735
0.565234	1.681568
0.565332	1.682185
0.565430	1.682854
0.565527	1.683428
0.565625	1.683875
0.565723	1.684238
0.565820	1.684543
0.565918	1.684885
0.566016	1.685114
0.566113	1.685193
0.566211	1.685203
0.566309	1.685146
0.566406	1.684994
0.566504	1.684700
0.566602	1.684314
0.566699	1.683770
0.566797	1.683154
0.566895	1.682538
0.566992	1.681945
0.567090	1.681460
0.567187	1.681038
0.567285	1.680707
0.567383	1.680516
0.567480	1.680411
0.567578	1.680336
0.567676	1.680389
0.567773	1.680483
0.567871	1.680495
0.567969	1.680729
0.568066	1.680784
0.568164	1.681048
0.568262	1.681330
0.568359	1.681594
0.568457	1.681944
0.568555	1.682351
0.568652	1.682608
0.568750	1.683021
0.568848	1.683365
0.568945	1.683733
0.569043	1.684162
0.569141	1.684365
0.569238	1.684575
0.569336	1.684847
0.569434	1.684930
0.569531	1.684973
0.569629	1.684970
0.569727	1.684932
0.569824	1.684942
0.569922	1.684921
0.570020	1.685015
0.570117	1.685103
0.570215	1.685442
0.570312	1.685704
0.570410	1.686118
0.570508	1.686507
0.570605	1.686806
0.570703	1.686994
0.570801	1.686958
0.570898	1.686587
0.570996	1.686035
0.571094	1.685509
0.571191	1.684675
0.571289	1.683415
0.571387	1.682022
0.571484	1.680445
0.571582	1.678953
0.571680	1.677239
0.571777	1.675376
0.571875	1.673385
0.571973	1.671691
0.572070	1.670154
0.572168	1.669069
0.572266	1.668173
0.572363	1.667286
0.572461	1.666645
0.572559	1.665977
0.572656	1.665629
0.572754	1.665208
0.572852	1.665047
0.572949	1.664998
0.573047	1.665124
0.573145	1.665333
0.573242	1.665664
0.573340	1.666121
0.573437	1.666545
0.573535	1.667067
0.573633	1.667673
0.573730	1.668139
0.573828	1.668607
0.573926	1.668886
0.574023	1.669197
0.574121	1.669498
0.574219	1.669714
0.574316	1.669862
0.574414	1.670077
0.574512	1.670276
0.574609	1.670462
0.574707	1.670733
0.574805	1.671001
0.574902	1.671413
0.575000	1.671763
0.575098	1.672283
0.575195	1.672527
0.575293	1.672968
0.575391	1.673321
0.575488	1.673678
0.575586	1.674114
0.575684	1.674429
0.575781	1.674792
0.575879	1.675034
0.575977	1.675412
0.576074	1.675649
0.576172	1.675822
0.576270	1.676121
0.576367	1.676229
0.576465	1.676248
0.576562	1.676226
0.576660	1.676170
0.576758	1.676204
0.576855	1.676186
0.576953	1.676160
0.577051	1.676198
0.577148	1.676307
0.577246	1.676357
0.577344	1.676601
0.577441	1.676835
0.577539	1.677081
0.577637	1.677355
0.577734	1.677563
0.577832	1.677873
0.577930	1.678040
0.578027	1.678225
0.578125	1.678554
0.578223	1.678827
0.578320	1.679007
0.578418	1.679254
0.578516	1.679432
0.578613	1.679594
0.578711	1.679658
0.578809	1.679829
0.578906	1.679765
0.579004	1.679908
0.579102	1.679867
0.579199	1.679988
0.579297	1.680126
0.579395	1.680343
0.579492	1.680460
0.579590	1.680769
0.579687	1.681132
0.579785	1.681398
0.579883	1.681828
0.579980	1.682295
0.580078	1.682742
0.580176	1.683380
0.580273	1.683952
0.580371	1.684666
0.580469	1.685313
0.580566	1.686040
0.580664	1.686813
0.580762	1.687484
0.580859	1.688269
0.580957	1.688797
0.581055	1.689392
0.581152	1.689874
0.581250	1.690148
0.581348	1.690518
0.581445	1.690823
0.581543	1.691076
0.581641	1.691305
0.581738	1.691560
0.581836	1.691701
0.581934	1.691801
0.582031	1.691789
0.582129	1.691660
0.582227	1.691563
0.582324	1.691386
0.582422	1.691341
0.582520	1.691411
0.582617	1.691518
0.582715	1.691639
0.582812	1.691868
0.582910	1.692125
0.583008	1.692407
0.583105	1.692799
0.583203	1.693173
0.583301	1.693595
0.583398	1.693987
0.583496	1.694374
0.583594	1.694504
0.583691	1.694639
0.583789	1.694561
0.583887	1.694521
0.583984	1.694275
0.584082	1.693829
0.584180	1.693316
0.584277	1.692578
0.584375	1.691868
0.584473	1.690999
0.584570	1.690333
0.584668	1.689559
0.584766	1.688946
0.584863	1.688483
0.584961	1.688202
0.585059	1.688035
0.585156	1.687929
0.585254	1.687830
0.585352	1.687753
0.585449	1.687652
0.585547	1.687551
0.585645	1.687520
0.585742	1.687465
0.585840	1.687444
0.585937	1.687438
0.586035	1.687450
0.586133	1.687550
0.586230	1.687524
0.586328	1.687558
0.586426	1.687376
0.586523	1.687268
0.586621	1.687030
0.586719	1.686773
0.586816	1.686227
0.586914	1.685813
0.587012	1.685231
0.587109	1.684712
0.587207	1.684212
0.587305	1.683728
0.587402	1.683268
0.587500	1.682829
0.587598	1.682492
0.587695	1.682028
0.587793	1.681535
0.587891	1.681087
0.587988	1.680422
0.588086	1.679750
0.588184	1.679303
0.588281	1.678533
0.588379	1.677796
0.588477	1.676850
0.588574	1.676024
0.588672	1.675096
0.588770	1.674163
0.588867	1.673260
0.588965	1.672323
0.589062	1.671552
0.589160	1.670459
0.589258	1.669598
0.589355	1.668841
0.589453	1.667984
0.589551	1.667274
0.589648	1.666651
0.589746	1.666025
0.589844	1.665618
0.589941	1.665188
0.590039	1.664757
0.590137	1.664500
0.590234	1.664212
0.590332	1.663908
0.590430	1.663615
0.590527	1.663402
0.590625	1.663309
0.590723	1.663104
0.590820	1.663030
0.590918	1.662919
0.591016	1.662955
0.591113	1.663024
0.591211	1.663048
0.591309	1.663040
0.591406	1.663186
0.591504	1.663322
0.591602	1.663444
0.591699	1.663691
0.591797	1.663799
0.591895	1.664086
0.591992	1.664313
0.592090	1.664702
0.592187	1.665115
0.592285	1.665550
0.592383	1.666096
0.592480	1.666602
0.592578	1.667147
0.592676	1.667794
0.592773	1.668360
0.592871	1.668931
0.592969	1.669482
0.593066	1.670140
0.593164	1.670747
0.593262	1.671493
0.593359	1.672199
0.593457	1.673043
0.593555	1.673943
0.593652	1.674944
0.593750	1.675940
0.593848	1.677141
0.593945	1.678321
0.594043	1.679612
0.594141	1.680765
0.594238	1.681900
0.594336	1.682908
0.594434	1.683745
0.594531	1.684382
0.594629	1.684721
0.594727	1.684833
0.594824	1.684707
0.594922	1.684379
0.595020	1.684147
0.595117	1.683927
0.595215	1.683729
0.595312	1.683665
0.595410	1.683710
0.595508	1.683788
0.595605	1.684122
0.595703	1.684572
0.595801	1.685096
0.595898	1.685763
0.595996	1.686566
0.596094	1.687422
0.596191	1.688378
0.596289	1.689410
0.596387	1.690500
0.596484	1.691629
0.596582	1.692888
0.596680	1.694151
0.596777	1.695296
0.596875	1.696476
0.596973	1.697506
0.597070	1.698370
0.597168	1.699181
0.597266	1.699931
0.597363	1.700739
0.597461	1.701354
0.597559	1.701816
0.597656	1.702152
0.597754	1.702278
0.597852	1.702080
0.597949	1.701664
0.598047	1.701224
0.598145	1.700819
0.598242	1.700358
0.598340	1.699643
0.598437	1.698953
0.598535	1.698192
0.598633	1.697389
0.598730	1.696713
0.598828	1.696034
0.598926	1.695329
0.599023	1.694339
0.599121	1.693428
0.599219	1.692601
0.599316	1.691945
0.599414	1.691258
0.599512	1.690621
0.599609	1.689587
0.599707	1.688503
0.599805	1.687426
0.599902	1.686620
0.600000	1.686108
0.600098	1.685837
0.600195	1.686074
0.600293	1.686409
0.600391	1.686879
0.600488	1.687394
0.600586	1.687725
0.600684	1.687819
0.600781	1.687612
0.600879	1.686976
0.600977	1.686314
0.601074	1.685447
0.601172	1.684439
0.601270	1.683351
0.601367	1.682333
0.601465	1.681462
0.601562	1.680537
0.601660	1.679644
0.601758	1.678909
0.601855	1.678132
0.601953	1.677344
0.602051	1.676779
0.602148	1.676342
0.602246	1.676110
0.602344	1.675962
0.602441	1.675832
0.602539	1.675841
0.602637	1.675768
0.602734	1.675616
0.602832	1.675356
0.602930	1.674910
0.603027	1.674324
0.603125	1.673784
0.603223	1.673292
0.603320	1.672759
0.603418	1.672237
0.603516	1.671818
0.603613	1.671403
0.603711	1.671024
0.603809	1.670765
0.603906	1.670457
0.604004	1.670244
0.604102	1.670204
0.604199	1.670094
0.604297	1.670032
0.604395	1.670074
0.604492	1.670108
0.604590	1.670039
0.604687	1.670061
0.604785	1.669835
0.604883	1.669606
0.604980	1.669341
0.605078	1.669003
0.605176	1.668603
0.605273	1.668110
0.605371	1.667593
0.605469	1.667009
0.605566	1.666266
0.605664	1.665387
0.605762	1.664640
0.605859	1.663912
0.605957	1.663237
0.606055	1.662682
0.606152	1.662331
0.606250	1.661994
0.606348	1.661668
0.606445	1.661543
0.606543	1.661293
0.606641	1.661121
0.606738	1.661046
0.606836	1.660947
0.606934	1.660927
0.607031	1.660883
0.607129	1.660838
0.607227	1.660922
0.607324	1.660784
0.607422	1.660922
0.607520	1.660873
0.607617	1.660929
0.607715	1.660980
0.607812	1.661088
0.607910	1.661080
0.608008	1.661038
0.608105	1.661234
0.608203	1.661296
0.608301	1.661506
0.608398	1.661504
0.608496	1.661534
0.608594	1.661639
0.608691	1.661695
0.608789	1.661850
0.608887	1.661876
0.608984	1.662028
0.609082	1.662291
0.609180	1.662470
0.609277	1.662699
0.609375	1.662954
0.609473	1.663277
0.609570	1.663563
0.609668	1.663758
0.609766	1.664222
0.609863	1.664552
0.609961	1.664962
0.610059	1.665556
0.610156	1.666099
0.610254	1.666872
0.610352	1.667584
0.610449	1.668511
0.610547	1.669476
0.610645	1.670678
0.610742	1.671816
0.610840	1.673136
0.610937	1.674293
0.611035	1.675523
0.611133	1.676644
0.611230	1.677700
0.611328	1.678517
0.611426	1.679296
0.611523	1.679780
0.611621	1.680345
0.611719	1.680876
0.611816	1.681383
0.611914	1.681962
0.612012	1.682686
0.612109	1.683439
0.612207	1.684329
0.612305	1.685081
0.612402	1.685977
0.612500	1.686681
0.612598	1.687262
0.612695	1.687745
0.612793	1.688280
0.612891	1.688725
0.612988	1.689159
0.613086	1.689816
0.613184	1.690484
0.613281	1.691270
0.613379	1.692054
0.613477	1.692969
0.613574	1.693890
0.613672	1.694668
0.613770	1.695444
0.613867	1.695876
0.613965	1.696194
0.614062	1.696265
0.614160	1.696321
0.614258	1.696412
0.614355	1.696539
0.614453	1.696451
0.614551	1.696055
0.614648	1.695612
0.614746	1.694752
0.614844	1.693869
0.614941	1.692838
0.615039	1.691738
0.615137	1.690219
0.615234	1.689022
0.615332	1.687838
0.615430	1.686490
0.615527	1.685052
0.615625	1.683537
0.615723	1.681931
0.615820	1.680276
0.615918	1.678598
0.616016	1.676982
0.616113	1.675463
0.616211	1.674157
0.616309	1.673025
0.616406	1.672211
0.616504	1.671651
0.616602	1.671153
0.616699	1.670806
0.616797	1.670653
0.616895	1.670612
0.616992	1.670586
0.617090	1.670742
0.617187	1.670733
0.617285	1.670860
0.617383	1.670957
0.617480	1.671069
0.617578	1.671224
0.617676	1.671222
0.617773	1.671332
0.617871	1.671453
0.617969	1.671465
0.618066	1.671639
0.618164	1.671981
0.618262	1.672312
0.618359	1.672666
0.618457	1.673036
0.618555	1.673469
0.618652	1.673940
0.618750	1.674370
0.618848	1.674844
0.618945	1.675055
0.619043	1.675261
0.619141	1.675397
0.619238	1.675573
0.619336	1.675831
0.619434	1.675970
0.619531	1.676279
0.619629	1.676583
0.619727	1.676848
0.619824	1.677108
0.619922	1.677629
0.620020	1.677829
0.620117	1.678088
0.620215	1.678383
0.620312	1.678421
0.620410	1.678566
0.620508	1.678650
0.620605	1.678671
0.620703	1.678644
0.620801	1.678683
0.620898	1.678525
0.620996	1.678260
0.621094	1.678043
0.621191	1.677654
0.621289	1.677125
0.621387	1.676644
0.621484	1.676010
0.621582	1.675485
0.621680	1.674861
0.621777	1.674294
0.621875	1.673624
0.621973	1.673140
0.622070	1.672638
0.622168	1.672181
0.622266	1.671825
0.622363	1.671467
0.622461	1.671139
0.622559	1.671002
0.622656	1.670855
0.622754	1.670800
0.622852	1.670766
0.622949	1.670682
0.623047	1.670592
0.623145	1.670611
0.623242	1.670585
0.623340	1.670600
0.623437	1.670817
0.623535	1.670961
0.623633	1.671348
0.623730	1.671569
0.623828	1.672039
0.623926	1.672484
0.624023	1.672907
0.624121	1.673405
0.624219	1.673852
0.624316	1.674226
0.624414	1.674697
0.624512	1.675121
0.624609	1.675614
0.624707	1.676000
0.624805	1.676509
0.624902	1.677038
0.625000	1.677474
0.625098	1.677889
0.625195	1.678211
0.625293	1.678556
0.625391	1.678775
0.625488	1.679047
0.625586	1.679255
0.625684	1.679370
0.625781	1.679463
0.625879	1.679567
0.625977	1.679722
0.626074	1.679775
0.626172	1.680052
0.626270	1.680254
0.626367	1.680730
0.626465	1.681120
0.626562	1.681487
0.626660	1.681948
0.626758	1.682325
0.626855	1.682764
0.626953	1.683080
0.627051	1.683355
0.627148	1.683501
0.627246	1.683539
0.627344	1.683501
0.627441	1.683370
0.627539	1.683180
0.627637	1.682891
0.627734	1.682637
0.627832	1.682410
0.627930	1.682097
0.628027	1.681813
0.628125	1.681632
0.628223	1.681446
0.628320	1.681250
0.628418	1.680943
0.628516	1.680621
0.628613	1.680369
0.628711	1.680273
0.628809	1.680065
0.628906	1.679983
0.629004	1.679787
0.629102	1.679889
0.629199	1.679821
0.629297	1.679803
0.629395	1.679759
0.629492	1.679775
0.629590	1.679799
0.629687	1.679733
0.629785	1.679647
0.629883	1.679540
0.629980	1.679440
0.630078	1.679277
0.630176	1.679229
0.630273	1.679095
0.630371	1.678964
0.630469	1.678835
0.630566	1.678704
0.630664	1.678477
0.630762	1.678387
0.630859	1.678189
0.630957	1.677937
0.631055	1.677791
0.631152	1.677607
0.631250	1.677432
0.631348	1.677239
0.631445	1.677167
0.631543	1.676997
0.631641	1.676926
0.631738	1.676904
0.631836	1.676975
0.631934	1.676928
0.632031	1.676959
0.632129	1.677055
0.632227	1.677137
0.632324	1.677237
0.632422	1.677379
0.632520	1.677584
0.632617	1.677679
0.632715	1.677781
0.632812	1.678056
0.632910	1.678263
0.633008	1.678541
0.633105	1.678662
0.633203	1.678871
0.633301	1.679127
0.633398	1.679274
0.633496	1.679472
0.633594	1.679538
0.633691	1.679597
0.633789	1.679565
0.633887	1.679577
0.633984	1.679531
0.634082	1.679552
0.634180	1.679590
0.634277	1.679701
0.634375	1.679762
0.634473	1.679964
0.634570	1.680231
0.634668	1.680550
0.634766	1.680794
0.634863	1.681217
0.634961	1.681658
0.635059	1.682034
0.635156	1.682442
0.635254	1.682996
0.635352	1.683472
0.635449	1.683982
0.635547	1.684492
0.635645	1.685069
0.635742	1.685579
0.635840	1.686001
0.635937	1.686276
0.636035	1.686550
0.636133	1.686637
0.636230	1.686726
0.636328	1.686632
0.636426	1.686413
0.636523	1.686059
0.636621	1.685651
0.636719	1.685215
0.636816	1.684832
0.636914	1.684363
0.637012	1.683950
0.637109	1.683578
0.637207	1.683081
0.637305	1.682571
0.637402	1.682248
0.637500	1.681902
0.637598	1.681507
0.637695	1.681298
0.637793	1.681093
0.637891	1.681040
0.637988	1.681089
0.638086	1.681286
0.638184	1.681720
0.638281	1.682042
0.638379	1.682505
0.638477	1.682867
0.638574	1.683286
0.638672	1.683726
0.638770	1.684187
0.638867	1.684562
0.638965	1.684877
0.639062	1.685112
0.639160	1.685310
0.639258	1.685276
0.639355	1.685204
0.639453	1.685273
0.639551	1.685371
0.639648	1.685441
0.639746	1.685541
0.639844	1.685892
0.639941	1.686411
0.640039	1.686834
0.640137	1.687343
0.640234	1.687875
0.640332	1.688492
0.640430	1.688945
0.640527	1.689507
0.640625	1.689973
0.640723	1.690344
0.640820	1.690783
0.640918	1.690875
0.641016	1.690935
0.641113	1.690806
0.641211	1.690707
0.641309	1.690511
0.641406	1.690320
0.641504	1.690101
0.641602	1.689901
0.641699	1.689568
0.641797	1.689204
0.641895	1.688797
0.641992	1.688265
0.642090	1.687650
0.642187	1.686721
0.642285	1.685651
0.642383	1.684446
0.642480	1.683226
0.642578	1.682086
0.642676	1.680940
0.642773	1.680063
0.642871	1.679122
0.642969	1.678208
0.643066	1.677257
0.643164	1.676322
0.643262	1.675453
0.643359	1.674598
0.643457	1.673784
0.643555	1.672967
0.643652	1.672107
0.643750	1.671385
0.643848	1.670611
0.643945	1.669925
0.644043	1.669234
0.644141	1.668640
0.644238	1.668098
0.644336	1.667739
0.644434	1.667373
0.644531	1.667197
0.644629	1.667100
0.644727	1.666965
0.644824	1.666932
0.644922	1.666856
0.645020	1.666846
0.645117	1.666782
0.645215	1.666814
0.645312	1.666714
0.645410	1.666626
0.645508	1.666597
0.645605	1.666624
0.645703	1.666577
0.645801	1.666512
0.645898	1.666617
0.645996	1.666649
0.646094	1.666717
0.646191	1.666957
0.646289	1.667139
0.646387	1.667130
0.646484	1.667060
0.646582	1.666935
0.646680	1.666674
0.646777	1.666614
0.646875	1.666367
0.646973	1.666376
0.647070	1.666339
0.647168	1.666453
0.647266	1.666613
0.647363	1.666897
0.647461	1.667189
0.647559	1.667534
0.647656	1.667985
0.647754	1.668483
0.647852	1.668951
0.647949	1.669304
0.648047	1.669834
0.648145	1.670392
0.648242	1.670999
0.648340	1.671497
0.648437	1.672113
0.648535	1.672680
0.648633	1.673333
0.648730	1.673985
0.648828	1.674824
0.648926	1.675507
0.649023	1.676381
0.649121	1.677078
0.649219	1.677939
0.649316	1.678879
0.649414	1.679719
0.649512	1.680630
0.649609	1.681540
0.649707	1.682446
0.649805	1.683250
0.649902	1.683939
0.650000	1.684578
0.650098	1.685031
0.650195	1.685501
0.650293	1.685852
0.650391	1.686111
0.650488	1.686244
0.650586	1.686365
0.650684	1.686344
0.650781	1.686304
0.650879	1.686209
0.650977	1.686169
0.651074	1.685998
0.651172	1.685784
0.651270	1.685279
0.651367	1.684640
0.651465	1.683867
0.651562	1.682787
0.651660	1.681901
0.651758	1.681066
0.651855	1.680471
0.651953	1.680048
0.652051	1.679925
0.652148	1.679911
0.652246	1.680026
0.652344	1.680171
0.652441	1.680390
0.652539	1.680669
0.652637	1.680851
0.652734	1.681071
0.652832	1.681098
0.652930	1.681300
0.653027	1.681359
0.653125	1.681403
0.653223	1.681319
0.653320	1.681326
0.653418	1.681294
0.653516	1.681265
0.653613	1.681345
0.653711	1.681384
0.653809	1.681466
0.653906	1.681531
0.654004	1.681545
0.654102	1.681738
0.654199	1.681853
0.654297	1.682048
0.654395	1.682100
0.654492	1.682296
0.654590	1.682474
0.654687	1.682613
0.654785	1.682698
0.654883	1.682725
0.654980	1.682662
0.655078	1.682659
0.655176	1.682598
0.655273	1.682649
0.655371	1.682673
0.655469	1.682927
0.655566	1.683399
0.655664	1.683891
0.655762	1.684537
0.655859	1.685200
0.655957	1.685848
0.656055	1.686405
0.656152	1.686801
0.656250	1.687197
0.656348	1.687450
0.656445	1.687770
0.656543	1.687793
0.656641	1.687943
0.656738	1.688027
0.656836	1.688273
0.656934	1.688377
0.657031	1.688526
0.657129	1.688634
0.657227	1.688663
0.657324	1.688531
0.657422	1.688337
0.657520	1.688024
0.657617	1.687617
0.657715	1.687155
0.657812	1.686559
0.657910	1.686072
0.658008	1.685420
0.658105	1.685017
0.658203	1.684603
0.658301	1.684153
0.658398	1.683764
0.658496	1.683342
0.658594	1.682985
0.658691	1.682624
0.658789	1.682300
0.658887	1.682048
0.658984	1.681690
0.659082	1.681454
0.659180	1.681070
0.659277	1.680960
0.659375	1.680609
0.659473	1.680590
0.659570	1.680415
0.659668	1.680390
0.659766	1.680367
0.659863	1.680459
0.659961	1.680524
0.660059	1.680441
0.660156	1.680400
0.660254	1.680073
0.660352	1.679797
0.660449	1.679431
0.660547	1.679044
0.660645	1.678718
0.660742	1.678565
0.660840	1.678380
0.660937	1.678462
0.661035	1.678513
0.661133	1.678728
0.661230	1.678816
0.661328	1.679001
0.661426	1.679170
0.661523	1.679246
0.661621	1.679232
0.661719	1.679215
0.661816	1.679085
0.661914	1.678867
0.662012	1.678825
0.662109	1.678679
0.662207	1.678622
0.662305	1.678657
0.662402	1.678709
0.662500	1.678743
0.662598	1.678828
0.662695	1.678997
0.662793	1.679130
0.662891	1.679246
0.662988	1.679246
0.663086	1.679298
0.663184	1.679350
0.663281	1.679168
0.663379	1.679085
0.663477	1.678973
0.663574	1.678870
0.663672	1.678762
0.663770	1.678749
0.663867	1.678815
0.663965	1.678864
0.664062	1.678942
0.664160	1.679122
0.664258	1.679237
0.664355	1.679544
0.664453	1.679732
0.664551	1.680087
0.664648	1.680434
0.664746	1.680850
0.664844	1.681132
0.664941	1.681630
0.665039	1.681994
0.665137	1.682323
0.665234	1.682579
0.665332	1.682846
0.665430	1.683022
0.665527	1.683264
0.665625	1.683210
0.665723	1.683186
0.665820	1.682886
0.665918	1.682417
0.666016	1.681895
0.666113	1.681372
0.666211	1.680889
0.666309	1.680429
0.666406	1.680059
0.666504	1.679641
0.666602	1.679386
0.666699	1.679173
0.666797	1.679071
0.666895	1.678916
0.666992	1.678848
0.667090	1.678781
0.667187	1.678695
0.667285	1.678677
0.667383	1.678579
0.667480	1.678512
0.667578	1.678390
0.667676	1.678263
0.667773	1.678040
0.667871	1.677847
0.667969	1.677394
0.668066	1.677057
0.668164	1.676669
0.668262	1.676282
0.668359	1.675818
0.668457	1.675264
0.668555	1.674924
0.668652	1.674329
0.668750	1.673884
0.668848	1.673389
0.668945	1.672849
0.669043	1.672376
0.669141	1.671804
0.669238	1.671208
0.669336	1.670749
0.669434	1.670095
0.669531	1.669560
0.669629	1.669194
0.669727	1.668605
0.669824	1.668292
0.669922	1.667874
0.670020	1.667591
0.670117	1.667361
0.670215	1.667212
0.670312	1.667076
0.670410	1.666955
0.670508	1.667009
0.670605	1.666988
0.670703	1.666948
0.670801	1.666998
0.670898	1.666947
0.670996	1.667048
0.671094	1.667081
0.671191	1.667210
0.671289	1.667251
0.671387	1.667304
0.671484	1.667408
0.671582	1.667483
0.671680	1.667656
0.671777	1.667691
0.671875	1.667796
0.671973	1.667876
0.672070	1.667956
0.672168	1.668070
0.672266	1.668256
0.672363	1.668391
0.672461	1.668570
0.672559	1.668861
0.672656	1.669120
0.672754	1.669398
0.672852	1.669762
0.672949	1.670255
0.673047	1.670630
0.673145	1.671085
0.673242	1.671389
0.673340	1.671749
0.673437	1.672018
0.673535	1.672125
0.673633	1.672350
0.673730	1.672440
0.673828	1.672583
0.673926	1.672778
0.674023	1.672863
0.674121	1.673184
0.674219	1.673410
0.674316	1.673734
0.674414	1.674110
0.674512	1.674611
0.674609	1.675113
0.674707	1.675843
0.674805	1.676581
0.674902	1.677365
0.675000	1.678259
0.675098	1.679147
0.675195	1.680204
0.675293	1.681225
0.675391	1.682283
0.675488	1.683460
0.675586	1.684653
0.675684	1.685704
0.675781	1.686884
0.675879	1.687911
0.675977	1.688897
0.676074	1.689794
0.676172	1.690672
0.676270	1.691394
0.676367	1.692173
0.676465	1.692768
0.676562	1.693201
0.676660	1.693438
0.676758	1.693404
0.676855	1.693015
0.676953	1.692697
0.677051	1.692237
0.677148	1.691772
0.677246	1.691245
0.677344	1.690695
0.677441	1.690169
0.677539	1.689383
0.677637	1.688573
0.677734	1.687556
0.677832	1.686184
0.677930	1.684791
0.678027	1.683586
0.678125	1.682858
0.678223	1.682492
0.678320	1.682416
0.678418	1.682446
0.678516	1.682628
0.678613	1.682796
0.678711	1.682959
0.678809	1.683018
0.678906	1.683023
0.679004	1.682817
0.679102	1.682469
0.679199	1.681785
0.679297	1.680852
0.679395	1.679702
0.679492	1.678394
0.679590	1.676977
0.679687	1.675473
0.679785	1.673973
0.679883	1.672546
0.679980	1.671193
0.680078	1.669922
0.680176	1.668744
0.680273	1.667713
0.680371	1.666810
0.680469	1.666078
0.680566	1.665647
0.680664	1.665335
0.680762	1.665131
0.680859	1.665024
0.680957	1.664989
0.681055	1.665036
0.681152	1.665115
0.681250	1.665183
0.681348	1.665359
0.681445	1.665429
0.681543	1.665843
0.681641	1.666049
0.681738	1.666390
0.681836	1.666906
0.681934	1.667334
0.682031	1.667865
0.682129	1.668551
0.682227	1.669239
0.682324	1.670032
0.682422	1.670697
0.682520	1.671383
0.682617	1.672070
0.682715	1.672669
0.682812	1.673285
0.682910	1.673886
0.683008	1.674461
0.683105	1.675054
0.683203	1.675676
0.683301	1.676171
0.683398	1.676763
0.683496	1.677385
0.683594	1.677680
0.683691	1.678045
0.683789	1.678193
0.683887	1.678222
0.683984	1.678128
0.684082	1.677948
0.684180	1.677613
0.684277	1.677158
0.684375	1.676674
0.684473	1.676115
0.684570	1.675603
0.684668	1.675017
0.684766	1.674487
0.684863	1.674016
0.684961	1.673532
0.685059	1.673073
0.685156	1.672508
0.685254	1.671965
0.685352	1.671365
0.685449	1.670767
0.685547	1.670019
0.685645	1.669390
0.685742	1.668662
0.685840	1.667935
0.685937	1.667200
0.686035	1.666597
0.686133	1.665934
0.686230	1.665537
0.686328	1.665146
0.686426	1.664810
0.686523	1.664620
0.686621	1.664482
0.686719	1.664395
0.686816	1.664303
0.686914	1.664472
0.687012	1.664598
0.687109	1.664879
0.687207	1.665049
0.687305	1.665419
0.687402	1.665795
0.687500	1.666171
0.687598	1.666559
0.687695	1.666971
0.687793	1.667286
0.687891	1.667622
0.687988	1.667928
0.688086	1.668314
0.688184	1.668834
0.688281	1.669187
0.688379	1.669650
0.688477	1.670130
0.688574	1.670526
0.688672	1.671007
0.688770	1.671494
0.688867	1.672044
0.688965	1.672541
0.689062	1.673122
0.689160	1.673720
0.689258	1.674246
0.689355	1.674717
0.689453	1.675348
0.689551	1.675883
0.689648	1.676477
0.689746	1.677035
0.689844	1.677449
0.689941	1.677792
0.690039	1.678082
0.690137	1.678325
0.690234	1.678447
0.690332	1.678502
0.690430	1.678676
0.690527	1.678679
0.690625	1.678627
0.690723	1.678428
0.690820	1.678119
0.690918	1.677825
0.691016	1.677387
0.691113	1.676969
0.691211	1.676506
0.691309	1.676037
0.691406	1.675506
0.691504	1.674983
0.691602	1.674564
0.691699	1.674156
0.691797	1.673809
0.691895	1.673488
0.691992	1.673262
0.692090	1.673066
0.692187	1.672995
0.692285	1.673006
0.692383	1.673036
0.692480	1.673145
0.692578	1.673274
0.692676	1.673255
0.692773	1.673447
0.692871	1.673566
0.692969	1.673734
0.693066	1.673815
0.693164	1.673973
0.693262	1.674064
0.693359	1.674080
0.693457	1.674214
0.693555	1.674161
0.693652	1.674071
0.693750	1.674015
0.693848	1.673973
0.693945	1.673841
0.694043	1.673792
0.694141	1.673658
0.694238	1.673573
0.694336	1.673526
0.694434	1.673364
0.694531	1.673327
0.694629	1.673300
0.694727	1.673331
0.694824	1.673385
0.694922	1.673562
0.695020	1.673717
0.695117	1.673851
0.695215	1.674036
0.695312	1.674143
0.695410	1.674359
0.695508	1.674550
0.695605	1.674856
0.695703	1.675136
0.695801	1.675409
0.695898	1.675812
0.695996	1.676184
0.696094	1.676638
0.696191	1.677045
0.696289	1.677557
0.696387	1.678054
0.696484	1.678374
0.696582	1.678771
0.696680	1.679018
0.696777	1.679209
0.696875	1.679431
0.696973	1.679419
0.697070	1.679517
0.697168	1.679520
0.697266	1.679478
0.697363	1.679252
0.697461	1.679056
0.697559	1.678964
0.697656	1.678833
0.697754	1.678774
0.697852	1.678648
0.697949	1.678571
0.698047	1.678643
0.698145	1.678755
0.698242	1.678777
0.698340	1.678794
0.698437	1.678884
0.698535	1.678981
0.698633	1.678905
0.698730	1.678959
0.698828	1.678933
0.698926	1.678872
0.699023	1.678672
0.699121	1.678435
0.699219	1.678170
0.699316	1.677847
0.699414	1.677630
0.699512	1.677255
0.699609	1.676932
0.699707	1.676630
0.699805	1.676375
0.699902	1.676143
0.700000	1.675825
0.700098	1.675524
0.700195	1.675235
0.700293	1.674936
0.700391	1.674578
0.700488	1.674116
0.700586	1.673765
0.700684	1.673190
0.700781	1.672655
0.700879	1.672010
0.700977	1.671576
0.701074	1.670927
0.701172	1.670447
0.701270	1.670021
0.701367	1.669669
0.701465	1.669354
0.701562	1.669123
0.701660	1.668947
0.701758	1.668934
0.701855	1.668936
0.701953	1.668972
0.702051	1.669052
0.702148	1.669176
0.702246	1.669295
0.702344	1.669536
0.702441	1.669681
0.702539	1.669958
0.702637	1.670203
0.702734	1.670561
0.702832	1.671006
0.702930	1.671426
0.703027	1.671865
0.703125	1.672402
0.703223	1.672930
0.703320	1.673435
0.703418	1.673887
0.703516	1.674395
0.703613	1.674778
0.703711	1.675281
0.703809	1.675592
0.703906	1.675934
0.704004	1.676356
0.704102	1.676705
0.704199	1.677143
0.704297	1.677598
0.704395	1.678114
0.704492	1.678627
0.704590	1.679346
0.704687	1.680046
0.704785	1.680805
0.704883	1.681590
0.704980	1.682456
0.705078	1.683350
0.705176	1.684225
0.705273	1.685359
0.705371	1.686515
0.705469	1.687754
0.705566	1.689077
0.705664	1.690245
0.705762	1.691322
0.705859	1.692226
0.705957	1.692497
0.706055	1.692241
0.706152	1.691516
0.706250	1.690695
0.706348	1.689937
0.706445	1.689185
0.706543	1.688454
0.706641	1.687905
0.706738	1.687582
0.706836	1.687377
0.706934	1.687518
0.707031	1.687697
0.707129	1.687834
0.707227	1.687842
0.707324	1.687806
0.707422	1.687492
0.707520	1.687170
0.707617	1.686687
0.707715	1.686231
0.707812	1.685665
0.707910	1.685112
0.708008	1.684673
0.708105	1.684364
0.708203	1.684135
0.708301	1.684006
0.708398	1.683737
0.708496	1.683600
0.708594	1.683366
0.708691	1.683052
0.708789	1.682647
0.708887	1.682194
0.708984	1.681386
0.709082	1.680874
0.709180	1.680057
0.709277	1.679573
0.709375	1.679022
0.709473	1.678711
0.709570	1.678493
0.709668	1.678445
0.709766	1.678462
0.709863	1.678585
0.709961	1.678805
0.710059	1.679068
0.710156	1.679572
0.710254	1.680021
0.710352	1.680729
0.710449	1.681146
0.710547	1.681711
0.710645	1.682082
0.710742	1.682402
0.710840	1.682465
0.710937	1.682380
0.711035	1.682234
0.711133	1.681746
0.711230	1.681319
0.711328	1.680683
0.711426	1.680007
0.711523	1.679190
0.711621	1.678437
0.711719	1.677522
0.711816	1.676727
0.711914	1.675916
0.712012	1.675240
0.712109	1.674502
0.712207	1.674022
0.712305	1.673495
0.712402	1.673235
0.712500	1.673001
0.712598	1.672817
0.712695	1.672832
0.712793	1.672901
0.712891	1.673018
0.712988	1.673117
0.713086	1.673472
0.713184	1.673649
0.713281	1.673986
0.713379	1.674230
0.713477	1.674462
0.713574	1.674723
0.713672	1.674910
0.713770	1.674893
0.713867	1.674806
0.713965	1.674634
0.714062	1.674365
0.714160	1.674277
0.714258	1.674255
0.714355	1.674308
0.714453	1.674444
0.714551	1.674689
0.714648	1.674944
0.714746	1.675410
0.714844	1.675888
0.714941	1.676526
0.715039	1.677123
0.715137	1.677622
0.715234	1.678219
0.715332	1.678603
0.715430	1.678988
0.715527	1.679475
0.715625	1.679753
0.715723	1.680146
0.715820	1.680407
0.715918	1.680672
0.716016	1.680813
0.716113	1.680991
0.716211	1.681250
0.716309	1.681447
0.716406	1.681690
0.716504	1.681847
0.716602	1.682099
0.716699	1.682247
0.716797	1.682428
0.716895	1.682657
0.716992	1.682992
0.717090	1.683374
0.717187	1.683814
0.717285	1.684367
0.717383	1.684860
0.717480	1.685359
0.717578	1.685797
0.717676	1.686172
0.717773	1.686546
0.717871	1.686891
0.717969	1.687116
0.718066	1.687480
0.718164	1.687510
0.718262	1.687385
0.718359	1.687111
0.718457	1.686708
0.718555	1.686410
0.718652	1.685899
0.718750	1.685569
0.718848	1.685237
0.718945	1.684968
0.719043	1.684697
0.719141	1.684282
0.719238	1.683930
0.719336	1.683377
0.719434	1.682903
0.719531	1.682195
0.719629	1.681707
0.719727	1.681084
0.719824	1.680698
0.719922	1.680433
0.720020	1.680087
0.720117	1.680000
0.720215	1.679841
0.720312	1.679848
0.720410	1.679850
0.720508	1.679866
0.720605	1.679946
0.720703	1.680070
0.720801	1.680254
0.720898	1.680419
0.720996	1.680624
0.721094	1.680903
0.721191	1.681126
0.721289	1.681342
0.721387	1.681618
0.721484	1.681851
0.721582	1.682311
0.721680	1.682660
0.721777	1.683279
0.721875	1.683634
0.721973	1.684135
0.722070	1.684525
0.722168	1.684771
0.722266	1.684927
0.722363	1.684729
0.722461	1.684341
0.722559	1.683900
0.722656	1.683169
0.722754	1.682565
0.722852	1.681754
0.722949	1.681154
0.723047	1.680448
0.723145	1.679849
0.723242	1.679295
0.723340	1.678805
0.723437	1.678347
0.723535	1.678019
0.723633	1.677867
0.723730	1.677690
0.723828	1.677706
0.723926	1.677732
0.724023	1.678089
0.724121	1.678327
0.724219	1.678759
0.724316	1.679228
0.724414	1.679813
0.724512	1.680237
0.724609	1.680744
0.724707	1.681145
0.724805	1.681477
0.724902	1.681757
0.725000	1.682158
0.725098	1.682257
0.725195	1.682489
0.725293	1.682737
0.725391	1.683002
0.725488	1.683321
0.725586	1.683770
0.725684	1.684055
0.725781	1.684475
0.725879	1.684841
0.725977	1.685271
0.726074	1.685770
0.726172	1.686290
0.726270	1.686753
0.726367	1.687243
0.726465	1.687643
0.726562	1.687931
0.726660	1.688228
0.726758	1.688495
0.726855	1.688760
0.726953	1.689062
0.727051	1.689374
0.727148	1.689621
0.727246	1.689850
0.727344	1.689949
0.727441	1.689949
0.727539	1.689907
0.727637	1.689638
0.727734	1.689502
0.727832	1.689258
0.727930	1.689055
0.728027	1.688984
0.728125	1.689031
0.728223	1.688968
0.728320	1.688979
0.728418	1.688977
0.728516	1.688844
0.728613	1.688985
0.728711	1.688946
0.728809	1.688958
0.728906	1.689012
0.729004	1.689076
0.729102	1.689026
0.729199	1.689117
0.729297	1.689110
0.729395	1.689087
0.729492	1.688927
0.729590	1.688724
0.729687	1.688473
0.729785	1.688204
0.729883	1.687759
0.729980	1.687419
0.730078	1.687069
0.730176	1.686668
0.730273	1.686286
0.730371	1.685848
0.730469	1.685210
0.730566	1.684645
0.730664	1.683852
0.730762	1.683063
0.730859	1.682278
0.730957	1.681438
0.731055	1.680715
0.731152	1.679897
0.731250	1.679235
0.731348	1.678534
0.731445	1.677855
0.731543	1.677185
0.731641	1.676730
0.731738	1.676330
0.731836	1.675946
0.731934	1.675725
0.732031	1.675579
0.732129	1.675549
0.732227	1.675545
0.732324	1.675631
0.732422	1.675680
0.732520	1.675762
0.732617	1.675778
0.732715	1.675805
0.732812	1.675861
0.732910	1.675796
0.733008	1.675879
0.733105	1.675986
0.733203	1.676124
0.733301	1.676170
0.733398	1.676471
0.733496	1.676630
0.733594	1.676797
0.733691	1.677004
0.733789	1.677194
0.733887	1.677183
0.733984	1.677353
0.734082	1.677467
0.734180	1.677606
0.734277	1.677804
0.734375	1.678141
0.734473	1.678474
0.734570	1.678878
0.734668	1.679384
0.734766	1.679750
0.734863	1.680310
0.734961	1.680610
0.735059	1.680771
0.735156	1.680649
0.735254	1.680382
0.735352	1.680017
0.735449	1.679576
0.735547	1.679121
0.735645	1.678899
0.735742	1.678580
0.735840	1.678373
0.735937	1.678239
0.736035	1.678101
0.736133	1.678136
0.736230	1.678208
0.736328	1.678562
0.736426	1.678950
0.736523	1.679427
0.736621	1.680028
0.736719	1.680680
0.736816	1.681433
0.736914	1.682224
0.737012	1.682989
0.737109	1.683896
0.737207	1.684585
0.737305	1.685331
0.737402	1.686047
0.737500	1.686532
0.737598	1.686832
0.737695	1.687000
0.737793	1.686850
0.737891	1.686554
0.737988	1.686226
0.738086	1.685950
0.738184	1.685672
0.738281	1.685464
0.738379	1.685187
0.738477	1.684988
0.738574	1.684963
0.738672	1.684946
0.738770	1.684989
0.738867	1.684929
0.738965	1.685068
0.739062	1.685180
0.739160	1.685322
0.739258	1.685477
0.739355	1.685546
0.739453	1.685774
0.739551	1.685910
0.739648	1.685953
0.739746	1.685915
0.739844	1.685884
0.739941	1.685765
0.740039	1.685712
0.740137	1.685618
0.740234	1.685683
0.740332	1.685729
0.740430	1.685955
0.740527	1.686111
0.740625	1.686395
0.740723	1.686573
0.740820	1.686909
0.740918	1.687140
0.741016	1.687376
0.741113	1.687595
0.741211	1.687757
0.741309	1.688031
0.741406	1.688190
0.741504	1.688508
0.741602	1.688703
0.741699	1.689063
0.741797	1.689307
0.741895	1.689520
0.741992	1.689688
0.742090	1.689730
0.742187	1.689686
0.742285	1.689576
0.742383	1.689354
0.742480	1.689063
0.742578	1.688843
0.742676	1.688442
0.742773	1.688187
0.742871	1.687900
0.742969	1.687844
0.743066	1.687731
0.743164	1.687567
0.743262	1.687504
0.743359	1.687432
0.743457	1.687426
0.743555	1.687228
0.743652	1.686939
0.743750	1.686612
0.743848	1.686234
0.743945	1.685776
0.744043	1.685370
0.744141	1.685020
0.744238	1.684660
0.744336	1.684361
0.744434	1.684189
0.744531	1.683894
0.744629	1.683751
0.744727	1.683620
0.744824	1.683346
0.744922	1.683219
0.745020	1.683053
0.745117	1.682828
0.745215	1.682544
0.745312	1.682344
0.745410	1.681950
0.745508	1.681717
0.745605	1.681387
0.745703	1.681158
0.745801	1.680954
0.745898	1.680698
0.745996	1.680580
0.746094	1.680450
0.746191	1.680361
0.746289	1.680275
0.746387	1.680188
0.746484	1.680050
0.746582	1.679843
0.746680	1.679554
0.746777	1.679203
0.746875	1.678870
0.746973	1.678316
0.747070	1.677779
0.747168	1.677286
0.747266	1.676697
0.747363	1.676151
0.747461	1.675557
0.747559	1.675149
0.747656	1.674844
0.747754	1.674425
0.747852	1.674046
0.747949	1.673659
0.748047	1.673357
0.748145	1.673166
0.748242	1.673032
0.748340	1.672794
0.748437	1.672712
0.748535	1.672557
0.748633	1.672513
0.748730	1.672279
0.748828	1.672117
0.748926	1.672007
0.749023	1.671866
0.749121	1.671764
0.749219	1.671764
0.749316	1.671774
0.749414	1.671921
0.749512	1.672062
0.749609	1.672320
0.749707	1.672647
0.749805	1.672930
0.749902	1.673413
0.750000	1.673770
0.750098	1.674329
0.750195	1.674800
0.750293	1.675318
0.750391	1.675796
0.750488	1.676200
0.750586	1.676502
0.750684	1.676769
0.750781	1.677010
0.750879	1.677064
0.750977	1.677214
0.751074	1.677273
0.751172	1.677389
0.751270	1.677551
0.751367	1.677676
0.751465	1.677860
0.751562	1.677999
0.751660	1.678188
0.751758	1.678358
0.751855	1.678407
0.751953	1.678567
0.752051	1.678544
0.752148	1.678661
0.752246	1.678742
0.752344	1.678859
0.752441	1.679083
0.752539	1.679260
0.752637	1.679479
0.752734	1.679724
0.752832	1.680078
0.752930	1.680464
0.753027	1.680821
0.753125	1.681183
0.753223	1.681518
0.753320	1.681844
0.753418	1.682066
0.753516	1.682197
0.753613	1.682386
0.753711	1.682699
0.753809	1.682866
0.753906	1.683077
0.754004	1.683288
0.754102	1.683675
0.754199	1.683900
0.754297	1.684154
0.754395	1.684372
0.754492	1.684511
0.754590	1.684377
0.754687	1.684340
0.754785	1.684141
0.754883	1.684035
0.754980	1.683813
0.755078	1.683669
0.755176	1.683595
0.755273	1.683618
0.755371	1.683645
0.755469	1.683785
0.755566	1.684094
0.755664	1.684552
0.755762	1.685006
0.755859	1.685634
0.755957	1.686233
0.756055	1.686831
0.756152	1.687390
0.756250	1.687735
0.756348	1.687753
0.756445	1.687452
0.756543	1.686923
0.756641	1.686214
0.756738	1.685442
0.756836	1.684685
0.756934	1.683927
0.757031	1.683366
0.757129	1.682811
0.757227	1.682386
0.757324	1.682011
0.757422	1.681618
0.757520	1.681327
0.757617	1.681112
0.757715	1.681022
0.757812	1.680982
0.757910	1.680891
0.758008	1.680867
0.758105	1.680621
0.758203	1.680089
0.758301	1.679072
0.758398	1.678030
0.758496	1.676978
0.758594	1.676093
0.758691	1.675395
0.758789	1.674720
0.758887	1.674141
0.758984	1.673595
0.759082	1.673126
0.759180	1.672786
0.759277	1.672495
0.759375	1.672275
0.759473	1.672047
0.759570	1.671929
0.759668	1.671734
0.759766	1.671661
0.759863	1.671686
0.759961	1.671804
0.760059	1.672012
0.760156	1.672079
0.760254	1.672251
0.760352	1.672353
0.760449	1.672269
0.760547	1.671954
0.760645	1.671284
0.760742	1.670452
0.760840	1.669585
0.760937	1.668643
0.761035	1.667920
0.761133	1.667217
0.761230	1.666566
0.761328	1.665930
0.761426	1.665415
0.761523	1.664984
0.761621	1.664575
0.761719	1.664166
0.761816	1.663901
0.761914	1.663495
0.762012	1.663265
0.762109	1.663020
0.762207	1.662845
0.762305	1.662580
0.762402	1.662628
0.762500	1.662488
0.762598	1.662658
0.762695	1.662841
0.762793	1.663284
0.762891	1.663723
0.762988	1.664210
0.763086	1.664754
0.763184	1.665431
0.763281	1.666105
0.763379	1.666836
0.763477	1.667502
0.763574	1.668177
0.763672	1.668868
0.763770	1.669390
0.763867	1.669956
0.763965	1.670296
0.764062	1.670652
0.764160	1.670841
0.764258	1.670940
0.764355	1.670908
0.764453	1.670978
0.764551	1.671042
0.764648	1.671204
0.764746	1.671353
0.764844	1.671522
0.764941	1.671660
0.765039	1.671783
0.765137	1.671882
0.765234	1.671939
0.765332	1.671998
0.765430	1.671962
0.765527	1.672008
0.765625	1.672106
0.765723	1.672092
0.765820	1.672210
0.765918	1.672309
0.766016	1.672522
0.766113	1.672680
0.766211	1.672976
0.766309	1.673213
0.766406	1.673584
0.766504	1.673841
0.766602	1.674207
0.766699	1.674533
0.766797	1.674864
0.766895	1.675120
0.766992	1.675378
0.767090	1.675724
0.767187	1.675894
0.767285	1.676034
0.767383	1.676229
0.767480	1.676259
0.767578	1.676333
0.767676	1.676427
0.767773	1.676416
0.767871	1.676546
0.767969	1.676539
0.768066	1.676679
0.768164	1.676901
0.768262	1.677077
0.768359	1.677339
0.768457	1.677596
0.768555	1.677901
0.768652	1.678225
0.768750	1.678560
0.768848	1.678859
0.768945	1.679199
0.769043	1.679537
0.769141	1.679982
0.769238	1.680437
0.769336	1.680852
0.769434	1.681327
0.769531	1.681723
0.769629	1.682123
0.769727	1.682535
0.769824	1.682998
0.769922	1.683327
0.770020	1.683873
0.770117	1.684282
0.770215	1.684745
0.770312	1.685023
0.770410	1.685267
0.770508	1.685287
0.770605	1.685146
0.770703	1.684777
0.770801	1.684245
0.770898	1.683620
0.770996	1.682868
0.771094	1.682234
0.771191	1.681482
0.771289	1.680788
0.771387	1.680080
0.771484	1.679281
0.771582	1.678412
0.771680	1.677623
0.771777	1.676893
0.771875	1.676075
0.771973	1.675512
0.772070	1.674960
0.772168	1.674463
0.772266	1.674114
0.772363	1.673843
0.772461	1.673684
0.772559	1.673694
0.772656	1.673617
0.772754	1.673565
0.772852	1.673644
0.772949	1.673638
0.773047	1.673656
0.773145	1.673826
0.773242	1.673890
0.773340	1.674091
0.773437	1.674223
0.773535	1.674392
0.773633	1.674590
0.773730	1.674977
0.773828	1.675196
0.773926	1.675532
0.774023	1.675854
0.774121	1.676046
0.774219	1.676347
0.774316	1.676681
0.774414	1.676852
0.774512	1.677053
0.774609	1.677354
0.774707	1.677548
0.774805	1.677698
0.774902	1.677957
0.775000	1.678153
0.775098	1.678330
0.775195	1.678536
0.775293	1.678646
0.775391	1.678656
0.775488	1.678806
0.775586	1.678746
0.775684	1.678745
0.775781	1.678554
0.775879	1.678489
0.775977	1.678425
0.776074	1.678247
0.776172	1.678270
0.776270	1.678190
0.776367	1.678299
0.776465	1.678180
0.776562	1.678273
0.776660	1.678393
0.776758	1.678427
0.776855	1.678598
0.776953	1.678639
0.777051	1.678783
0.777148	1.678823
0.777246	1.678953
0.777344	1.679047
0.777441	1.679072
0.777539	1.679274
0.777637	1.679385
0.777734	1.679552
0.777832	1.679681
0.777930	1.679886
0.778027	1.680021
0.778125	1.680346
0.778223	1.680657
0.778320	1.680988
0.778418	1.681283
0.778516	1.681700
0.778613	1.681950
0.778711	1.682512
0.778809	1.682764
0.778906	1.683241
0.779004	1.683593
0.779102	1.683813
0.779199	1.684123
0.779297	1.684300
0.779395	1.684514
0.779492	1.684826
0.779590	1.684941
0.779687	1.685250
0.779785	1.685360
0.779883	1.685554
0.779980	1.685669
0.780078	1.685673
0.780176	1.685848
0.780273	1.685873
0.780371	1.686058
0.780469	1.686222
0.780566	1.686443
0.780664	1.686674
0.780762	1.686890
0.780859	1.687305
0.780957	1.687611
0.781055	1.687915
0.781152	1.688117
0.781250	1.688101
0.781348	1.687967
0.781445	1.687597
0.781543	1.687053
0.781641	1.686314
0.781738	1.685511
0.781836	1.684518
0.781934	1.683640
0.782031	1.682784
0.782129	1.681891
0.782227	1.681032
0.782324	1.680270
0.782422	1.679561
0.782520	1.678859
0.782617	1.678378
0.782715	1.677847
0.782812	1.677335
0.782910	1.676864
0.783008	1.676387
0.783105	1.675891
0.783203	1.675426
0.783301	1.674919
0.783398	1.674486
0.783496	1.674047
0.783594	1.673569
0.783691	1.673103
0.783789	1.672674
0.783887	1.672212
0.783984	1.671725
0.784082	1.671440
0.784180	1.671038
0.784277	1.670701
0.784375	1.670351
0.784473	1.669904
0.784570	1.669538
0.784668	1.669161
0.784766	1.668587
0.784863	1.668101
0.784961	1.667783
0.785059	1.667012
0.785156	1.666585
0.785254	1.665933
0.785352	1.665310
0.785449	1.664822
0.785547	1.664311
0.785645	1.663928
0.785742	1.663634
0.785840	1.663233
0.785937	1.662979
0.786035	1.662802
0.786133	1.662722
0.786230	1.662749
0.786328	1.662805
0.786426	1.663110
0.786523	1.663370
0.786621	1.663737
0.786719	1.664252
0.786816	1.664942
0.786914	1.665548
0.787012	1.666351
0.787109	1.667264
0.787207	1.667981
0.787305	1.668903
0.787402	1.669687
0.787500	1.670607
0.787598	1.671487
0.787695	1.672413
0.787793	1.673341
0.787891	1.674235
0.787988	1.675128
0.788086	1.676168
0.788184	1.677250
0.788281	1.678282
0.788379	1.679289
0.788477	1.680361
0.788574	1.681370
0.788672	1.682471
0.788770	1.683468
0.788867	1.684376
0.788965	1.685411
0.789062	1.686240
0.789160	1.687149
0.789258	1.688207
0.789355	1.689151
0.789453	1.690284
0.789551	1.691376
0.789648	1.692655
0.789746	1.693828
0.789844	1.694903
0.789941	1.696049
0.790039	1.697036
0.790137	1.698023
0.790234	1.699021
0.790332	1.699953
0.790430	1.700917
0.790527	1.701816
0.790625	1.702617
0.790723	1.702990
0.790820	1.703306
0.790918	1.703131
0.791016	1.702657
0.791113	1.701839
0.791211	1.700891
0.791309	1.699917
0.791406	1.699137
0.791504	1.698751
0.791602	1.698613
0.791699	1.698747
0.791797	1.699109
0.791895	1.699406
0.791992	1.699629
0.792090	1.699455
0.792187	1.698955
0.792285	1.698275
0.792383	1.697633
0.792480	1.696971
0.792578	1.696435
0.792676	1.695544
0.792773	1.694518
0.792871	1.693462
0.792969	1.692390
0.793066	1.691621
0.793164	1.690884
0.793262	1.690535
0.793359	1.690401
0.793457	1.690421
0.793555	1.690474
0.793652	1.690254
0.793750	1.689553
0.793848	1.688944
0.793945	1.688408
0.794043	1.687955
0.794141	1.687739
0.794238	1.687671
0.794336	1.687665
0.794434	1.687829
0.794531	1.688107
0.794629	1.688667
0.794727	1.689305
0.794824	1.689933
0.794922	1.690348
0.795020	1.690268
0.795117	1.689348
0.795215	1.687993
0.795312	1.686241
0.795410	1.684393
0.795508	1.682543
0.795605	1.680805
0.795703	1.679288
0.795801	1.678058
0.795898	1.677040
0.795996	1.675944
0.796094	1.674530
0.796191	1.672654
0.796289	1.670429
0.796387	1.668138
0.796484	1.666240
0.796582	1.664488
0.796680	1.662980
0.796777	1.661562
0.796875	1.660296
0.796973	1.659160
0.797070	1.658057
0.797168	1.657027
0.797266	1.656055
0.797363	1.655269
0.797461	1.654402
0.797559	1.653707
0.797656	1.652947
0.797754	1.652312
0.797852	1.651431
0.797949	1.650719
0.798047	1.650056
0.798145	1.649262
0.798242	1.648581
0.798340	1.647977
0.798437	1.647321
0.798535	1.646890
0.798633	1.646657
0.798730	1.646570
0.798828	1.646516
0.798926	1.646598
0.799023	1.646713
0.799121	1.646913
0.799219	1.647039
0.799316	1.647353
0.799414	1.647502
0.799512	1.647845
0.799609	1.648041
0.799707	1.648439
0.799805	1.648772
0.799902	1.649154
0.800000	1.649630
0.800098	1.650073
0.800195	1.650621
0.800293	1.651243
0.800391	1.652025
0.800488	1.652733
0.800586	1.653608
0.800684	1.654519
0.800781	1.655515
0.800879	1.656576
0.800977	1.657694
0.801074	1.658728
0.801172	1.659914
0.801270	1.661061
0.801367	1.662192
0.801465	1.663395
0.801562	1.664548
0.801660	1.665688
0.801758	1.666861
0.801855	1.668109
0.801953	1.669330
0.802051	1.670665
0.802148	1.671876
0.802246	1.672972
0.802344	1.673894
0.802441	1.674534
0.802539	1.674935
0.802637	1.675220
0.802734	1.675296
0.802832	1.675347
0.802930	1.675319
0.803027	1.675259
0.803125	1.675292
0.803223	1.675414
0.803320	1.675727
0.803418	1.676134
0.803516	1.676648
0.803613	1.677419
0.803711	1.678132
0.803809	1.679141
0.803906	1.680101
0.804004	1.681200
0.804102	1.682233
0.804199	1.683295
0.804297	1.684241
0.804395	1.685013
0.804492	1.685895
0.804590	1.686427
0.804687	1.687065
0.804785	1.687546
0.804883	1.687844
0.804980	1.688293
0.805078	1.688578
0.805176	1.688769
0.805273	1.688955
0.805371	1.689126
0.805469	1.689367
0.805566	1.689665
0.805664	1.689841
0.805762	1.690089
0.805859	1.690261
0.805957	1.690410
0.806055	1.690640
0.806152	1.690724
0.806250	1.690877
0.806348	1.691053
0.806445	1.691197
0.806543	1.691418
0.806641	1.691676
0.806738	1.691917
0.806836	1.692267
0.806934	1.692583
0.807031	1.692898
0.807129	1.693367
0.807227	1.693710
0.807324	1.694141
0.807422	1.694680
0.807520	1.695064
0.807617	1.695464
0.807715	1.695562
0.807812	1.695547
0.807910	1.695169
0.808008	1.694508
0.808105	1.693977
0.808203	1.693325
0.808301	1.692913
0.808398	1.692428
0.808496	1.692215
0.808594	1.692125
0.808691	1.692080
0.808789	1.692269
0.808887	1.692513
0.808984	1.692703
0.809082	1.692960
0.809180	1.693046
0.809277	1.693137
0.809375	1.692923
0.809473	1.692421
0.809570	1.691594
0.809668	1.690455
0.809766	1.689074
0.809863	1.687428
0.809961	1.685540
0.810059	1.683543
0.810156	1.681549
0.810254	1.679602
0.810352	1.677638
0.810449	1.675868
0.810547	1.673993
0.810645	1.672236
0.810742	1.670445
0.810840	1.668810
0.810937	1.667185
0.811035	1.665631
0.811133	1.664254
0.811230	1.662918
0.811328	1.661774
0.811426	1.660665
0.811523	1.659750
0.811621	1.658740
0.811719	1.657883
0.811816	1.657054
0.811914	1.656229
0.812012	1.655419
0.812109	1.654616
0.812207	1.653914
0.812305	1.653127
0.812402	1.652428
0.812500	1.651776
0.812598	1.651052
0.812695	1.650366
0.812793	1.649666
0.812891	1.648910
0.812988	1.648242
0.813086	1.647656
0.813184	1.646926
0.813281	1.646455
0.813379	1.645942
0.813477	1.645383
0.813574	1.644929
0.813672	1.644553
0.813770	1.644265
0.813867	1.643906
0.813965	1.643781
0.814062	1.643705
0.814160	1.643628
0.814258	1.643584
0.814355	1.643663
0.814453	1.643820
0.814551	1.643997
0.814648	1.644363
0.814746	1.644772
0.814844	1.645176
0.814941	1.645692
0.815039	1.646178
0.815137	1.646597
0.815234	1.647260
0.815332	1.647717
0.815430	1.648465
0.815527	1.649068
0.815625	1.649804
0.815723	1.650547
0.815820	1.651262
0.815918	1.651919
0.816016	1.652611
0.816113	1.653404
0.816211	1.654181
0.816309	1.654975
0.816406	1.655690
0.816504	1.656595
0.816602	1.657387
0.816699	1.658324
0.816797	1.659187
0.816895	1.660143
0.816992	1.661032
0.817090	1.662022
0.817187	1.662905
0.817285	1.663828
0.817383	1.664746
0.817480	1.665683
0.817578	1.666529
0.817676	1.667478
0.817773	1.668195
0.817871	1.669131
0.817969	1.669989
0.818066	1.671015
0.818164	1.671964
0.818262	1.672882
0.818359	1.673739
0.818457	1.674516
0.818555	1.675192
0.818652	1.675728
0.818750	1.676196
0.818848	1.676616
0.818945	1.676998
0.819043	1.677325
0.819141	1.677684
0.819238	1.677953
0.819336	1.678343
0.819434	1.678527
0.819531	1.678788
0.819629	1.678854
0.819727	1.679082
0.819824	1.679146
0.819922	1.679334
0.820020	1.679596
0.820117	1.680007
0.820215	1.680590
0.820312	1.681283
0.820410	1.682089
0.820508	1.682845
0.820605	1.683633
0.820703	1.684277
0.820801	1.684840
0.820898	1.685462
0.820996	1.686151
0.821094	1.686942
0.821191	1.687819
0.821289	1.688684
0.821387	1.689470
0.821484	1.690075
0.821582	1.690148
0.821680	1.690092
0.821777	1.689790
0.821875	1.689402
0.821973	1.688982
0.822070	1.688769
0.822168	1.688664
0.822266	1.688656
0.822363	1.689055
0.822461	1.689615
0.822559	1.690433
0.822656	1.691163
0.822754	1.692204
0.822852	1.693045
0.822949	1.693887
0.823047	1.694487
0.823145	1.694707
0.823242	1.694679
0.823340	1.693999
0.823437	1.693118
0.823535	1.691894
0.823633	1.690443
0.823730	1.689098
0.823828	1.687917
0.823926	1.687059
0.824023	1.686456
0.824121	1.686222
0.824219	1.686203
0.824316	1.686400
0.824414	1.686787
0.824512	1.687338
0.824609	1.688094
0.824707	1.688825
0.824805	1.689627
0.824902	1.690394
0.825000	1.691341
0.825098	1.691895
0.825195	1.692603
0.825293	1.692979
0.825391	1.693256
0.825488	1.693144
0.825586	1.692422
0.825684	1.691206
0.825781	1.689760
0.825879	1.688255
0.825977	1.686931
0.826074	1.685699
0.826172	1.684670
0.826270	1.683844
0.826367	1.683232
0.826465	1.682815
0.826562	1.682513
0.826660	1.682318
0.826758	1.682237
0.826855	1.682236
0.826953	1.682207
0.827051	1.682009
0.827148	1.681621
0.827246	1.681126
0.827344	1.680440
0.827441	1.679605
0.827539	1.678697
0.827637	1.677769
0.827734	1.676716
0.827832	1.675747
0.827930	1.674849
0.828027	1.674136
0.828125	1.673856
0.828223	1.673317
0.828320	1.673167
0.828418	1.672973
0.828516	1.672864
0.828613	1.672769
0.828711	1.672805
0.828809	1.672905
0.828906	1.673083
0.829004	1.673288
0.829102	1.673514
0.829199	1.673790
0.829297	1.674075
0.829395	1.674328
0.829492	1.674410
0.829590	1.674359
0.829687	1.674098
0.829785	1.673856
0.829883	1.673269
0.829980	1.672617
0.830078	1.671781
0.830176	1.670895
0.830273	1.669988
0.830371	1.669013
0.830469	1.668241
0.830566	1.667383
0.830664	1.666683
0.830762	1.665904
0.830859	1.665270
0.830957	1.664743
0.831055	1.664168
0.831152	1.663674
0.831250	1.663125
0.831348	1.662728
0.831445	1.662287
0.831543	1.661973
0.831641	1.661512
0.831738	1.661143
0.831836	1.660794
0.831934	1.660490
0.832031	1.660235
0.832129	1.659923
0.832227	1.659759
0.832324	1.659557
0.832422	1.659444
0.832520	1.659265
0.832617	1.659093
0.832715	1.658959
0.832812	1.658781
0.832910	1.658630
0.833008	1.658486
0.833105	1.658306
0.833203	1.658126
0.833301	1.657982
0.833398	1.657911
0.833496	1.657761
0.833594	1.657705
0.833691	1.657562
0.833789	1.657531
0.833887	1.657514
0.833984	1.657542
0.834082	1.657434
0.834180	1.657440
0.834277	1.657541
0.834375	1.657609
0.834473	1.657714
0.834570	1.657733
0.834668	1.657923
0.834766	1.658130
0.834863	1.658440
0.834961	1.658686
0.835059	1.658943
0.835156	1.659296
0.835254	1.659710
0.835352	1.660115
0.835449	1.660617
0.835547	1.661298
0.835645	1.661794
0.835742	1.662516
0.835840	1.663095
0.835937	1.663876
0.836035	1.664602
0.836133	1.665393
0.836230	1.666256
0.836328	1.667184
0.836426	1.668186
0.836523	1.668994
0.836621	1.670011
0.836719	1.671038
0.836816	1.672002
0.836914	1.672968
0.837012	1.673822
0.837109	1.674657
0.837207	1.675430
0.837305	1.676181
0.837402	1.676918
0.837500	1.677533
0.837598	1.678291
0.837695	1.679033
0.837793	1.679645
0.837891	1.680263
0.837988	1.680813
0.838086	1.681683
0.838184	1.682266
0.838281	1.682989
0.838379	1.683584
0.838477	1.684265
0.838574	1.684807
0.838672	1.685435
0.838770	1.686111
0.838867	1.686591
0.838965	1.687150
0.839062	1.687700
0.839160	1.688289
0.839258	1.688738
0.839355	1.689352
0.839453	1.689906
0.839551	1.690540
0.839648	1.691106
0.839746	1.691645
0.839844	1.692082
0.839941	1.692447
0.840039	1.692726
0.840137	1.692858
0.840234	1.692817
0.840332	1.692701
0.840430	1.692470
0.840527	1.692227
0.840625	1.692072
0.840723	1.691902
0.840820	1.691817
0.840918	1.691889
0.841016	1.692028
0.841113	1.692305
0.841211	1.692636
0.841309	1.692897
0.841406	1.693185
0.841504	1.693422
0.841602	1.693506
0.841699	1.693433
0.841797	1.693257
0.841895	1.692826
0.841992	1.692407
0.842090	1.691884
0.842187	1.691495
0.842285	1.691169
0.842383	1.691120
0.842480	1.691048
0.842578	1.691089
0.842676	1.691280
0.842773	1.691389
0.842871	1.691577
0.842969	1.691731
0.843066	1.691808
0.843164	1.691416
0.843262	1.689987
0.843359	1.686779
0.843457	1.681518
0.843555	1.675847
0.843652	1.671539
0.843750	1.668556
0.843848	1.666518
0.843945	1.664878
0.844043	1.663388
0.844141	1.661740
0.844238	1.659911
0.844336	1.657871
0.844434	1.655732
0.844531	1.653587
0.844629	1.651749
0.844727	1.650103
0.844824	1.648733
0.844922	1.647614
0.845020	1.646521
0.845117	1.645707
0.845215	1.644955
0.845312	1.644307
0.845410	1.643822
0.845508	1.643391
0.845605	1.642996
0.845703	1.642772
0.845801	1.642585
0.845898	1.642383
0.845996	1.642144
0.846094	1.642033
0.846191	1.642036
0.846289	1.642094
0.846387	1.642142
0.846484	1.642235
0.846582	1.642556
0.846680	1.642698
0.846777	1.643121
0.846875	1.643440
0.846973	1.643945
0.847070	1.644525
0.847168	1.645216
0.847266	1.645986
0.847363	1.646743
0.847461	1.647549
0.847559	1.648356
0.847656	1.649135
0.847754	1.650035
0.847852	1.650677
0.847949	1.651448
0.848047	1.652284
0.848145	1.653130
0.848242	1.653811
0.848340	1.654605
0.848437	1.655216
0.848535	1.655975
0.848633	1.656543
0.848730	1.657122
0.848828	1.657816
0.848926	1.658409
0.849023	1.658979
0.849121	1.659550
0.849219	1.660045
0.849316	1.660450
0.849414	1.661053
0.849512	1.661540
0.849609	1.662195
0.849707	1.662896
0.849805	1.663598
0.849902	1.664376
0.850000	1.665329
0.850098	1.666229
0.850195	1.667239
0.850293	1.668211
0.850391	1.669318
0.850488	1.670340
0.850586	1.671489
0.850684	1.672696
0.850781	1.673832
0.850879	1.675156
0.850977	1.676483
0.851074	1.677695
0.851172	1.679005
0.851270	1.680199
0.851367	1.681300
0.851465	1.682317
0.851562	1.683391
0.851660	1.684354
0.851758	1.685182
0.851855	1.686094
0.851953	1.686882
0.852051	1.687459
0.852148	1.687777
0.852246	1.687884
0.852344	1.687774
0.852441	1.687505
0.852539	1.686934
0.852637	1.686314
0.852734	1.685420
0.852832	1.684423
0.852930	1.683402
0.853027	1.682630
0.853125	1.681895
0.853223	1.681323
0.853320	1.680923
0.853418	1.680563
0.853516	1.680459
0.853613	1.680339
0.853711	1.680616
0.853809	1.680873
0.853906	1.681335
0.854004	1.681968
0.854102	1.682656
0.854199	1.683490
0.854297	1.684373
0.854395	1.685220
0.854492	1.686183
0.854590	1.687115
0.854687	1.688005
0.854785	1.689054
0.854883	1.689882
0.854980	1.690933
0.855078	1.691721
0.855176	1.692396
0.855273	1.693125
0.855371	1.693574
0.855469	1.693798
0.855566	1.693431
0.855664	1.692544
0.855762	1.691042
0.855859	1.689198
0.855957	1.687178
0.856055	1.685012
0.856152	1.682649
0.856250	1.680495
0.856348	1.678432
0.856445	1.676639
0.856543	1.674864
0.856641	1.673534
0.856738	1.672471
0.856836	1.671713
0.856934	1.671105
0.857031	1.670854
0.857129	1.670706
0.857227	1.670874
0.857324	1.671163
0.857422	1.671665
0.857520	1.672204
0.857617	1.672949
0.857715	1.673696
0.857812	1.674529
0.857910	1.675292
0.858008	1.676247
0.858105	1.677180
0.858203	1.677949
0.858301	1.678614
0.858398	1.679259
0.858496	1.679603
0.858594	1.679893
0.858691	1.680001
0.858789	1.679857
0.858887	1.679578
0.858984	1.679177
0.859082	1.678617
0.859180	1.677767
0.859277	1.676781
0.859375	1.675667
0.859473	1.674332
0.859570	1.672907
0.859668	1.671438
0.859766	1.670042
0.859863	1.668723
0.859961	1.667429
0.860059	1.666256
0.860156	1.665228
0.860254	1.664267
0.860352	1.663569
0.860449	1.662924
0.860547	1.662244
0.860645	1.661878
0.860742	1.661465
0.860840	1.661266
0.860937	1.661077
0.861035	1.660878
0.861133	1.661068
0.861230	1.661171
0.861328	1.661546
0.861426	1.661880
0.861523	1.662365
0.861621	1.662760
0.861719	1.663308
0.861816	1.663691
0.861914	1.664050
0.862012	1.664375
0.862109	1.664586
0.862207	1.664817
0.862305	1.664962
0.862402	1.665086
0.862500	1.665068
0.862598	1.665094
0.862695	1.665185
0.862793	1.665392
0.862891	1.665470
0.862988	1.665670
0.863086	1.666008
0.863184	1.666202
0.863281	1.666389
0.863379	1.666696
0.863477	1.667032
0.863574	1.667375
0.863672	1.667664
0.863770	1.668031
0.863867	1.668270
0.863965	1.668684
0.864062	1.668982
0.864160	1.669195
0.864258	1.669614
0.864355	1.669856
0.864453	1.670170
0.864551	1.670514
0.864648	1.670911
0.864746	1.671337
0.864844	1.671743
0.864941	1.672267
0.865039	1.672745
0.865137	1.673336
0.865234	1.673770
0.865332	1.674396
0.865430	1.674988
0.865527	1.675639
0.865625	1.676255
0.865723	1.676911
0.865820	1.677333
0.865918	1.677753
0.866016	1.678228
0.866113	1.678538
0.866211	1.678705
0.866309	1.678913
0.866406	1.679021
0.866504	1.679064
0.866602	1.679135
0.866699	1.679178
0.866797	1.679255
0.866895	1.679436
0.866992	1.679653
0.867090	1.679877
0.867187	1.680134
0.867285	1.680439
0.867383	1.680740
0.867480	1.681001
0.867578	1.681178
0.867676	1.681508
0.867773	1.681690
0.867871	1.681901
0.867969	1.682056
0.868066	1.682463
0.868164	1.682873
0.868262	1.683334
0.868359	1.683768
0.868457	1.684352
0.868555	1.684894
0.868652	1.685270
0.868750	1.685630
0.868848	1.685907
0.868945	1.685941
0.869043	1.686112
0.869141	1.686130
0.869238	1.686157
0.869336	1.686167
0.869434	1.686194
0.869531	1.686064
0.869629	1.685997
0.869727	1.685773
0.869824	1.685345
0.869922	1.685017
0.870020	1.684501
0.870117	1.684066
0.870215	1.683612
0.870312	1.683130
0.870410	1.682721
0.870508	1.682297
0.870605	1.681958
0.870703	1.681577
0.870801	1.681248
0.870898	1.680886
0.870996	1.680619
0.871094	1.680297
0.871191	1.680075
0.871289	1.679905
0.871387	1.679889
0.871484	1.679945
0.871582	1.680040
0.871680	1.680074
0.871777	1.680037
0.871875	1.679860
0.871973	1.679696
0.872070	1.679496
0.872168	1.679147
0.872266	1.678867
0.872363	1.678429
0.872461	1.677942
0.872559	1.677571
0.872656	1.677069
0.872754	1.676655
0.872852	1.676203
0.872949	1.675843
0.873047	1.675479
0.873145	1.675143
0.873242	1.674748
0.873340	1.674493
0.873437	1.674213
0.873535	1.673969
0.873633	1.673828
0.873730	1.673585
0.873828	1.673541
0.873926	1.673387
0.874023	1.673368
0.874121	1.673286
0.874219	1.673211
0.874316	1.673177
0.874414	1.672966
0.874512	1.673035
0.874609	1.672992
0.874707	1.672937
0.874805	1.672889
0.874902	1.672983
0.875000	1.673004
0.875098	1.673082
0.875195	1.673246
0.875293	1.673388
0.875391	1.673510
0.875488	1.673807
0.875586	1.673992
0.875684	1.674411
0.875781	1.674689
0.875879	1.674979
0.875977	1.675441
0.876074	1.675789
0.876172	1.676276
0.876270	1.676717
0.876367	1.677348
0.876465	1.678005
0.876562	1.678692
0.876660	1.679302
0.876758	1.680035
0.876855	1.680713
0.876953	1.681468
0.877051	1.681932
0.877148	1.682461
0.877246	1.682696
0.877344	1.682916
0.877441	1.682845
0.877539	1.682604
0.877637	1.682319
0.877734	1.681518
0.877832	1.680516
0.877930	1.679162
0.878027	1.677932
0.878125	1.676769
0.878223	1.675825
0.878320	1.675040
0.878418	1.674337
0.878516	1.673899
0.878613	1.673601
0.878711	1.673271
0.878809	1.673168
0.878906	1.673238
0.879004	1.673410
0.879102	1.673668
0.879199	1.674002
0.879297	1.674617
0.879395	1.675376
0.879492	1.676071
0.879590	1.677005
0.879687	1.677921
0.879785	1.678999
0.879883	1.679919
0.879980	1.680862
0.880078	1.681673
0.880176	1.682250
0.880273	1.682747
0.880371	1.683119
0.880469	1.683376
0.880566	1.683465
0.880664	1.683622
0.880762	1.683544
0.880859	1.683541
0.880957	1.683362
0.881055	1.683177
0.881152	1.682922
0.881250	1.682747
0.881348	1.682701
0.881445	1.682569
0.881543	1.682725
0.881641	1.682883
0.881738	1.683154
0.881836	1.683545
0.881934	1.684198
0.882031	1.684804
0.882129	1.685600
0.882227	1.686333
0.882324	1.687063
0.882422	1.687841
0.882520	1.688514
0.882617	1.689401
0.882715	1.690197
0.882812	1.691116
0.882910	1.692216
0.883008	1.693465
0.883105	1.694732
0.883203	1.696153
0.883301	1.697597
0.883398	1.699014
0.883496	1.700407
0.883594	1.701489
0.883691	1.702180
0.883789	1.702478
0.883887	1.702208
0.883984	1.701684
0.884082	1.700764
0.884180	1.699587
0.884277	1.698181
0.884375	1.696376
0.884473	1.694440
0.884570	1.692537
0.884668	1.690677
0.884766	1.689117
0.884863	1.687858
0.884961	1.686843
0.885059	1.685935
0.885156	1.685248
0.885254	1.684733
0.885352	1.684258
0.885449	1.683907
0.885547	1.683911
0.885645	1.683626
0.885742	1.683736
0.885840	1.683704
0.885937	1.683954
0.886035	1.684273
0.886133	1.684668
0.886230	1.685192
0.886328	1.685619
0.886426	1.685945
0.886523	1.686048
0.886621	1.686061
0.886719	1.685948
0.886816	1.685596
0.886914	1.685249
0.887012	1.684725
0.887109	1.684147
0.887207	1.683678
0.887305	1.683182
0.887402	1.682825
0.887500	1.682505
0.887598	1.682319
0.887695	1.682165
0.887793	1.682122
0.887891	1.682044
0.887988	1.681906
0.888086	1.682080
0.888184	1.682004
0.888281	1.681949
0.888379	1.681779
0.888477	1.681573
0.888574	1.681173
0.888672	1.680710
0.888770	1.680322
0.888867	1.679851
0.888965	1.679299
0.889062	1.678866
0.889160	1.678437
0.889258	1.678063
0.889355	1.677840
0.889453	1.677596
0.889551	1.677510
0.889648	1.677317
0.889746	1.677128
0.889844	1.676959
0.889941	1.676744
0.890039	1.676665
0.890137	1.676551
0.890234	1.676656
0.890332	1.676882
0.890430	1.677223
0.890527	1.677718
0.890625	1.678247
0.890723	1.678903
0.890820	1.679641
0.890918	1.680266
0.891016	1.680884
0.891113	1.681483
0.891211	1.681770
0.891309	1.681980
0.891406	1.682041
0.891504	1.682082
0.891602	1.682108
0.891699	1.682117
0.891797	1.682202
0.891895	1.682313
0.891992	1.682404
0.892090	1.682626
0.892187	1.682764
0.892285	1.682942
0.892383	1.683113
0.892480	1.683074
0.892578	1.682744
0.892676	1.682144
0.892773	1.681085
0.892871	1.679774
0.892969	1.678134
0.893066	1.676242
0.893164	1.674612
0.893262	1.673112
0.893359	1.671886
0.893457	1.670959
0.893555	1.670193
0.893652	1.669708
0.893750	1.669372
0.893848	1.669164
0.893945	1.669006
0.894043	1.668848
0.894141	1.668756
0.894238	1.668566
0.894336	1.668331
0.894434	1.668164
0.894531	1.667991
0.894629	1.667914
0.894727	1.667754
0.894824	1.667735
0.894922	1.667683
0.895020	1.667596
0.895117	1.667645
0.895215	1.667597
0.895312	1.667530
0.895410	1.667278
0.895508	1.667083
0.895605	1.666704
0.895703	1.666262
0.895801	1.665911
0.895898	1.665550
0.895996	1.665233
0.896094	1.665019
0.896191	1.664900
0.896289	1.664701
0.896387	1.664704
0.896484	1.664803
0.896582	1.664943
0.896680	1.665163
0.896777	1.665421
0.896875	1.665584
0.896973	1.665882
0.897070	1.665975
0.897168	1.665969
0.897266	1.665852
0.897363	1.665483
0.897461	1.665091
0.897559	1.664367
0.897656	1.663726
0.897754	1.662943
0.897852	1.662343
0.897949	1.661764
0.898047	1.661624
0.898145	1.661341
0.898242	1.661193
0.898340	1.660995
0.898437	1.660840
0.898535	1.660446
0.898633	1.660066
0.898730	1.659585
0.898828	1.659092
0.898926	1.658697
0.899023	1.658266
0.899121	1.658032
0.899219	1.657908
0.899316	1.658065
0.899414	1.658247
0.899512	1.658708
0.899609	1.658998
0.899707	1.659413
0.899805	1.659900
0.899902	1.660363
0.900000	1.661008
0.900098	1.661538
0.900195	1.662163
0.900293	1.662693
0.900391	1.663459
0.900488	1.664047
0.900586	1.664668
0.900684	1.665416
0.900781	1.665993
0.900879	1.666791
0.900977	1.667558
0.901074	1.668341
0.901172	1.669106
0.901270	1.669830
0.901367	1.670561
0.901465	1.671333
0.901562	1.672060
0.901660	1.672942
0.901758	1.673743
0.901855	1.674605
0.901953	1.675570
0.902051	1.676491
0.902148	1.677514
0.902246	1.678498
0.902344	1.679421
0.902441	1.680356
0.902539	1.681374
0.902637	1.682289
0.902734	1.683255
0.902832	1.684375
0.902930	1.685389
0.903027	1.686515
0.903125	1.687524
0.903223	1.688476
0.903320	1.689472
0.903418	1.690275
0.903516	1.690967
0.903613	1.691672
0.903711	1.692293
0.903809	1.692930
0.903906	1.693614
0.904004	1.694099
0.904102	1.694671
0.904199	1.695108
0.904297	1.695546
0.904395	1.695822
0.904492	1.696117
0.904590	1.696139
0.904687	1.696139
0.904785	1.695903
0.904883	1.695642
0.904980	1.695421
0.905078	1.695112
0.905176	1.695128
0.905273	1.695336
0.905371	1.695720
0.905469	1.696385
0.905566	1.697206
0.905664	1.698308
0.905762	1.699612
0.905859	1.701367
0.905957	1.703630
0.906055	1.706187
0.906152	1.708745
0.906250	1.710753
0.906348	1.711143
0.906445	1.710262
0.906543	1.710252
0.906641	1.711372
0.906738	1.710038
0.906836	1.708566
0.906934	1.702580
0.907031	1.699213
0.907129	1.696366
0.907227	1.692848
0.907324	1.690033
0.907422	1.685317
0.907520	1.682064
0.907617	1.678720
0.907715	1.675619
0.907812	1.672510
0.907910	1.669890
0.908008	1.667865
0.908105	1.666772
0.908203	1.665473
0.908301	1.664046
0.908398	1.662127
0.908496	1.660027
0.908594	1.657951
0.908691	1.656147
0.908789	1.654342
0.908887	1.652661
0.908984	1.650986
0.909082	1.649291
0.909180	1.647640
0.909277	1.645931
0.909375	1.644076
0.909473	1.642371
0.909570	1.640672
0.909668	1.639071
0.909766	1.637559
0.909863	1.636292
0.909961	1.635231
0.910059	1.634287
0.910156	1.633592
0.910254	1.633046
0.910352	1.632556
0.910449	1.632123
0.910547	1.632041
0.910645	1.631824
0.910742	1.631855
0.910840	1.631948
0.910937	1.632039
0.911035	1.632309
0.911133	1.632672
0.911230	1.632968
0.911328	1.633462
0.911426	1.633925
0.911523	1.634490
0.911621	1.635115
0.911719	1.635872
0.911816	1.636697
0.911914	1.637502
0.912012	1.638318
0.912109	1.639287
0.912207	1.640109
0.912305	1.641198
0.912402	1.642175
0.912500	1.643257
0.912598	1.644365
0.912695	1.645467
0.912793	1.646685
0.912891	1.647816
0.912988	1.648972
0.913086	1.650224
0.913184	1.651475
0.913281	1.652676
0.913379	1.653975
0.913477	1.655144
0.913574	1.656501
0.913672	1.657807
0.913770	1.659211
0.913867	1.660789
0.913965	1.662295
0.914062	1.663869
0.914160	1.665345
0.914258	1.666616
0.914355	1.667760
0.914453	1.668715
0.914551	1.669648
0.914648	1.670277
0.914746	1.671043
0.914844	1.671531
0.914941	1.671957
0.915039	1.672183
0.915137	1.672432
0.915234	1.672533
0.915332	1.672783
0.915430	1.672994
0.915527	1.673535
0.915625	1.673945
0.915723	1.674650
0.915820	1.675343
0.915918	1.676366
0.916016	1.677257
0.916113	1.678418
0.916211	1.679489
0.916309	1.680625
0.916406	1.681804
0.916504	1.682870
0.916602	1.683941
0.916699	1.684758
0.916797	1.685505
0.916895	1.685961
0.916992	1.686118
0.917090	1.686011
0.917187	1.685694
0.917285	1.685445
0.917383	1.685267
0.917480	1.685401
0.917578	1.685754
0.917676	1.686335
0.917773	1.686937
0.917871	1.687621
0.917969	1.688466
0.918066	1.689550
0.918164	1.690348
0.918262	1.691216
0.918359	1.692114
0.918457	1.692882
0.918555	1.693494
0.918652	1.694134
0.918750	1.694641
0.918848	1.695166
0.918945	1.695681
0.919043	1.696268
0.919141	1.697017
0.919238	1.697697
0.919336	1.698437
0.919434	1.698984
0.919531	1.699427
0.919629	1.699526
0.919727	1.699338
0.919824	1.699032
0.919922	1.698471
0.920020	1.697685
0.920117	1.696906
0.920215	1.696028
0.920312	1.695214
0.920410	1.694727
0.920508	1.694484
0.920605	1.694402
0.920703	1.694532
0.920801	1.694797
0.920898	1.695162
0.920996	1.695714
0.921094	1.696156
0.921191	1.696633
0.921289	1.696898
0.921387	1.696482
0.921484	1.695541
0.921582	1.693931
0.921680	1.691852
0.921777	1.689467
0.921875	1.687163
0.921973	1.685008
0.922070	1.683028
0.922168	1.681298
0.922266	1.679626
0.922363	1.678113
0.922461	1.676770
0.922559	1.675672
0.922656	1.674788
0.922754	1.674093
0.922852	1.673649
0.922949	1.673242
0.923047	1.672775
0.923145	1.672300
0.923242	1.671715
0.923340	1.671103
0.923437	1.670245
0.923535	1.669283
0.923633	1.668209
0.923730	1.666951
0.923828	1.665679
0.923926	1.664248
0.924023	1.662690
0.924121	1.661176
0.924219	1.659623
0.924316	1.658157
0.924414	1.656940
0.924512	1.655627
0.924609	1.654693
0.924707	1.653866
0.924805	1.653104
0.924902	1.652625
0.925000	1.652113
0.925098	1.651826
0.925195	1.651631
0.925293	1.651576
0.925391	1.651677
0.925488	1.651701
0.925586	1.651995
0.925684	1.652175
0.925781	1.652485
0.925879	1.652692
0.925977	1.653009
0.926074	1.653373
0.926172	1.653799
0.926270	1.654114
0.926367	1.654549
0.926465	1.654824
0.926562	1.655106
0.926660	1.655271
0.926758	1.655352
0.926855	1.655537
0.926953	1.655504
0.927051	1.655522
0.927148	1.655404
0.927246	1.655217
0.927344	1.654993
0.927441	1.654859
0.927539	1.654657
0.927637	1.654500
0.927734	1.654309
0.927832	1.654229
0.927930	1.654004
0.928027	1.654104
0.928125	1.654292
0.928223	1.654313
0.928320	1.654517
0.928418	1.654702
0.928516	1.655053
0.928613	1.655382
0.928711	1.655780
0.928809	1.656261
0.928906	1.656814
0.929004	1.657425
0.929102	1.658120
0.929199	1.658775
0.929297	1.659601
0.929395	1.660352
0.929492	1.660988
0.929590	1.661866
0.929687	1.662513
0.929785	1.663310
0.929883	1.664010
0.929980	1.664707
0.930078	1.665394
0.930176	1.665944
0.930273	1.666638
0.930371	1.667259
0.930469	1.667974
0.930566	1.668637
0.930664	1.669418
0.930762	1.670191
0.930859	1.671120
0.930957	1.672087
0.931055	1.673064
0.931152	1.674124
0.931250	1.675237
0.931348	1.676391
0.931445	1.677453
0.931543	1.678501
0.931641	1.679575
0.931738	1.680721
0.931836	1.681855
0.931934	1.682973
0.932031	1.684176
0.932129	1.685325
0.932227	1.686259
0.932324	1.687247
0.932422	1.688132
0.932520	1.688929
0.932617	1.689743
0.932715	1.690369
0.932812	1.690916
0.932910	1.691282
0.933008	1.691716
0.933105	1.692146
0.933203	1.692683
0.933301	1.692776
0.933398	1.692827
0.933496	1.692757
0.933594	1.692633
0.933691	1.692354
0.933789	1.691957
0.933887	1.691412
0.933984	1.690896
0.934082	1.690361
0.934180	1.689343
0.934277	1.687709
0.934375	1.685693
0.934473	1.683399
0.934570	1.681514
0.934668	1.680136
0.934766	1.679459
0.934863	1.679275
0.934961	1.679019
0.935059	1.678498
0.935156	1.677986
0.935254	1.677704
0.935352	1.677284
0.935449	1.676808
0.935547	1.676359
0.935645	1.676268
0.935742	1.676424
0.935840	1.676727
0.935937	1.677031
0.936035	1.677510
0.936133	1.677969
0.936230	1.678498
0.936328	1.679127
0.936426	1.679533
0.936523	1.679987
0.936621	1.680353
0.936719	1.680580
0.936816	1.680838
0.936914	1.680978
0.937012	1.681006
0.937109	1.680966
0.937207	1.680666
0.937305	1.680297
0.937402	1.679824
0.937500	1.679228
0.937598	1.678609
0.937695	1.677898
0.937793	1.677186
0.937891	1.676505
0.937988	1.675851
0.938086	1.675339
0.938184	1.674474
0.938281	1.673739
0.938379	1.672824
0.938477	1.671948
0.938574	1.670939
0.938672	1.669986
0.938770	1.668815
0.938867	1.667571
0.938965	1.666395
0.939062	1.665120
0.939160	1.664032
0.939258	1.662915
0.939355	1.661979
0.939453	1.661268
0.939551	1.660527
0.939648	1.659937
0.939746	1.659505
0.939844	1.659100
0.939941	1.658821
0.940039	1.658585
0.940137	1.658353
0.940234	1.658289
0.940332	1.658166
0.940430	1.658170
0.940527	1.658126
0.940625	1.658113
0.940723	1.658268
0.940820	1.658379
0.940918	1.658513
0.941016	1.658789
0.941113	1.658999
0.941211	1.659432
0.941309	1.659670
0.941406	1.659990
0.941504	1.660295
0.941602	1.660650
0.941699	1.660917
0.941797	1.661335
0.941895	1.661604
0.941992	1.662057
0.942090	1.662516
0.942187	1.662978
0.942285	1.663497
0.942383	1.663901
0.942480	1.664370
0.942578	1.664819
0.942676	1.665218
0.942773	1.665661
0.942871	1.666017
0.942969	1.666401
0.943066	1.666850
0.943164	1.667309
0.943262	1.667725
0.943359	1.668383
0.943457	1.668923
0.943555	1.669547
0.943652	1.670053
0.943750	1.670763
0.943848	1.671260
0.943945	1.671809
0.944043	1.672377
0.944141	1.672893
0.944238	1.673337
0.944336	1.673870
0.944434	1.674347
0.944531	1.674910
0.944629	1.675314
0.944727	1.675861
0.944824	1.676265
0.944922	1.676853
0.945020	1.677239
0.945117	1.677641
0.945215	1.678080
0.945312	1.678499
0.945410	1.678911
0.945508	1.679310
0.945605	1.679614
0.945703	1.679899
0.945801	1.680076
0.945898	1.680262
0.945996	1.680411
0.946094	1.680531
0.946191	1.680578
0.946289	1.680656
0.946387	1.680453
0.946484	1.680420
0.946582	1.680210
0.946680	1.679691
0.946777	1.679438
0.946875	1.678763
0.946973	1.678254
0.947070	1.677562
0.947168	1.676835
0.947266	1.676017
0.947363	1.675329
0.947461	1.674589
0.947559	1.673804
0.947656	1.673127
0.947754	1.672552
0.947852	1.672006
0.947949	1.671467
0.948047	1.671226
0.948145	1.671053
0.948242	1.671032
0.948340	1.671113
0.948437	1.671328
0.948535	1.671572
0.948633	1.672034
0.948730	1.672518
0.948828	1.673183
0.948926	1.673727
0.949023	1.674517
0.949121	1.675127
0.949219	1.675870
0.949316	1.676466
0.949414	1.677034
0.949512	1.677404
0.949609	1.677787
0.949707	1.677962
0.949805	1.678134
0.949902	1.678186
0.950000	1.678330
0.950098	1.678228
0.950195	1.678186
0.950293	1.677993
0.950391	1.677870
0.950488	1.677626
0.950586	1.677312
0.950684	1.677021
0.950781	1.676708
0.950879	1.676381
0.950977	1.676040
0.951074	1.675783
0.951172	1.675512
0.951270	1.675307
0.951367	1.675068
0.951465	1.674913
0.951562	1.674694
0.951660	1.674512
0.951758	1.674349
0.951855	1.674229
0.951953	1.674152
0.952051	1.673826
0.952148	1.673822
0.952246	1.673559
0.952344	1.673348
0.952441	1.673023
0.952539	1.672684
0.952637	1.672239
0.952734	1.671694
0.952832	1.671191
0.952930	1.670592
0.953027	1.670029
0.953125	1.669508
0.953223	1.669025
0.953320	1.668612
0.953418	1.668258
0.953516	1.668010
0.953613	1.667771
0.953711	1.667701
0.953809	1.667801
0.953906	1.667940
0.954004	1.668236
0.954102	1.668518
0.954199	1.668937
0.954297	1.669346
0.954395	1.669774
0.954492	1.670220
0.954590	1.670706
0.954687	1.671155
0.954785	1.671572
0.954883	1.671843
0.954980	1.672026
0.955078	1.671846
0.955176	1.671808
0.955273	1.671667
0.955371	1.671500
0.955469	1.671282
0.955566	1.670772
0.955664	1.670219
0.955762	1.669452
0.955859	1.668587
0.955957	1.667815
0.956055	1.667177
0.956152	1.666746
0.956250	1.666352
0.956348	1.665948
0.956445	1.665449
0.956543	1.664843
0.956641	1.664299
0.956738	1.664059
0.956836	1.663876
0.956934	1.663825
0.957031	1.663862
0.957129	1.663867
0.957227	1.663965
0.957324	1.664183
0.957422	1.664436
0.957520	1.664737
0.957617	1.665252
0.957715	1.665773
0.957812	1.666243
0.957910	1.666800
0.958008	1.667558
0.958105	1.668290
0.958203	1.668994
0.958301	1.669697
0.958398	1.670578
0.958496	1.671396
0.958594	1.672311
0.958691	1.673311
0.958789	1.674179
0.958887	1.675176
0.958984	1.676042
0.959082	1.677053
0.959180	1.677911
0.959277	1.678792
0.959375	1.679562
0.959473	1.680376
0.959570	1.680967
0.959668	1.681666
0.959766	1.682131
0.959863	1.682622
0.959961	1.683055
0.960059	1.683402
0.960156	1.683736
0.960254	1.683988
0.960352	1.684425
0.960449	1.684814
0.960547	1.685251
0.960645	1.685707
0.960742	1.686230
0.960840	1.686881
0.960937	1.687568
0.961035	1.688263
0.961133	1.689027
0.961230	1.689794
0.961328	1.690480
0.961426	1.691216
0.961523	1.691920
0.961621	1.692630
0.961719	1.693208
0.961816	1.693680
0.961914	1.694053
0.962012	1.694277
0.962109	1.694323
0.962207	1.693970
0.962305	1.693521
0.962402	1.692974
0.962500	1.692504
0.962598	1.692011
0.962695	1.691764
0.962793	1.691596
0.962891	1.691674
0.962988	1.691803
0.963086	1.692203
0.963184	1.692626
0.963281	1.693164
0.963379	1.693542
0.963477	1.693874
0.963574	1.693793
0.963672	1.693505
0.963770	1.692975
0.963867	1.692065
0.963965	1.690992
0.964062	1.689536
0.964160	1.688010
0.964258	1.686243
0.964355	1.684668
0.964453	1.683097
0.964551	1.681668
0.964648	1.680461
0.964746	1.679448
0.964844	1.678521
0.964941	1.678046
0.965039	1.677576
0.965137	1.677390
0.965234	1.677339
0.965332	1.677439
0.965430	1.677558
0.965527	1.677662
0.965625	1.677704
0.965723	1.677433
0.965820	1.677218
0.965918	1.676693
0.966016	1.676112
0.966113	1.675437
0.966211	1.674817
0.966309	1.673969
0.966406	1.673067
0.966504	1.671855
0.966602	1.670603
0.966699	1.669037
0.966797	1.667421
0.966895	1.665809
0.966992	1.664135
0.967090	1.662594
0.967187	1.661077
0.967285	1.659474
0.967383	1.657987
0.967480	1.656599
0.967578	1.655241
0.967676	1.654019
0.967773	1.652805
0.967871	1.651667
0.967969	1.650443
0.968066	1.649509
0.968164	1.648542
0.968262	1.647582
0.968359	1.646740
0.968457	1.645903
0.968555	1.645247
0.968652	1.644547
0.968750	1.644027
0.968848	1.643525
0.968945	1.643198
0.969043	1.642958
0.969141	1.642850
0.969238	1.642900
0.969336	1.643112
0.969434	1.643362
0.969531	1.643787
0.969629	1.644274
0.969727	1.644865
0.969824	1.645492
0.969922	1.646187
0.970020	1.646886
0.970117	1.647673
0.970215	1.648570
0.970312	1.649465
0.970410	1.650450
0.970508	1.651479
0.970605	1.652451
0.970703	1.653654
0.970801	1.654815
0.970898	1.656121
0.970996	1.657276
0.971094	1.658669
0.971191	1.659936
0.971289	1.661226
0.971387	1.662459
0.971484	1.663632
0.971582	1.664813
0.971680	1.665930
0.971777	1.666987
0.971875	1.668288
0.971973	1.669538
0.972070	1.670761
0.972168	1.672074
0.972266	1.673330
0.972363	1.674534
0.972461	1.675793
0.972559	1.677057
0.972656	1.678107
0.972754	1.679208
0.972852	1.680203
0.972949	1.681072
0.973047	1.681809
0.973145	1.682572
0.973242	1.683484
0.973340	1.684523
0.973437	1.685654
0.973535	1.686904
0.973633	1.688315
0.973730	1.689697
0.973828	1.691280
0.973926	1.692700
0.974023	1.693915
0.974121	1.694827
0.974219	1.695204
0.974316	1.695219
0.974414	1.694795
0.974512	1.694260
0.974609	1.693850
0.974707	1.693457
0.974805	1.693466
0.974902	1.693714
0.975000	1.694308
0.975098	1.695071
0.975195	1.696147
0.975293	1.697269
0.975391	1.698474
0.975488	1.699670
0.975586	1.700407
0.975684	1.700840
0.975781	1.701065
0.975879	1.701078
0.975977	1.700902
0.976074	1.700618
0.976172	1.700274
0.976270	1.699871
0.976367	1.699648
0.976465	1.699474

