LabVIEW Measurement	
Writer_Version	2
Reader_Version	2
Separator	Tab
Decimal_Separator	.
Multi_Headings	Yes
X_Columns	One
Time_Pref	Absolute
Operator	W-Tunnel
Date	1904/01/01
Time	01:00:00
***End_of_Header***	
	
Channels	1	
Samples	10000	
Date	2024/05/17	
Time	18:27:12.7964051562496000293	
Y_Unit_Label	Volts	
X_Dimension	Time	
X0	0.0000000000000000E+0	
Delta_X	9.765625E-5	
***End_of_Header***		
X_Value	Voltage	Comment
0.000000	1.616160
9.765625E-5	1.610787
0.000195	1.606558
0.000293	1.612566
0.000391	1.623292
0.000488	1.625841
0.000586	1.628793
0.000684	1.631489
0.000781	1.624509
0.000879	1.612196
0.000977	1.589351
0.001074	1.582794
0.001172	1.579447
0.001270	1.578520
0.001367	1.572147
0.001465	1.561035
0.001562	1.554266
0.001660	1.548264
0.001758	1.546143
0.001855	1.537877
0.001953	1.531669
0.002051	1.538712
0.002148	1.533763
0.002246	1.538590
0.002344	1.552834
0.002441	1.565418
0.002539	1.563934
0.002637	1.575789
0.002734	1.589327
0.002832	1.603791
0.002930	1.617558
0.003027	1.623338
0.003125	1.626429
0.003223	1.613074
0.003320	1.611868
0.003418	1.616334
0.003516	1.622871
0.003613	1.625483
0.003711	1.628383
0.003809	1.628057
0.003906	1.619919
0.004004	1.618082
0.004102	1.617669
0.004199	1.617213
0.004297	1.611938
0.004395	1.614685
0.004492	1.614482
0.004590	1.615233
0.004687	1.621481
0.004785	1.618986
0.004883	1.621654
0.004980	1.626046
0.005078	1.628120
0.005176	1.622569
0.005273	1.627190
0.005371	1.638115
0.005469	1.636128
0.005566	1.635359
0.005664	1.628398
0.005762	1.619045
0.005859	1.611899
0.005957	1.599034
0.006055	1.582760
0.006152	1.578592
0.006250	1.586592
0.006348	1.589854
0.006445	1.589571
0.006543	1.588640
0.006641	1.581586
0.006738	1.595580
0.006836	1.607469
0.006934	1.617509
0.007031	1.624176
0.007129	1.628760
0.007227	1.625947
0.007324	1.623263
0.007422	1.624632
0.007520	1.626493
0.007617	1.621274
0.007715	1.612163
0.007812	1.620411
0.007910	1.626625
0.008008	1.629206
0.008105	1.627277
0.008203	1.609912
0.008301	1.583563
0.008398	1.599942
0.008496	1.615726
0.008594	1.615887
0.008691	1.619597
0.008789	1.620839
0.008887	1.624347
0.008984	1.632669
0.009082	1.631478
0.009180	1.613119
0.009277	1.607806
0.009375	1.614799
0.009473	1.604247
0.009570	1.612454
0.009668	1.613881
0.009766	1.610240
0.009863	1.611026
0.009961	1.618408
0.010059	1.630485
0.010156	1.641779
0.010254	1.627303
0.010352	1.617291
0.010449	1.611594
0.010547	1.608286
0.010645	1.613429
0.010742	1.609250
0.010840	1.598670
0.010937	1.589601
0.011035	1.592573
0.011133	1.600731
0.011230	1.591289
0.011328	1.574953
0.011426	1.561129
0.011523	1.543179
0.011621	1.535172
0.011719	1.547220
0.011816	1.574767
0.011914	1.588988
0.012012	1.607162
0.012109	1.621130
0.012207	1.614447
0.012305	1.612727
0.012402	1.612086
0.012500	1.612856
0.012598	1.619935
0.012695	1.624903
0.012793	1.624917
0.012891	1.623428
0.012988	1.613808
0.013086	1.608522
0.013184	1.608724
0.013281	1.614220
0.013379	1.610608
0.013477	1.604520
0.013574	1.626700
0.013672	1.631079
0.013770	1.624695
0.013867	1.621781
0.013965	1.619032
0.014062	1.619162
0.014160	1.618142
0.014258	1.618027
0.014355	1.610453
0.014453	1.594276
0.014551	1.582922
0.014648	1.586735
0.014746	1.589293
0.014844	1.589940
0.014941	1.586420
0.015039	1.585733
0.015137	1.592297
0.015234	1.597475
0.015332	1.595937
0.015430	1.595266
0.015527	1.598722
0.015625	1.605959
0.015723	1.611276
0.015820	1.617449
0.015918	1.607827
0.016016	1.581854
0.016113	1.585010
0.016211	1.586124
0.016309	1.573741
0.016406	1.566546
0.016504	1.566109
0.016602	1.578034
0.016699	1.600940
0.016797	1.613532
0.016895	1.613403
0.016992	1.611120
0.017090	1.600647
0.017187	1.585111
0.017285	1.589985
0.017383	1.594313
0.017480	1.585849
0.017578	1.577310
0.017676	1.587145
0.017773	1.617517
0.017871	1.625542
0.017969	1.623300
0.018066	1.625862
0.018164	1.624654
0.018262	1.625775
0.018359	1.623550
0.018457	1.621957
0.018555	1.618608
0.018652	1.616245
0.018750	1.605094
0.018848	1.588177
0.018945	1.583528
0.019043	1.579368
0.019141	1.577088
0.019238	1.594832
0.019336	1.625761
0.019434	1.628500
0.019531	1.629424
0.019629	1.629000
0.019727	1.617387
0.019824	1.598108
0.019922	1.603389
0.020020	1.610107
0.020117	1.617803
0.020215	1.623984
0.020312	1.634037
0.020410	1.633216
0.020508	1.629988
0.020605	1.628767
0.020703	1.625273
0.020801	1.624136
0.020898	1.622137
0.020996	1.620502
0.021094	1.617339
0.021191	1.595332
0.021289	1.585517
0.021387	1.603376
0.021484	1.625532
0.021582	1.636837
0.021680	1.630974
0.021777	1.631401
0.021875	1.634158
0.021973	1.627625
0.022070	1.621780
0.022168	1.609428
0.022266	1.611070
0.022363	1.619797
0.022461	1.627857
0.022559	1.632272
0.022656	1.632819
0.022754	1.628732
0.022852	1.626026
0.022949	1.622953
0.023047	1.621443
0.023145	1.619447
0.023242	1.617473
0.023340	1.619631
0.023437	1.622843
0.023535	1.617348
0.023633	1.603514
0.023730	1.599231
0.023828	1.599649
0.023926	1.584128
0.024023	1.564188
0.024121	1.566314
0.024219	1.571823
0.024316	1.570371
0.024414	1.563917
0.024512	1.557832
0.024609	1.553654
0.024707	1.538281
0.024805	1.531285
0.024902	1.537267
0.025000	1.561580
0.025098	1.569689
0.025195	1.581150
0.025293	1.603268
0.025391	1.610693
0.025488	1.614652
0.025586	1.624930
0.025684	1.625736
0.025781	1.624194
0.025879	1.619321
0.025977	1.622540
0.026074	1.622678
0.026172	1.612932
0.026270	1.598556
0.026367	1.603197
0.026465	1.609099
0.026562	1.603449
0.026660	1.603851
0.026758	1.605488
0.026855	1.609843
0.026953	1.614486
0.027051	1.609711
0.027148	1.603521
0.027246	1.575804
0.027344	1.557945
0.027441	1.566760
0.027539	1.573146
0.027637	1.587690
0.027734	1.603949
0.027832	1.611255
0.027930	1.614027
0.028027	1.610041
0.028125	1.606096
0.028223	1.600768
0.028320	1.608913
0.028418	1.624946
0.028516	1.621996
0.028613	1.623631
0.028711	1.618375
0.028809	1.618999
0.028906	1.619958
0.029004	1.626372
0.029102	1.625227
0.029199	1.625323
0.029297	1.623289
0.029395	1.627364
0.029492	1.626148
0.029590	1.625870
0.029687	1.612672
0.029785	1.611968
0.029883	1.604248
0.029980	1.596538
0.030078	1.594817
0.030176	1.591993
0.030273	1.606108
0.030371	1.600731
0.030469	1.597191
0.030566	1.590041
0.030664	1.587417
0.030762	1.587209
0.030859	1.587144
0.030957	1.580880
0.031055	1.579051
0.031152	1.599356
0.031250	1.620994
0.031348	1.629087
0.031445	1.623893
0.031543	1.616035
0.031641	1.610695
0.031738	1.610129
0.031836	1.612019
0.031934	1.610975
0.032031	1.606780
0.032129	1.617747
0.032227	1.628551
0.032324	1.618713
0.032422	1.610475
0.032520	1.614752
0.032617	1.619219
0.032715	1.622744
0.032812	1.634871
0.032910	1.618184
0.033008	1.605325
0.033105	1.612768
0.033203	1.607150
0.033301	1.608738
0.033398	1.594679
0.033496	1.608514
0.033594	1.623045
0.033691	1.634018
0.033789	1.628969
0.033887	1.614533
0.033984	1.615799
0.034082	1.620570
0.034180	1.617016
0.034277	1.599853
0.034375	1.599785
0.034473	1.608068
0.034570	1.615840
0.034668	1.617079
0.034766	1.618613
0.034863	1.626362
0.034961	1.620057
0.035059	1.611076
0.035156	1.612109
0.035254	1.616771
0.035352	1.621638
0.035449	1.619353
0.035547	1.623873
0.035645	1.626086
0.035742	1.629284
0.035840	1.631266
0.035937	1.632791
0.036035	1.633566
0.036133	1.634637
0.036230	1.634841
0.036328	1.634314
0.036426	1.631749
0.036523	1.632214
0.036621	1.631373
0.036719	1.628061
0.036816	1.627646
0.036914	1.626476
0.037012	1.625308
0.037109	1.624640
0.037207	1.624358
0.037305	1.629310
0.037402	1.630179
0.037500	1.626775
0.037598	1.625798
0.037695	1.622024
0.037793	1.622674
0.037891	1.623480
0.037988	1.624409
0.038086	1.620986
0.038184	1.613954
0.038281	1.608553
0.038379	1.621056
0.038477	1.635881
0.038574	1.631387
0.038672	1.634343
0.038770	1.625807
0.038867	1.624835
0.038965	1.628181
0.039062	1.630623
0.039160	1.632762
0.039258	1.633856
0.039355	1.632902
0.039453	1.631501
0.039551	1.629300
0.039648	1.627358
0.039746	1.623297
0.039844	1.617218
0.039941	1.607528
0.040039	1.593670
0.040137	1.579105
0.040234	1.567473
0.040332	1.554584
0.040430	1.551113
0.040527	1.555853
0.040625	1.562630
0.040723	1.570810
0.040820	1.581727
0.040918	1.603425
0.041016	1.612627
0.041113	1.609074
0.041211	1.601460
0.041309	1.593122
0.041406	1.594235
0.041504	1.599116
0.041602	1.597185
0.041699	1.602182
0.041797	1.610788
0.041895	1.614359
0.041992	1.607542
0.042090	1.603564
0.042187	1.618102
0.042285	1.614689
0.042383	1.614073
0.042480	1.618122
0.042578	1.611768
0.042676	1.616451
0.042773	1.620837
0.042871	1.625870
0.042969	1.627522
0.043066	1.628148
0.043164	1.630005
0.043262	1.629057
0.043359	1.626755
0.043457	1.624067
0.043555	1.622923
0.043652	1.620970
0.043750	1.612737
0.043848	1.606912
0.043945	1.611190
0.044043	1.599785
0.044141	1.610238
0.044238	1.650420
0.044336	1.640718
0.044434	1.636328
0.044531	1.631616
0.044629	1.626869
0.044727	1.623580
0.044824	1.624712
0.044922	1.625464
0.045020	1.627443
0.045117	1.628815
0.045215	1.632504
0.045312	1.633801
0.045410	1.631829
0.045508	1.630124
0.045605	1.629083
0.045703	1.629714
0.045801	1.632147
0.045898	1.639614
0.045996	1.648097
0.046094	1.635656
0.046191	1.620010
0.046289	1.601372
0.046387	1.578248
0.046484	1.605082
0.046582	1.600703
0.046680	1.597192
0.046777	1.589919
0.046875	1.581071
0.046973	1.576549
0.047070	1.557975
0.047168	1.556942
0.047266	1.556611
0.047363	1.557441
0.047461	1.570196
0.047559	1.589867
0.047656	1.588665
0.047754	1.590895
0.047852	1.599891
0.047949	1.605742
0.048047	1.621649
0.048145	1.626059
0.048242	1.623413
0.048340	1.617802
0.048437	1.615233
0.048535	1.612006
0.048633	1.612114
0.048730	1.610171
0.048828	1.608918
0.048926	1.610674
0.049023	1.602177
0.049121	1.604766
0.049219	1.607587
0.049316	1.614098
0.049414	1.620174
0.049512	1.615679
0.049609	1.609366
0.049707	1.599554
0.049805	1.586633
0.049902	1.613816
0.050000	1.607339
0.050098	1.615728
0.050195	1.638222
0.050293	1.623857
0.050391	1.620670
0.050488	1.607028
0.050586	1.599525
0.050684	1.592639
0.050781	1.597511
0.050879	1.598739
0.050977	1.592633
0.051074	1.581606
0.051172	1.570943
0.051270	1.562072
0.051367	1.561015
0.051465	1.568066
0.051562	1.583447
0.051660	1.588375
0.051758	1.587222
0.051855	1.578190
0.051953	1.571738
0.052051	1.567606
0.052148	1.563219
0.052246	1.564700
0.052344	1.570959
0.052441	1.599016
0.052539	1.613954
0.052637	1.622420
0.052734	1.625539
0.052832	1.624199
0.052930	1.623508
0.053027	1.631358
0.053125	1.630006
0.053223	1.627277
0.053320	1.632834
0.053418	1.636469
0.053516	1.639188
0.053613	1.637626
0.053711	1.636383
0.053809	1.632499
0.053906	1.615100
0.054004	1.616224
0.054102	1.617905
0.054199	1.619626
0.054297	1.621155
0.054395	1.628594
0.054492	1.625192
0.054590	1.627116
0.054687	1.638459
0.054785	1.641588
0.054883	1.636904
0.054980	1.633504
0.055078	1.633535
0.055176	1.633371
0.055273	1.633476
0.055371	1.629573
0.055469	1.624238
0.055566	1.619897
0.055664	1.619715
0.055762	1.617643
0.055859	1.613620
0.055957	1.610411
0.056055	1.603690
0.056152	1.594306
0.056250	1.595968
0.056348	1.592079
0.056445	1.605729
0.056543	1.614434
0.056641	1.613539
0.056738	1.620119
0.056836	1.609739
0.056934	1.591254
0.057031	1.598189
0.057129	1.585585
0.057227	1.568016
0.057324	1.567190
0.057422	1.582938
0.057520	1.610772
0.057617	1.625246
0.057715	1.612255
0.057812	1.609557
0.057910	1.615986
0.058008	1.623294
0.058105	1.620106
0.058203	1.619479
0.058301	1.624078
0.058398	1.619609
0.058496	1.617494
0.058594	1.603886
0.058691	1.599424
0.058789	1.600940
0.058887	1.603861
0.058984	1.604732
0.059082	1.616266
0.059180	1.619962
0.059277	1.621628
0.059375	1.624976
0.059473	1.628596
0.059570	1.627382
0.059668	1.624447
0.059766	1.623677
0.059863	1.624519
0.059961	1.626096
0.060059	1.627381
0.060156	1.622477
0.060254	1.617362
0.060352	1.617968
0.060449	1.620228
0.060547	1.618195
0.060645	1.611435
0.060742	1.601640
0.060840	1.601353
0.060937	1.605810
0.061035	1.599699
0.061133	1.594974
0.061230	1.598612
0.061328	1.586570
0.061426	1.578071
0.061523	1.581420
0.061621	1.563719
0.061719	1.557112
0.061816	1.573578
0.061914	1.581848
0.062012	1.585429
0.062109	1.601622
0.062207	1.591539
0.062305	1.611902
0.062402	1.616954
0.062500	1.621264
0.062598	1.622053
0.062695	1.622988
0.062793	1.623543
0.062891	1.627135
0.062988	1.631873
0.063086	1.633263
0.063184	1.633861
0.063281	1.633607
0.063379	1.636989
0.063477	1.636284
0.063574	1.631923
0.063672	1.633098
0.063770	1.631020
0.063867	1.627077
0.063965	1.619111
0.064062	1.626138
0.064160	1.627921
0.064258	1.627906
0.064355	1.633756
0.064453	1.632115
0.064551	1.632801
0.064648	1.638764
0.064746	1.643166
0.064844	1.641287
0.064941	1.640172
0.065039	1.638493
0.065137	1.632206
0.065234	1.624693
0.065332	1.624668
0.065430	1.624535
0.065527	1.626492
0.065625	1.625612
0.065723	1.624121
0.065820	1.619825
0.065918	1.612027
0.066016	1.593820
0.066113	1.591222
0.066211	1.601708
0.066309	1.590278
0.066406	1.586638
0.066504	1.591456
0.066602	1.599683
0.066699	1.613442
0.066797	1.609498
0.066895	1.612151
0.066992	1.626767
0.067090	1.626009
0.067187	1.623070
0.067285	1.629537
0.067383	1.632670
0.067480	1.629862
0.067578	1.625216
0.067676	1.628768
0.067773	1.635131
0.067871	1.624462
0.067969	1.610450
0.068066	1.605520
0.068164	1.607592
0.068262	1.614556
0.068359	1.623114
0.068457	1.625163
0.068555	1.628037
0.068652	1.622320
0.068750	1.616879
0.068848	1.625651
0.068945	1.631137
0.069043	1.629227
0.069141	1.628672
0.069238	1.628781
0.069336	1.627593
0.069434	1.626147
0.069531	1.625119
0.069629	1.614641
0.069727	1.596924
0.069824	1.592377
0.069922	1.592040
0.070020	1.589955
0.070117	1.585114
0.070215	1.581739
0.070312	1.571287
0.070410	1.566903
0.070508	1.570186
0.070605	1.570920
0.070703	1.551498
0.070801	1.558573
0.070898	1.594798
0.070996	1.595272
0.071094	1.593519
0.071191	1.598244
0.071289	1.607492
0.071387	1.610093
0.071484	1.615398
0.071582	1.615322
0.071680	1.612428
0.071777	1.613457
0.071875	1.617190
0.071973	1.620817
0.072070	1.629960
0.072168	1.629214
0.072266	1.624743
0.072363	1.618166
0.072461	1.604821
0.072559	1.609796
0.072656	1.604962
0.072754	1.603180
0.072852	1.606116
0.072949	1.617928
0.073047	1.619822
0.073145	1.625527
0.073242	1.626308
0.073340	1.626984
0.073437	1.613088
0.073535	1.605369
0.073633	1.606195
0.073730	1.608810
0.073828	1.604625
0.073926	1.609788
0.074023	1.625722
0.074121	1.624552
0.074219	1.622390
0.074316	1.622726
0.074414	1.627920
0.074512	1.631149
0.074609	1.632167
0.074707	1.632514
0.074805	1.632865
0.074902	1.630545
0.075000	1.631530
0.075098	1.631170
0.075195	1.630368
0.075293	1.625828
0.075391	1.620385
0.075488	1.613652
0.075586	1.601682
0.075684	1.606790
0.075781	1.617874
0.075879	1.607105
0.075977	1.602397
0.076074	1.593519
0.076172	1.593621
0.076270	1.585965
0.076367	1.572858
0.076465	1.578774
0.076562	1.589500
0.076660	1.601198
0.076758	1.609970
0.076855	1.611645
0.076953	1.622246
0.077051	1.637175
0.077148	1.631600
0.077246	1.617041
0.077344	1.613694
0.077441	1.612329
0.077539	1.616742
0.077637	1.617294
0.077734	1.618491
0.077832	1.620201
0.077930	1.621737
0.078027	1.613830
0.078125	1.612314
0.078223	1.619834
0.078320	1.606066
0.078418	1.602344
0.078516	1.602231
0.078613	1.586217
0.078711	1.600774
0.078809	1.601002
0.078906	1.592514
0.079004	1.608290
0.079102	1.605495
0.079199	1.602601
0.079297	1.619566
0.079395	1.619948
0.079492	1.622315
0.079590	1.626004
0.079687	1.625360
0.079785	1.626962
0.079883	1.627388
0.079980	1.623368
0.080078	1.621298
0.080176	1.618250
0.080273	1.613158
0.080371	1.612595
0.080469	1.621756
0.080566	1.628859
0.080664	1.630653
0.080762	1.627698
0.080859	1.627651
0.080957	1.628286
0.081055	1.627935
0.081152	1.627412
0.081250	1.625106
0.081348	1.624197
0.081445	1.621333
0.081543	1.623985
0.081641	1.622739
0.081738	1.622277
0.081836	1.602659
0.081934	1.592856
0.082031	1.606625
0.082129	1.610455
0.082227	1.608462
0.082324	1.604849
0.082422	1.608702
0.082520	1.601361
0.082617	1.590570
0.082715	1.585318
0.082812	1.588748
0.082910	1.602967
0.083008	1.620601
0.083105	1.621906
0.083203	1.624321
0.083301	1.621338
0.083398	1.627760
0.083496	1.640617
0.083594	1.634200
0.083691	1.628634
0.083789	1.619417
0.083887	1.615568
0.083984	1.616884
0.084082	1.617500
0.084180	1.620626
0.084277	1.624834
0.084375	1.622974
0.084473	1.619150
0.084570	1.604875
0.084668	1.599232
0.084766	1.610133
0.084863	1.607999
0.084961	1.619168
0.085059	1.621501
0.085156	1.620867
0.085254	1.619214
0.085352	1.619165
0.085449	1.619565
0.085547	1.616964
0.085645	1.617300
0.085742	1.621150
0.085840	1.622284
0.085937	1.624485
0.086035	1.622263
0.086133	1.624834
0.086230	1.632294
0.086328	1.634961
0.086426	1.634592
0.086523	1.632706
0.086621	1.627087
0.086719	1.627620
0.086816	1.623279
0.086914	1.621329
0.087012	1.608996
0.087109	1.603531
0.087207	1.586706
0.087305	1.569592
0.087402	1.577127
0.087500	1.585575
0.087598	1.606005
0.087695	1.594924
0.087793	1.585521
0.087891	1.569126
0.087988	1.562329
0.088086	1.566819
0.088184	1.568093
0.088281	1.577821
0.088379	1.591134
0.088477	1.595154
0.088574	1.594108
0.088672	1.589726
0.088770	1.579021
0.088867	1.592064
0.088965	1.594186
0.089062	1.594669
0.089160	1.600196
0.089258	1.603510
0.089355	1.613883
0.089453	1.616723
0.089551	1.615573
0.089648	1.620407
0.089746	1.632950
0.089844	1.626504
0.089941	1.617965
0.090039	1.613145
0.090137	1.611707
0.090234	1.610229
0.090332	1.610050
0.090430	1.616322
0.090527	1.619417
0.090625	1.610646
0.090723	1.602887
0.090820	1.611746
0.090918	1.622040
0.091016	1.615012
0.091113	1.613740
0.091211	1.615114
0.091309	1.625256
0.091406	1.630047
0.091504	1.635677
0.091602	1.627928
0.091699	1.625255
0.091797	1.627628
0.091895	1.627100
0.091992	1.627735
0.092090	1.627899
0.092187	1.625219
0.092285	1.622015
0.092383	1.625828
0.092480	1.621726
0.092578	1.612110
0.092676	1.599991
0.092773	1.592501
0.092871	1.600612
0.092969	1.613336
0.093066	1.622671
0.093164	1.624043
0.093262	1.619857
0.093359	1.622651
0.093457	1.624449
0.093555	1.620585
0.093652	1.612612
0.093750	1.607319
0.093848	1.600871
0.093945	1.607352
0.094043	1.625462
0.094141	1.631518
0.094238	1.630158
0.094336	1.625670
0.094434	1.627027
0.094531	1.628428
0.094629	1.632431
0.094727	1.635165
0.094824	1.633889
0.094922	1.627519
0.095020	1.619457
0.095117	1.610593
0.095215	1.592829
0.095312	1.580102
0.095410	1.574424
0.095508	1.583118
0.095605	1.595794
0.095703	1.591716
0.095801	1.583918
0.095898	1.602538
0.095996	1.617862
0.096094	1.616141
0.096191	1.618869
0.096289	1.628998
0.096387	1.632131
0.096484	1.622356
0.096582	1.620360
0.096680	1.621489
0.096777	1.624792
0.096875	1.623881
0.096973	1.616596
0.097070	1.618901
0.097168	1.624022
0.097266	1.632242
0.097363	1.632372
0.097461	1.634649
0.097559	1.629459
0.097656	1.619529
0.097754	1.617892
0.097852	1.622743
0.097949	1.629259
0.098047	1.631747
0.098145	1.631217
0.098242	1.630424
0.098340	1.630741
0.098437	1.630455
0.098535	1.630514
0.098633	1.629416
0.098730	1.625099
0.098828	1.619768
0.098926	1.622790
0.099023	1.625834
0.099121	1.628545
0.099219	1.630898
0.099316	1.633146
0.099414	1.636146
0.099512	1.640536
0.099609	1.641450
0.099707	1.637318
0.099805	1.629592
0.099902	1.620198
0.100000	1.604982
0.100098	1.599248
0.100195	1.599053
0.100293	1.594380
0.100391	1.611155
0.100488	1.604727
0.100586	1.614939
0.100684	1.630601
0.100781	1.630016
0.100879	1.630427
0.100977	1.633184
0.101074	1.627708
0.101172	1.621046
0.101270	1.619139
0.101367	1.621077
0.101465	1.615605
0.101562	1.609620
0.101660	1.624679
0.101758	1.632902
0.101855	1.632921
0.101953	1.624856
0.102051	1.626364
0.102148	1.618362
0.102246	1.595484
0.102344	1.594826
0.102441	1.610471
0.102539	1.611479
0.102637	1.613967
0.102734	1.615986
0.102832	1.622830
0.102930	1.627771
0.103027	1.629862
0.103125	1.630617
0.103223	1.630326
0.103320	1.631358
0.103418	1.633021
0.103516	1.630640
0.103613	1.627905
0.103711	1.628754
0.103809	1.630622
0.103906	1.629894
0.104004	1.614016
0.104102	1.611872
0.104199	1.627913
0.104297	1.627850
0.104395	1.627556
0.104492	1.627177
0.104590	1.632593
0.104687	1.634523
0.104785	1.634460
0.104883	1.631439
0.104980	1.630935
0.105078	1.629271
0.105176	1.630461
0.105273	1.627896
0.105371	1.630653
0.105469	1.631628
0.105566	1.624099
0.105664	1.613597
0.105762	1.579657
0.105859	1.562751
0.105957	1.575484
0.106055	1.588666
0.106152	1.602020
0.106250	1.600777
0.106348	1.596117
0.106445	1.590655
0.106543	1.593004
0.106641	1.582965
0.106738	1.583586
0.106836	1.585932
0.106934	1.586228
0.107031	1.596150
0.107129	1.603634
0.107227	1.592132
0.107324	1.582783
0.107422	1.588622
0.107520	1.593260
0.107617	1.599733
0.107715	1.602147
0.107812	1.619226
0.107910	1.626155
0.108008	1.630428
0.108105	1.630402
0.108203	1.631033
0.108301	1.635259
0.108398	1.639387
0.108496	1.640041
0.108594	1.643027
0.108691	1.649234
0.108789	1.641307
0.108887	1.632887
0.108984	1.628469
0.109082	1.624716
0.109180	1.622910
0.109277	1.622677
0.109375	1.624266
0.109473	1.629945
0.109570	1.629834
0.109668	1.634676
0.109766	1.638445
0.109863	1.633533
0.109961	1.631729
0.110059	1.631677
0.110156	1.624129
0.110254	1.624053
0.110352	1.622143
0.110449	1.617670
0.110547	1.622888
0.110645	1.625149
0.110742	1.628267
0.110840	1.624145
0.110937	1.620351
0.111035	1.605869
0.111133	1.585270
0.111230	1.582613
0.111328	1.587001
0.111426	1.602559
0.111523	1.625277
0.111621	1.624099
0.111719	1.621537
0.111816	1.625197
0.111914	1.624706
0.112012	1.625354
0.112109	1.630148
0.112207	1.628878
0.112305	1.627024
0.112402	1.626172
0.112500	1.625683
0.112598	1.627072
0.112695	1.630119
0.112793	1.635044
0.112891	1.629787
0.112988	1.622916
0.113086	1.607309
0.113184	1.604631
0.113281	1.609187
0.113379	1.602426
0.113477	1.596132
0.113574	1.615859
0.113672	1.621338
0.113770	1.619687
0.113867	1.615477
0.113965	1.618300
0.114062	1.607327
0.114160	1.603092
0.114258	1.604614
0.114355	1.622092
0.114453	1.625733
0.114551	1.615828
0.114648	1.623798
0.114746	1.626429
0.114844	1.630999
0.114941	1.625637
0.115039	1.625567
0.115137	1.622919
0.115234	1.621773
0.115332	1.617528
0.115430	1.610458
0.115527	1.597918
0.115625	1.591001
0.115723	1.582944
0.115820	1.582374
0.115918	1.593794
0.116016	1.592050
0.116113	1.584847
0.116211	1.583388
0.116309	1.591898
0.116406	1.610555
0.116504	1.616764
0.116602	1.619394
0.116699	1.623442
0.116797	1.628857
0.116895	1.624915
0.116992	1.621941
0.117090	1.623378
0.117187	1.626337
0.117285	1.623854
0.117383	1.628005
0.117480	1.632215
0.117578	1.632624
0.117676	1.624869
0.117773	1.616081
0.117871	1.602749
0.117969	1.590990
0.118066	1.579128
0.118164	1.577232
0.118262	1.578591
0.118359	1.586023
0.118457	1.588338
0.118555	1.591397
0.118652	1.579862
0.118750	1.574379
0.118848	1.570776
0.118945	1.584135
0.119043	1.582298
0.119141	1.572110
0.119238	1.548565
0.119336	1.545920
0.119434	1.567343
0.119531	1.572232
0.119629	1.571385
0.119727	1.553584
0.119824	1.550925
0.119922	1.570054
0.120020	1.604719
0.120117	1.617076
0.120215	1.616301
0.120312	1.622214
0.120410	1.620050
0.120508	1.620502
0.120605	1.618141
0.120703	1.618613
0.120801	1.620007
0.120898	1.623474
0.120996	1.632200
0.121094	1.634759
0.121191	1.624697
0.121289	1.621917
0.121387	1.611616
0.121484	1.621117
0.121582	1.609534
0.121680	1.602130
0.121777	1.606757
0.121875	1.603417
0.121973	1.611924
0.122070	1.609879
0.122168	1.600104
0.122266	1.586978
0.122363	1.591871
0.122461	1.585582
0.122559	1.564724
0.122656	1.537843
0.122754	1.526920
0.122852	1.520509
0.122949	1.508359
0.123047	1.497706
0.123145	1.509016
0.123242	1.519402
0.123340	1.527474
0.123437	1.547319
0.123535	1.563643
0.123633	1.589352
0.123730	1.601696
0.123828	1.610231
0.123926	1.614981
0.124023	1.617112
0.124121	1.618478
0.124219	1.618852
0.124316	1.621882
0.124414	1.612507
0.124512	1.612864
0.124609	1.626699
0.124707	1.627240
0.124805	1.628024
0.124902	1.621337
0.125000	1.607531
0.125098	1.590315
0.125195	1.581479
0.125293	1.575649
0.125391	1.563060
0.125488	1.575103
0.125586	1.593559
0.125684	1.589321
0.125781	1.581385
0.125879	1.594008
0.125977	1.609212
0.126074	1.616059
0.126172	1.611769
0.126270	1.602595
0.126367	1.586761
0.126465	1.586799
0.126562	1.594504
0.126660	1.603976
0.126758	1.621289
0.126855	1.624756
0.126953	1.622533
0.127051	1.622013
0.127148	1.624459
0.127246	1.626865
0.127344	1.627468
0.127441	1.630651
0.127539	1.636434
0.127637	1.636586
0.127734	1.635160
0.127832	1.626142
0.127930	1.624357
0.128027	1.629925
0.128125	1.628514
0.128223	1.630038
0.128320	1.630342
0.128418	1.631302
0.128516	1.629607
0.128613	1.621307
0.128711	1.604239
0.128809	1.590553
0.128906	1.590517
0.129004	1.605537
0.129102	1.620013
0.129199	1.625596
0.129297	1.614120
0.129395	1.581150
0.129492	1.549805
0.129590	1.543369
0.129687	1.548670
0.129785	1.544816
0.129883	1.542545
0.129980	1.550561
0.130078	1.568528
0.130176	1.592677
0.130273	1.610158
0.130371	1.619878
0.130469	1.607701
0.130566	1.602701
0.130664	1.610410
0.130762	1.614570
0.130859	1.619649
0.130957	1.624726
0.131055	1.629778
0.131152	1.628281
0.131250	1.620468
0.131348	1.609518
0.131445	1.602850
0.131543	1.605726
0.131641	1.597812
0.131738	1.612320
0.131836	1.615543
0.131934	1.612046
0.132031	1.618041
0.132129	1.624837
0.132227	1.599901
0.132324	1.582556
0.132422	1.594213
0.132520	1.593579
0.132617	1.595016
0.132715	1.607553
0.132812	1.614357
0.132910	1.611378
0.133008	1.617156
0.133105	1.619561
0.133203	1.622307
0.133301	1.625300
0.133398	1.629936
0.133496	1.631098
0.133594	1.630065
0.133691	1.627830
0.133789	1.626321
0.133887	1.623852
0.133984	1.618621
0.134082	1.608157
0.134180	1.609544
0.134277	1.612537
0.134375	1.613336
0.134473	1.602035
0.134570	1.590452
0.134668	1.596906
0.134766	1.595315
0.134863	1.591960
0.134961	1.588511
0.135059	1.582791
0.135156	1.588987
0.135254	1.596278
0.135352	1.590802
0.135449	1.600159
0.135547	1.613270
0.135645	1.616603
0.135742	1.622921
0.135840	1.618431
0.135937	1.615074
0.136035	1.609679
0.136133	1.596632
0.136230	1.583722
0.136328	1.577140
0.136426	1.576734
0.136523	1.586139
0.136621	1.590360
0.136719	1.597328
0.136816	1.612978
0.136914	1.614337
0.137012	1.608493
0.137109	1.604511
0.137207	1.600384
0.137305	1.613220
0.137402	1.615973
0.137500	1.609963
0.137598	1.620133
0.137695	1.623616
0.137793	1.618308
0.137891	1.613015
0.137988	1.615544
0.138086	1.618134
0.138184	1.616908
0.138281	1.615500
0.138379	1.599825
0.138477	1.588842
0.138574	1.587897
0.138672	1.587301
0.138770	1.608720
0.138867	1.608196
0.138965	1.607712
0.139062	1.611802
0.139160	1.617678
0.139258	1.610104
0.139355	1.600663
0.139453	1.605655
0.139551	1.609790
0.139648	1.615153
0.139746	1.623435
0.139844	1.621451
0.139941	1.617295
0.140039	1.617066
0.140137	1.618239
0.140234	1.621702
0.140332	1.624313
0.140430	1.626928
0.140527	1.629810
0.140625	1.631287
0.140723	1.628284
0.140820	1.630305
0.140918	1.630104
0.141016	1.618891
0.141113	1.612061
0.141211	1.605228
0.141309	1.606729
0.141406	1.614260
0.141504	1.620801
0.141602	1.624275
0.141699	1.630824
0.141797	1.617793
0.141895	1.611878
0.141992	1.608791
0.142090	1.609924
0.142187	1.610823
0.142285	1.612968
0.142383	1.615715
0.142480	1.630521
0.142578	1.620416
0.142676	1.588763
0.142773	1.588946
0.142871	1.605357
0.142969	1.604919
0.143066	1.608409
0.143164	1.610192
0.143262	1.616194
0.143359	1.622035
0.143457	1.618870
0.143555	1.607189
0.143652	1.594864
0.143750	1.604813
0.143848	1.620302
0.143945	1.618429
0.144043	1.621852
0.144141	1.630033
0.144238	1.629900
0.144336	1.619788
0.144434	1.626990
0.144531	1.623799
0.144629	1.615353
0.144727	1.620418
0.144824	1.625363
0.144922	1.631226
0.145020	1.635281
0.145117	1.634576
0.145215	1.630308
0.145312	1.628301
0.145410	1.624397
0.145508	1.622192
0.145605	1.619646
0.145703	1.617331
0.145801	1.612639
0.145898	1.604433
0.145996	1.591760
0.146094	1.580286
0.146191	1.580285
0.146289	1.593575
0.146387	1.597676
0.146484	1.590355
0.146582	1.585028
0.146680	1.581304
0.146777	1.576250
0.146875	1.570244
0.146973	1.562299
0.147070	1.559914
0.147168	1.581249
0.147266	1.581724
0.147363	1.574243
0.147461	1.582366
0.147559	1.575126
0.147656	1.565409
0.147754	1.545949
0.147852	1.540537
0.147949	1.580294
0.148047	1.600336
0.148145	1.603089
0.148242	1.607830
0.148340	1.608261
0.148437	1.614015
0.148535	1.619128
0.148633	1.622565
0.148730	1.628039
0.148828	1.629202
0.148926	1.627756
0.149023	1.630656
0.149121	1.632596
0.149219	1.611741
0.149316	1.606595
0.149414	1.614695
0.149512	1.608425
0.149609	1.610133
0.149707	1.611540
0.149805	1.607212
0.149902	1.588662
0.150000	1.581602
0.150098	1.584177
0.150195	1.575274
0.150293	1.572148
0.150391	1.573918
0.150488	1.568345
0.150586	1.554486
0.150684	1.538172
0.150781	1.541044
0.150879	1.569244
0.150977	1.588089
0.151074	1.601483
0.151172	1.597941
0.151270	1.590681
0.151367	1.592749
0.151465	1.591258
0.151562	1.599875
0.151660	1.606050
0.151758	1.610318
0.151855	1.614044
0.151953	1.620594
0.152051	1.625359
0.152148	1.623336
0.152246	1.616746
0.152344	1.611776
0.152441	1.609354
0.152539	1.621237
0.152637	1.628136
0.152734	1.620616
0.152832	1.615205
0.152930	1.610799
0.153027	1.613080
0.153125	1.620954
0.153223	1.625770
0.153320	1.630303
0.153418	1.633619
0.153516	1.641081
0.153613	1.625592
0.153711	1.628285
0.153809	1.641677
0.153906	1.634309
0.154004	1.627808
0.154102	1.622403
0.154199	1.621977
0.154297	1.622146
0.154395	1.622696
0.154492	1.627380
0.154590	1.627268
0.154687	1.623708
0.154785	1.617906
0.154883	1.615893
0.154980	1.612415
0.155078	1.603291
0.155176	1.607619
0.155273	1.614571
0.155371	1.610331
0.155469	1.595252
0.155566	1.576952
0.155664	1.588375
0.155762	1.585993
0.155859	1.575223
0.155957	1.553137
0.156055	1.549185
0.156152	1.557734
0.156250	1.553040
0.156348	1.561610
0.156445	1.559488
0.156543	1.544979
0.156641	1.537255
0.156738	1.566559
0.156836	1.603927
0.156934	1.617789
0.157031	1.613149
0.157129	1.617854
0.157227	1.623495
0.157324	1.632156
0.157422	1.637238
0.157520	1.628922
0.157617	1.622293
0.157715	1.621570
0.157812	1.624008
0.157910	1.620441
0.158008	1.609660
0.158105	1.602704
0.158203	1.591282
0.158301	1.589693
0.158398	1.595938
0.158496	1.605198
0.158594	1.599079
0.158691	1.594217
0.158789	1.594224
0.158887	1.582616
0.158984	1.562145
0.159082	1.554560
0.159180	1.550695
0.159277	1.547983
0.159375	1.537741
0.159473	1.535947
0.159570	1.549703
0.159668	1.568085
0.159766	1.578089
0.159863	1.580294
0.159961	1.584045
0.160059	1.589639
0.160156	1.582273
0.160254	1.574087
0.160352	1.573281
0.160449	1.577979
0.160547	1.578228
0.160645	1.586219
0.160742	1.603590
0.160840	1.604153
0.160937	1.608026
0.161035	1.610313
0.161133	1.615549
0.161230	1.613683
0.161328	1.604783
0.161426	1.599132
0.161523	1.601673
0.161621	1.614798
0.161719	1.622301
0.161816	1.619890
0.161914	1.614889
0.162012	1.618658
0.162109	1.627634
0.162207	1.635463
0.162305	1.627312
0.162402	1.612063
0.162500	1.605538
0.162598	1.612882
0.162695	1.618070
0.162793	1.614613
0.162891	1.606259
0.162988	1.596528
0.163086	1.594804
0.163184	1.590294
0.163281	1.587720
0.163379	1.594460
0.163477	1.603741
0.163574	1.615937
0.163672	1.619685
0.163770	1.620686
0.163867	1.616247
0.163965	1.615890
0.164062	1.616294
0.164160	1.619476
0.164258	1.634030
0.164355	1.636408
0.164453	1.635835
0.164551	1.633264
0.164648	1.629183
0.164746	1.624685
0.164844	1.623727
0.164941	1.624291
0.165039	1.621553
0.165137	1.620576
0.165234	1.622473
0.165332	1.622724
0.165430	1.622508
0.165527	1.617729
0.165625	1.625699
0.165723	1.635010
0.165820	1.630047
0.165918	1.613631
0.166016	1.607800
0.166113	1.611023
0.166211	1.614344
0.166309	1.607617
0.166406	1.595656
0.166504	1.595595
0.166602	1.597196
0.166699	1.594092
0.166797	1.597275
0.166895	1.581481
0.166992	1.583945
0.167090	1.603143
0.167187	1.605703
0.167285	1.614111
0.167383	1.614870
0.167480	1.614821
0.167578	1.616842
0.167676	1.624360
0.167773	1.635048
0.167871	1.642784
0.167969	1.638813
0.168066	1.633234
0.168164	1.629124
0.168262	1.628620
0.168359	1.631619
0.168457	1.629171
0.168555	1.632937
0.168652	1.632379
0.168750	1.630279
0.168848	1.630234
0.168945	1.630009
0.169043	1.629979
0.169141	1.628190
0.169238	1.626336
0.169336	1.623524
0.169434	1.623539
0.169531	1.618039
0.169629	1.612793
0.169727	1.609288
0.169824	1.607375
0.169922	1.609914
0.170020	1.630321
0.170117	1.629771
0.170215	1.628319
0.170312	1.631199
0.170410	1.629247
0.170508	1.626813
0.170605	1.627443
0.170703	1.627617
0.170801	1.627793
0.170898	1.630907
0.170996	1.631184
0.171094	1.631818
0.171191	1.628425
0.171289	1.626622
0.171387	1.625519
0.171484	1.628768
0.171582	1.624776
0.171680	1.625125
0.171777	1.636100
0.171875	1.633222
0.171973	1.627112
0.172070	1.635267
0.172168	1.632330
0.172266	1.627209
0.172363	1.629033
0.172461	1.627629
0.172559	1.625172
0.172656	1.617168
0.172754	1.615167
0.172852	1.622409
0.172949	1.621637
0.173047	1.619924
0.173145	1.624714
0.173242	1.622694
0.173340	1.609055
0.173437	1.593986
0.173535	1.586580
0.173633	1.603357
0.173730	1.600231
0.173828	1.588682
0.173926	1.581947
0.174023	1.583078
0.174121	1.584841
0.174219	1.594797
0.174316	1.620620
0.174414	1.627305
0.174512	1.624137
0.174609	1.618162
0.174707	1.610381
0.174805	1.602954
0.174902	1.598359
0.175000	1.598986
0.175098	1.589459
0.175195	1.577014
0.175293	1.564234
0.175391	1.566697
0.175488	1.588205
0.175586	1.607976
0.175684	1.623834
0.175781	1.621130
0.175879	1.615446
0.175977	1.608417
0.176074	1.604515
0.176172	1.609002
0.176270	1.585039
0.176367	1.590168
0.176465	1.601161
0.176562	1.591145
0.176660	1.589559
0.176758	1.579289
0.176855	1.567909
0.176953	1.558861
0.177051	1.557103
0.177148	1.563253
0.177246	1.571305
0.177344	1.575642
0.177441	1.576842
0.177539	1.573160
0.177637	1.566797
0.177734	1.574734
0.177832	1.589411
0.177930	1.604341
0.178027	1.593729
0.178125	1.584354
0.178223	1.596038
0.178320	1.606113
0.178418	1.615199
0.178516	1.612332
0.178613	1.617625
0.178711	1.624638
0.178809	1.629246
0.178906	1.622467
0.179004	1.625881
0.179102	1.618164
0.179199	1.599639
0.179297	1.612827
0.179395	1.612644
0.179492	1.619591
0.179590	1.618545
0.179687	1.614976
0.179785	1.614287
0.179883	1.607607
0.179980	1.608312
0.180078	1.601125
0.180176	1.591573
0.180273	1.603889
0.180371	1.607932
0.180469	1.601584
0.180566	1.592655
0.180664	1.607152
0.180762	1.614916
0.180859	1.602887
0.180957	1.607211
0.181055	1.617655
0.181152	1.622600
0.181250	1.626006
0.181348	1.632659
0.181445	1.626049
0.181543	1.620507
0.181641	1.616672
0.181738	1.612395
0.181836	1.605066
0.181934	1.595241
0.182031	1.587418
0.182129	1.579851
0.182227	1.575867
0.182324	1.578608
0.182422	1.577860
0.182520	1.568484
0.182617	1.570749
0.182715	1.571480
0.182812	1.560782
0.182910	1.557504
0.183008	1.558758
0.183105	1.573887
0.183203	1.582832
0.183301	1.585520
0.183398	1.579208
0.183496	1.571545
0.183594	1.571892
0.183691	1.568429
0.183789	1.582185
0.183887	1.589912
0.183984	1.596973
0.184082	1.603907
0.184180	1.611358
0.184277	1.612115
0.184375	1.616463
0.184473	1.595820
0.184570	1.587461
0.184668	1.590277
0.184766	1.589598
0.184863	1.591618
0.184961	1.582880
0.185059	1.565859
0.185156	1.554814
0.185254	1.549920
0.185352	1.545687
0.185449	1.554781
0.185547	1.561903
0.185645	1.581298
0.185742	1.593904
0.185840	1.603252
0.185937	1.607669
0.186035	1.603565
0.186133	1.609879
0.186230	1.612320
0.186328	1.619031
0.186426	1.623694
0.186523	1.622703
0.186621	1.623117
0.186719	1.622646
0.186816	1.621789
0.186914	1.636515
0.187012	1.645292
0.187109	1.636166
0.187207	1.612792
0.187305	1.595943
0.187402	1.591799
0.187500	1.588205
0.187598	1.566824
0.187695	1.560708
0.187793	1.565167
0.187891	1.592089
0.187988	1.613492
0.188086	1.611339
0.188184	1.614314
0.188281	1.613271
0.188379	1.615151
0.188477	1.615422
0.188574	1.615200
0.188672	1.610682
0.188770	1.612662
0.188867	1.617967
0.188965	1.606609
0.189062	1.601729
0.189160	1.604865
0.189258	1.613280
0.189355	1.620959
0.189453	1.621797
0.189551	1.623310
0.189648	1.625031
0.189746	1.628816
0.189844	1.631942
0.189941	1.633252
0.190039	1.632410
0.190137	1.634296
0.190234	1.635669
0.190332	1.635394
0.190430	1.636192
0.190527	1.635563
0.190625	1.634597
0.190723	1.633713
0.190820	1.632374
0.190918	1.631952
0.191016	1.630345
0.191113	1.627580
0.191211	1.632045
0.191309	1.634273
0.191406	1.633142
0.191504	1.633057
0.191602	1.631691
0.191699	1.632497
0.191797	1.629131
0.191895	1.622431
0.191992	1.623267
0.192090	1.622775
0.192187	1.627835
0.192285	1.630972
0.192383	1.626933
0.192480	1.624307
0.192578	1.623056
0.192676	1.625125
0.192773	1.627351
0.192871	1.629706
0.192969	1.632757
0.193066	1.633334
0.193164	1.630961
0.193262	1.626883
0.193359	1.624775
0.193457	1.623259
0.193555	1.627856
0.193652	1.633525
0.193750	1.633304
0.193848	1.632494
0.193945	1.634545
0.194043	1.632453
0.194141	1.628630
0.194238	1.630933
0.194336	1.633769
0.194434	1.636029
0.194531	1.633942
0.194629	1.631072
0.194727	1.625246
0.194824	1.627292
0.194922	1.621974
0.195020	1.618723
0.195117	1.620864
0.195215	1.626231
0.195312	1.629907
0.195410	1.629376
0.195508	1.627431
0.195605	1.624210
0.195703	1.618732
0.195801	1.615671
0.195898	1.608688
0.195996	1.616670
0.196094	1.594822
0.196191	1.585444
0.196289	1.581664
0.196387	1.581330
0.196484	1.590337
0.196582	1.614766
0.196680	1.610519
0.196777	1.597349
0.196875	1.598710
0.196973	1.595348
0.197070	1.602603
0.197168	1.604609
0.197266	1.593340
0.197363	1.566077
0.197461	1.566960
0.197559	1.586587
0.197656	1.586406
0.197754	1.585731
0.197852	1.578268
0.197949	1.590794
0.198047	1.617601
0.198145	1.616811
0.198242	1.613699
0.198340	1.618282
0.198437	1.622960
0.198535	1.629375
0.198633	1.626010
0.198730	1.614452
0.198828	1.607888
0.198926	1.598645
0.199023	1.603361
0.199121	1.615762
0.199219	1.619658
0.199316	1.624949
0.199414	1.628158
0.199512	1.628229
0.199609	1.625741
0.199707	1.624548
0.199805	1.627166
0.199902	1.630736
0.200000	1.625341
0.200098	1.615562
0.200195	1.608167
0.200293	1.607797
0.200391	1.611889
0.200488	1.613786
0.200586	1.620562
0.200684	1.621367
0.200781	1.619825
0.200879	1.622392
0.200977	1.621124
0.201074	1.619958
0.201172	1.615002
0.201270	1.618337
0.201367	1.605934
0.201465	1.611090
0.201562	1.618353
0.201660	1.607671
0.201758	1.603329
0.201855	1.612515
0.201953	1.618773
0.202051	1.624780
0.202148	1.625351
0.202246	1.620039
0.202344	1.617961
0.202441	1.622152
0.202539	1.623594
0.202637	1.621819
0.202734	1.620532
0.202832	1.619988
0.202930	1.617879
0.203027	1.614926
0.203125	1.615501
0.203223	1.609671
0.203320	1.602056
0.203418	1.607693
0.203516	1.616722
0.203613	1.612653
0.203711	1.610963
0.203809	1.614380
0.203906	1.616430
0.204004	1.616784
0.204102	1.617612
0.204199	1.619004
0.204297	1.621380
0.204395	1.623932
0.204492	1.627215
0.204590	1.640230
0.204687	1.635065
0.204785	1.614953
0.204883	1.600557
0.204980	1.611741
0.205078	1.614117
0.205176	1.613412
0.205273	1.617267
0.205371	1.619450
0.205469	1.620081
0.205566	1.629328
0.205664	1.633651
0.205762	1.625269
0.205859	1.617448
0.205957	1.607921
0.206055	1.588574
0.206152	1.590008
0.206250	1.613719
0.206348	1.621595
0.206445	1.619344
0.206543	1.610538
0.206641	1.603802
0.206738	1.590537
0.206836	1.592106
0.206934	1.621627
0.207031	1.616695
0.207129	1.608242
0.207227	1.611188
0.207324	1.614652
0.207422	1.614484
0.207520	1.615310
0.207617	1.617904
0.207715	1.606349
0.207812	1.589839
0.207910	1.577608
0.208008	1.576119
0.208105	1.571598
0.208203	1.556533
0.208301	1.549582
0.208398	1.547755
0.208496	1.552314
0.208594	1.564791
0.208691	1.592085
0.208789	1.603100
0.208887	1.610610
0.208984	1.611220
0.209082	1.611449
0.209180	1.617464
0.209277	1.621785
0.209375	1.623499
0.209473	1.621821
0.209570	1.621993
0.209668	1.628203
0.209766	1.623347
0.209863	1.608251
0.209961	1.620473
0.210059	1.636829
0.210156	1.635558
0.210254	1.613168
0.210352	1.607111
0.210449	1.622287
0.210547	1.621042
0.210645	1.607394
0.210742	1.606510
0.210840	1.602956
0.210937	1.601516
0.211035	1.602718
0.211133	1.619295
0.211230	1.622668
0.211328	1.622320
0.211426	1.623051
0.211523	1.623979
0.211621	1.625441
0.211719	1.626609
0.211816	1.627367
0.211914	1.628218
0.212012	1.628965
0.212109	1.629640
0.212207	1.631984
0.212305	1.634075
0.212402	1.628546
0.212500	1.614150
0.212598	1.598070
0.212695	1.614012
0.212793	1.623588
0.212891	1.627982
0.212988	1.629985
0.213086	1.628464
0.213184	1.630626
0.213281	1.628646
0.213379	1.615102
0.213477	1.610879
0.213574	1.613326
0.213672	1.616587
0.213770	1.616044
0.213867	1.606744
0.213965	1.606137
0.214062	1.622334
0.214160	1.634357
0.214258	1.631631
0.214355	1.633197
0.214453	1.626944
0.214551	1.624427
0.214648	1.625268
0.214746	1.627147
0.214844	1.630813
0.214941	1.646853
0.215039	1.654677
0.215137	1.640555
0.215234	1.630820
0.215332	1.623560
0.215430	1.618884
0.215527	1.620930
0.215625	1.622688
0.215723	1.623374
0.215820	1.624807
0.215918	1.624812
0.216016	1.617120
0.216113	1.617070
0.216211	1.621178
0.216309	1.617036
0.216406	1.609146
0.216504	1.604085
0.216602	1.599088
0.216699	1.601942
0.216797	1.617642
0.216895	1.617536
0.216992	1.618717
0.217090	1.626526
0.217187	1.630595
0.217285	1.630124
0.217383	1.624133
0.217480	1.622741
0.217578	1.620500
0.217676	1.620781
0.217773	1.621549
0.217871	1.622135
0.217969	1.621850
0.218066	1.616723
0.218164	1.606369
0.218262	1.601904
0.218359	1.597905
0.218457	1.603639
0.218555	1.614225
0.218652	1.626080
0.218750	1.629558
0.218848	1.620525
0.218945	1.630115
0.219043	1.631223
0.219141	1.624957
0.219238	1.614854
0.219336	1.617442
0.219434	1.625918
0.219531	1.630068
0.219629	1.630572
0.219727	1.629299
0.219824	1.629232
0.219922	1.630143
0.220020	1.631516
0.220117	1.631227
0.220215	1.633860
0.220312	1.636917
0.220410	1.629916
0.220508	1.625257
0.220605	1.625459
0.220703	1.624876
0.220801	1.623353
0.220898	1.624061
0.220996	1.623035
0.221094	1.621520
0.221191	1.619953
0.221289	1.616944
0.221387	1.620655
0.221484	1.620488
0.221582	1.610705
0.221680	1.602343
0.221777	1.604726
0.221875	1.612825
0.221973	1.622038
0.222070	1.632854
0.222168	1.633768
0.222266	1.623557
0.222363	1.625379
0.222461	1.627023
0.222559	1.627095
0.222656	1.627484
0.222754	1.623989
0.222852	1.621838
0.222949	1.620098
0.223047	1.622557
0.223145	1.619046
0.223242	1.616102
0.223340	1.615077
0.223437	1.608833
0.223535	1.590636
0.223633	1.583136
0.223730	1.579355
0.223828	1.570455
0.223926	1.566380
0.224023	1.572282
0.224121	1.572030
0.224219	1.574896
0.224316	1.578225
0.224414	1.583903
0.224512	1.578464
0.224609	1.566057
0.224707	1.575244
0.224805	1.566530
0.224902	1.582018
0.225000	1.581339
0.225098	1.568486
0.225195	1.556593
0.225293	1.551636
0.225391	1.555515
0.225488	1.563950
0.225586	1.577810
0.225684	1.581766
0.225781	1.578485
0.225879	1.576510
0.225977	1.588114
0.226074	1.606293
0.226172	1.612819
0.226270	1.623859
0.226367	1.628098
0.226465	1.633917
0.226562	1.632665
0.226660	1.613266
0.226758	1.593430
0.226855	1.601784
0.226953	1.627907
0.227051	1.625329
0.227148	1.613386
0.227246	1.621226
0.227344	1.621479
0.227441	1.622979
0.227539	1.626210
0.227637	1.627845
0.227734	1.627597
0.227832	1.624232
0.227930	1.621989
0.228027	1.626027
0.228125	1.634195
0.228223	1.634650
0.228320	1.633142
0.228418	1.627978
0.228516	1.628604
0.228613	1.629291
0.228711	1.629424
0.228809	1.627985
0.228906	1.623319
0.229004	1.624165
0.229102	1.621407
0.229199	1.618920
0.229297	1.613453
0.229395	1.598577
0.229492	1.593710
0.229590	1.595470
0.229687	1.582470
0.229785	1.567942
0.229883	1.573754
0.229980	1.583580
0.230078	1.585005
0.230176	1.581455
0.230273	1.602839
0.230371	1.613882
0.230469	1.603522
0.230566	1.602899
0.230664	1.601930
0.230762	1.600720
0.230859	1.599467
0.230957	1.585175
0.231055	1.585416
0.231152	1.603886
0.231250	1.612111
0.231348	1.621111
0.231445	1.619774
0.231543	1.623114
0.231641	1.625791
0.231738	1.621514
0.231836	1.606473
0.231934	1.609842
0.232031	1.615931
0.232129	1.604918
0.232227	1.596304
0.232324	1.599392
0.232422	1.597714
0.232520	1.591611
0.232617	1.590048
0.232715	1.584510
0.232812	1.590485
0.232910	1.598581
0.233008	1.602042
0.233105	1.607404
0.233203	1.628876
0.233301	1.637083
0.233398	1.637103
0.233496	1.626667
0.233594	1.610064
0.233691	1.586234
0.233789	1.569120
0.233887	1.566916
0.233984	1.565151
0.234082	1.563955
0.234180	1.552838
0.234277	1.545895
0.234375	1.547626
0.234473	1.551825
0.234570	1.563196
0.234668	1.584243
0.234766	1.593828
0.234863	1.599875
0.234961	1.618289
0.235059	1.628112
0.235156	1.626672
0.235254	1.616623
0.235352	1.615213
0.235449	1.615203
0.235547	1.614285
0.235645	1.617933
0.235742	1.611418
0.235840	1.605611
0.235937	1.600744
0.236035	1.601463
0.236133	1.609732
0.236230	1.598515
0.236328	1.589534
0.236426	1.590274
0.236523	1.570184
0.236621	1.582856
0.236719	1.592016
0.236816	1.593930
0.236914	1.599240
0.237012	1.605467
0.237109	1.619071
0.237207	1.627165
0.237305	1.630161
0.237402	1.623090
0.237500	1.624602
0.237598	1.627973
0.237695	1.637433
0.237793	1.634947
0.237891	1.628460
0.237988	1.628435
0.238086	1.631137
0.238184	1.621900
0.238281	1.618547
0.238379	1.624578
0.238477	1.621621
0.238574	1.624066
0.238672	1.625573
0.238770	1.628333
0.238867	1.629720
0.238965	1.628443
0.239062	1.628299
0.239160	1.630634
0.239258	1.643905
0.239355	1.651837
0.239453	1.628868
0.239551	1.617077
0.239648	1.614900
0.239746	1.613051
0.239844	1.614396
0.239941	1.617124
0.240039	1.622288
0.240137	1.629340
0.240234	1.638094
0.240332	1.637910
0.240430	1.638589
0.240527	1.643072
0.240625	1.620451
0.240723	1.621353
0.240820	1.594997
0.240918	1.561391
0.241016	1.566491
0.241113	1.574398
0.241211	1.596785
0.241309	1.613389
0.241406	1.620543
0.241504	1.622734
0.241602	1.618597
0.241699	1.619073
0.241797	1.620325
0.241895	1.622441
0.241992	1.623403
0.242090	1.625348
0.242187	1.623096
0.242285	1.617613
0.242383	1.608290
0.242480	1.599416
0.242578	1.589398
0.242676	1.597176
0.242773	1.591099
0.242871	1.600880
0.242969	1.623948
0.243066	1.617130
0.243164	1.581153
0.243262	1.592582
0.243359	1.617834
0.243457	1.617248
0.243555	1.623388
0.243652	1.622823
0.243750	1.623926
0.243848	1.621211
0.243945	1.618117
0.244043	1.618381
0.244141	1.613456
0.244238	1.596118
0.244336	1.581629
0.244434	1.574444
0.244531	1.597445
0.244629	1.618301
0.244727	1.617144
0.244824	1.620418
0.244922	1.619666
0.245020	1.622291
0.245117	1.598077
0.245215	1.584541
0.245312	1.599188
0.245410	1.604818
0.245508	1.604224
0.245605	1.604357
0.245703	1.584594
0.245801	1.571950
0.245898	1.566516
0.245996	1.571750
0.246094	1.577387
0.246191	1.582935
0.246289	1.579328
0.246387	1.583703
0.246484	1.573674
0.246582	1.591702
0.246680	1.612883
0.246777	1.615097
0.246875	1.624346
0.246973	1.629578
0.247070	1.630561
0.247168	1.624994
0.247266	1.624303
0.247363	1.620424
0.247461	1.617237
0.247559	1.613941
0.247656	1.612822
0.247754	1.608512
0.247852	1.595401
0.247949	1.576413
0.248047	1.567202
0.248145	1.573975
0.248242	1.584342
0.248340	1.585719
0.248437	1.596132
0.248535	1.603426
0.248633	1.604091
0.248730	1.595771
0.248828	1.589640
0.248926	1.587760
0.249023	1.589152
0.249121	1.566793
0.249219	1.566159
0.249316	1.582864
0.249414	1.592415
0.249512	1.583842
0.249609	1.573107
0.249707	1.582179
0.249805	1.605177
0.249902	1.606072
0.250000	1.608588
0.250098	1.614493
0.250195	1.617057
0.250293	1.615804
0.250391	1.618376
0.250488	1.637563
0.250586	1.638460
0.250684	1.629645
0.250781	1.630325
0.250879	1.632941
0.250977	1.635440
0.251074	1.628713
0.251172	1.628054
0.251270	1.622069
0.251367	1.617861
0.251465	1.614121
0.251562	1.607877
0.251660	1.599468
0.251758	1.596701
0.251855	1.596201
0.251953	1.595312
0.252051	1.600718
0.252148	1.617323
0.252246	1.614984
0.252344	1.610960
0.252441	1.606240
0.252539	1.607561
0.252637	1.614270
0.252734	1.624899
0.252832	1.620033
0.252930	1.615954
0.253027	1.619303
0.253125	1.613740
0.253223	1.618871
0.253320	1.622447
0.253418	1.628952
0.253516	1.632784
0.253613	1.633358
0.253711	1.629479
0.253809	1.625330
0.253906	1.624272
0.254004	1.630849
0.254102	1.634839
0.254199	1.636780
0.254297	1.634139
0.254395	1.630578
0.254492	1.623409
0.254590	1.618229
0.254687	1.608962
0.254785	1.610180
0.254883	1.624353
0.254980	1.632666
0.255078	1.636198
0.255176	1.634990
0.255273	1.627893
0.255371	1.624007
0.255469	1.624115
0.255566	1.624170
0.255664	1.624515
0.255762	1.622716
0.255859	1.619463
0.255957	1.614169
0.256055	1.608134
0.256152	1.603601
0.256250	1.607872
0.256348	1.624786
0.256445	1.624679
0.256543	1.620234
0.256641	1.618876
0.256738	1.615718
0.256836	1.609863
0.256934	1.610270
0.257031	1.616708
0.257129	1.620243
0.257227	1.621013
0.257324	1.627426
0.257422	1.620791
0.257520	1.613445
0.257617	1.621290
0.257715	1.624192
0.257812	1.627714
0.257910	1.629416
0.258008	1.627680
0.258105	1.628885
0.258203	1.634029
0.258301	1.633530
0.258398	1.624614
0.258496	1.620705
0.258594	1.624947
0.258691	1.624311
0.258789	1.618003
0.258887	1.612209
0.258984	1.611096
0.259082	1.604463
0.259180	1.601741
0.259277	1.596810
0.259375	1.576636
0.259473	1.563217
0.259570	1.556344
0.259668	1.561968
0.259766	1.558559
0.259863	1.571601
0.259961	1.589184
0.260059	1.587735
0.260156	1.587541
0.260254	1.596390
0.260352	1.607231
0.260449	1.606166
0.260547	1.615771
0.260645	1.628104
0.260742	1.635879
0.260840	1.635225
0.260937	1.626264
0.261035	1.624765
0.261133	1.624666
0.261230	1.619174
0.261328	1.609989
0.261426	1.602893
0.261523	1.592441
0.261621	1.589186
0.261719	1.604328
0.261816	1.626207
0.261914	1.630395
0.262012	1.636106
0.262109	1.638543
0.262207	1.634335
0.262305	1.632621
0.262402	1.632894
0.262500	1.629444
0.262598	1.625919
0.262695	1.624712
0.262793	1.623742
0.262891	1.623368
0.262988	1.624236
0.263086	1.626830
0.263184	1.635248
0.263281	1.634328
0.263379	1.621676
0.263477	1.623544
0.263574	1.622697
0.263672	1.617158
0.263770	1.608154
0.263867	1.591823
0.263965	1.578941
0.264062	1.565175
0.264160	1.559625
0.264258	1.570902
0.264355	1.594630
0.264453	1.619716
0.264551	1.615662
0.264648	1.626104
0.264746	1.628984
0.264844	1.627312
0.264941	1.631056
0.265039	1.626445
0.265137	1.621605
0.265234	1.616332
0.265332	1.612474
0.265430	1.615872
0.265527	1.615305
0.265625	1.609664
0.265723	1.612866
0.265820	1.612241
0.265918	1.615588
0.266016	1.603044
0.266113	1.573646
0.266211	1.561118
0.266309	1.564352
0.266406	1.550794
0.266504	1.543888
0.266602	1.545618
0.266699	1.549770
0.266797	1.568868
0.266895	1.570098
0.266992	1.575341
0.267090	1.572224
0.267187	1.562973
0.267285	1.570257
0.267383	1.582592
0.267480	1.613633
0.267578	1.623142
0.267676	1.621957
0.267773	1.631514
0.267871	1.633180
0.267969	1.633162
0.268066	1.620381
0.268164	1.619115
0.268262	1.628677
0.268359	1.626441
0.268457	1.619388
0.268555	1.608354
0.268652	1.606247
0.268750	1.615846
0.268848	1.614806
0.268945	1.612636
0.269043	1.606226
0.269141	1.597388
0.269238	1.581965
0.269336	1.570663
0.269434	1.563992
0.269531	1.564666
0.269629	1.570332
0.269727	1.578398
0.269824	1.587496
0.269922	1.613237
0.270020	1.614215
0.270117	1.612536
0.270215	1.631201
0.270312	1.630051
0.270410	1.624330
0.270508	1.616526
0.270605	1.619117
0.270703	1.609379
0.270801	1.595252
0.270898	1.586586
0.270996	1.599142
0.271094	1.599305
0.271191	1.597657
0.271289	1.595962
0.271387	1.595080
0.271484	1.601108
0.271582	1.605162
0.271680	1.607507
0.271777	1.616421
0.271875	1.627671
0.271973	1.631116
0.272070	1.634264
0.272168	1.634080
0.272266	1.631630
0.272363	1.628789
0.272461	1.628275
0.272559	1.627459
0.272656	1.626700
0.272754	1.626420
0.272852	1.625177
0.272949	1.626696
0.273047	1.631419
0.273145	1.638678
0.273242	1.637499
0.273340	1.625802
0.273437	1.628097
0.273535	1.631850
0.273633	1.625655
0.273730	1.618289
0.273828	1.608741
0.273926	1.600857
0.274023	1.592474
0.274121	1.581454
0.274219	1.562574
0.274316	1.554904
0.274414	1.562042
0.274512	1.569763
0.274609	1.571982
0.274707	1.582116
0.274805	1.603718
0.274902	1.626245
0.275000	1.633269
0.275098	1.627690
0.275195	1.622798
0.275293	1.609175
0.275391	1.603479
0.275488	1.586240
0.275586	1.577286
0.275684	1.584387
0.275781	1.603498
0.275879	1.614715
0.275977	1.616982
0.276074	1.621495
0.276172	1.626349
0.276270	1.637138
0.276367	1.632718
0.276465	1.624870
0.276562	1.623244
0.276660	1.622359
0.276758	1.623958
0.276855	1.620487
0.276953	1.627030
0.277051	1.632382
0.277148	1.641060
0.277246	1.631332
0.277344	1.622619
0.277441	1.619517
0.277539	1.609447
0.277637	1.599726
0.277734	1.595423
0.277832	1.601132
0.277930	1.605876
0.278027	1.609068
0.278125	1.606382
0.278223	1.601993
0.278320	1.587519
0.278418	1.575633
0.278516	1.573267
0.278613	1.572183
0.278711	1.585354
0.278809	1.598513
0.278906	1.614431
0.279004	1.621448
0.279102	1.622381
0.279199	1.627519
0.279297	1.629497
0.279395	1.613794
0.279492	1.603680
0.279590	1.600723
0.279687	1.584078
0.279785	1.565865
0.279883	1.582016
0.279980	1.579273
0.280078	1.569110
0.280176	1.576047
0.280273	1.580705
0.280371	1.600932
0.280469	1.616530
0.280566	1.618506
0.280664	1.617573
0.280762	1.614709
0.280859	1.612954
0.280957	1.612542
0.281055	1.611034
0.281152	1.607250
0.281250	1.601422
0.281348	1.603847
0.281445	1.604860
0.281543	1.594897
0.281641	1.581177
0.281738	1.566671
0.281836	1.559431
0.281934	1.558878
0.282031	1.571015
0.282129	1.577140
0.282227	1.571929
0.282324	1.566698
0.282422	1.551735
0.282520	1.548779
0.282617	1.575945
0.282715	1.574310
0.282812	1.567712
0.282910	1.565680
0.283008	1.552398
0.283105	1.557962
0.283203	1.559579
0.283301	1.561518
0.283398	1.575296
0.283496	1.585988
0.283594	1.567515
0.283691	1.557688
0.283789	1.569682
0.283887	1.583316
0.283984	1.603969
0.284082	1.601580
0.284180	1.608492
0.284277	1.614122
0.284375	1.619799
0.284473	1.620504
0.284570	1.616473
0.284668	1.616312
0.284766	1.614803
0.284863	1.613143
0.284961	1.616711
0.285059	1.616850
0.285156	1.619453
0.285254	1.622530
0.285352	1.621476
0.285449	1.619007
0.285547	1.619032
0.285645	1.624961
0.285742	1.620885
0.285840	1.590510
0.285937	1.583264
0.286035	1.587804
0.286133	1.607240
0.286230	1.623108
0.286328	1.622380
0.286426	1.622304
0.286523	1.627506
0.286621	1.626319
0.286719	1.618581
0.286816	1.613625
0.286914	1.613274
0.287012	1.618524
0.287109	1.619623
0.287207	1.618946
0.287305	1.618690
0.287402	1.623646
0.287500	1.630825
0.287598	1.635447
0.287695	1.626522
0.287793	1.622046
0.287891	1.602638
0.287988	1.598828
0.288086	1.599461
0.288184	1.605897
0.288281	1.614320
0.288379	1.616606
0.288477	1.600657
0.288574	1.595035
0.288672	1.610816
0.288770	1.630780
0.288867	1.627245
0.288965	1.621345
0.289062	1.630266
0.289160	1.629595
0.289258	1.626429
0.289355	1.615403
0.289453	1.618667
0.289551	1.624219
0.289648	1.625395
0.289746	1.624868
0.289844	1.626179
0.289941	1.625793
0.290039	1.620598
0.290137	1.622463
0.290234	1.622010
0.290332	1.621647
0.290430	1.620677
0.290527	1.624134
0.290625	1.628968
0.290723	1.633011
0.290820	1.633289
0.290918	1.636596
0.291016	1.637814
0.291113	1.639707
0.291211	1.637048
0.291309	1.633467
0.291406	1.633301
0.291504	1.634219
0.291602	1.636440
0.291699	1.634805
0.291797	1.632048
0.291895	1.628167
0.291992	1.624759
0.292090	1.624724
0.292187	1.626417
0.292285	1.628837
0.292383	1.632111
0.292480	1.636118
0.292578	1.641027
0.292676	1.642435
0.292773	1.638380
0.292871	1.631258
0.292969	1.630402
0.293066	1.630207
0.293164	1.627443
0.293262	1.625327
0.293359	1.616731
0.293457	1.605710
0.293555	1.615495
0.293652	1.623799
0.293750	1.625745
0.293848	1.635315
0.293945	1.643487
0.294043	1.634498
0.294141	1.627218
0.294238	1.631946
0.294336	1.617290
0.294434	1.582563
0.294531	1.578467
0.294629	1.571740
0.294727	1.565578
0.294824	1.563985
0.294922	1.563374
0.295020	1.575900
0.295117	1.584715
0.295215	1.579500
0.295312	1.578442
0.295410	1.592444
0.295508	1.613994
0.295605	1.628299
0.295703	1.637587
0.295801	1.627124
0.295898	1.619364
0.295996	1.622358
0.296094	1.625579
0.296191	1.627589
0.296289	1.629219
0.296387	1.625576
0.296484	1.615862
0.296582	1.614344
0.296680	1.596802
0.296777	1.611865
0.296875	1.632793
0.296973	1.626750
0.297070	1.638126
0.297168	1.630165
0.297266	1.624920
0.297363	1.622400
0.297461	1.622901
0.297559	1.619128
0.297656	1.618653
0.297754	1.617237
0.297852	1.616871
0.297949	1.615814
0.298047	1.619840
0.298145	1.626151
0.298242	1.607684
0.298340	1.591511
0.298437	1.563344
0.298535	1.567439
0.298633	1.579259
0.298730	1.581756
0.298828	1.597688
0.298926	1.588862
0.299023	1.598367
0.299121	1.620524
0.299219	1.629529
0.299316	1.634395
0.299414	1.636859
0.299512	1.634495
0.299609	1.629783
0.299707	1.626947
0.299805	1.624542
0.299902	1.624075
0.300000	1.625823
0.300098	1.626411
0.300195	1.627126
0.300293	1.631253
0.300391	1.632330
0.300488	1.627022
0.300586	1.621080
0.300684	1.624420
0.300781	1.615459
0.300879	1.618181
0.300977	1.622655
0.301074	1.621553
0.301172	1.630132
0.301270	1.628856
0.301367	1.628546
0.301465	1.628155
0.301562	1.626646
0.301660	1.626101
0.301758	1.631627
0.301855	1.633772
0.301953	1.638670
0.302051	1.636552
0.302148	1.630881
0.302246	1.630752
0.302344	1.619886
0.302441	1.607574
0.302539	1.603851
0.302637	1.597225
0.302734	1.601792
0.302832	1.611217
0.302930	1.603492
0.303027	1.570448
0.303125	1.566269
0.303223	1.574353
0.303320	1.583454
0.303418	1.605497
0.303516	1.590246
0.303613	1.588493
0.303711	1.594496
0.303809	1.608752
0.303906	1.612887
0.304004	1.607035
0.304102	1.599092
0.304199	1.593851
0.304297	1.607423
0.304395	1.635411
0.304492	1.637915
0.304590	1.632029
0.304687	1.629634
0.304785	1.630133
0.304883	1.631732
0.304980	1.629415
0.305078	1.613148
0.305176	1.617792
0.305273	1.629643
0.305371	1.623306
0.305469	1.610729
0.305566	1.619344
0.305664	1.623522
0.305762	1.614078
0.305859	1.613645
0.305957	1.609856
0.306055	1.611231
0.306152	1.606105
0.306250	1.597648
0.306348	1.593725
0.306445	1.591125
0.306543	1.578750
0.306641	1.576568
0.306738	1.578286
0.306836	1.593350
0.306934	1.603972
0.307031	1.593764
0.307129	1.585057
0.307227	1.586630
0.307324	1.588645
0.307422	1.600076
0.307520	1.617421
0.307617	1.624784
0.307715	1.622533
0.307812	1.622103
0.307910	1.619521
0.308008	1.627372
0.308105	1.620559
0.308203	1.604670
0.308301	1.600911
0.308398	1.588918
0.308496	1.580023
0.308594	1.584346
0.308691	1.588427
0.308789	1.593389
0.308887	1.577962
0.308984	1.561362
0.309082	1.572911
0.309180	1.587052
0.309277	1.601129
0.309375	1.621907
0.309473	1.630633
0.309570	1.626596
0.309668	1.628579
0.309766	1.622461
0.309863	1.621498
0.309961	1.625002
0.310059	1.629631
0.310156	1.629704
0.310254	1.631153
0.310352	1.631762
0.310449	1.624429
0.310547	1.618175
0.310645	1.621966
0.310742	1.620133
0.310840	1.616118
0.310937	1.620349
0.311035	1.619128
0.311133	1.622400
0.311230	1.625364
0.311328	1.627498
0.311426	1.629715
0.311523	1.630077
0.311621	1.626932
0.311719	1.619883
0.311816	1.627317
0.311914	1.632485
0.312012	1.635620
0.312109	1.630488
0.312207	1.625816
0.312305	1.626999
0.312402	1.620508
0.312500	1.622150
0.312598	1.623253
0.312695	1.620465
0.312793	1.616219
0.312891	1.611567
0.312988	1.601723
0.313086	1.587736
0.313184	1.574207
0.313281	1.553363
0.313379	1.533132
0.313477	1.531042
0.313574	1.534534
0.313672	1.537012
0.313770	1.538604
0.313867	1.555778
0.313965	1.580684
0.314062	1.596157
0.314160	1.602424
0.314258	1.598519
0.314355	1.592926
0.314453	1.596166
0.314551	1.614096
0.314648	1.617099
0.314746	1.604332
0.314844	1.584604
0.314941	1.569179
0.315039	1.570973
0.315137	1.579341
0.315234	1.589310
0.315332	1.578939
0.315430	1.578637
0.315527	1.589172
0.315625	1.597828
0.315723	1.600721
0.315820	1.613350
0.315918	1.617545
0.316016	1.615767
0.316113	1.619298
0.316211	1.611581
0.316309	1.607897
0.316406	1.620327
0.316504	1.625241
0.316602	1.618958
0.316699	1.620133
0.316797	1.633327
0.316895	1.627497
0.316992	1.619774
0.317090	1.623496
0.317187	1.626223
0.317285	1.628117
0.317383	1.630703
0.317480	1.630698
0.317578	1.620669
0.317676	1.604975
0.317773	1.584474
0.317871	1.567582
0.317969	1.564352
0.318066	1.591838
0.318164	1.599759
0.318262	1.597320
0.318359	1.594575
0.318457	1.594115
0.318555	1.598752
0.318652	1.598553
0.318750	1.593541
0.318848	1.591752
0.318945	1.576775
0.319043	1.581998
0.319141	1.596126
0.319238	1.587914
0.319336	1.583357
0.319434	1.573267
0.319531	1.596721
0.319629	1.623862
0.319727	1.619479
0.319824	1.622858
0.319922	1.623528
0.320020	1.622121
0.320117	1.620825
0.320215	1.620670
0.320312	1.620646
0.320410	1.620818
0.320508	1.621252
0.320605	1.619987
0.320703	1.616359
0.320801	1.601014
0.320898	1.583619
0.320996	1.579031
0.321094	1.583572
0.321191	1.587486
0.321289	1.578704
0.321387	1.583941
0.321484	1.623199
0.321582	1.624189
0.321680	1.612121
0.321777	1.626502
0.321875	1.625895
0.321973	1.609075
0.322070	1.584970
0.322168	1.569179
0.322266	1.581028
0.322363	1.606046
0.322461	1.612335
0.322559	1.619958
0.322656	1.624584
0.322754	1.622095
0.322852	1.622101
0.322949	1.624521
0.323047	1.626066
0.323145	1.626122
0.323242	1.624975
0.323340	1.624249
0.323437	1.620391
0.323535	1.619285
0.323633	1.615397
0.323730	1.605439
0.323828	1.611429
0.323926	1.612766
0.324023	1.614302
0.324121	1.612118
0.324219	1.605712
0.324316	1.608831
0.324414	1.603717
0.324512	1.587633
0.324609	1.602590
0.324707	1.606544
0.324805	1.606905
0.324902	1.623083
0.325000	1.631283
0.325098	1.635402
0.325195	1.627206
0.325293	1.617309
0.325391	1.614016
0.325488	1.616185
0.325586	1.617371
0.325684	1.610162
0.325781	1.595580
0.325879	1.589036
0.325977	1.585327
0.326074	1.581378
0.326172	1.575294
0.326270	1.570003
0.326367	1.565275
0.326465	1.565816
0.326562	1.564903
0.326660	1.556312
0.326758	1.551437
0.326855	1.560955
0.326953	1.571695
0.327051	1.590590
0.327148	1.598961
0.327246	1.602355
0.327344	1.609799
0.327441	1.614499
0.327539	1.619552
0.327637	1.623378
0.327734	1.633469
0.327832	1.637267
0.327930	1.630384
0.328027	1.628715
0.328125	1.627937
0.328223	1.626536
0.328320	1.626721
0.328418	1.629346
0.328516	1.627170
0.328613	1.628289
0.328711	1.626658
0.328809	1.622442
0.328906	1.622041
0.329004	1.625137
0.329102	1.627430
0.329199	1.628544
0.329297	1.630335
0.329395	1.627063
0.329492	1.625283
0.329590	1.623182
0.329687	1.617741
0.329785	1.611288
0.329883	1.602634
0.329980	1.600081
0.330078	1.607845
0.330176	1.596946
0.330273	1.593911
0.330371	1.619699
0.330469	1.625704
0.330566	1.629460
0.330664	1.632026
0.330762	1.639933
0.330859	1.631831
0.330957	1.614472
0.331055	1.599981
0.331152	1.598341
0.331250	1.585844
0.331348	1.566051
0.331445	1.567997
0.331543	1.580506
0.331641	1.591708
0.331738	1.604433
0.331836	1.616003
0.331934	1.621738
0.332031	1.623280
0.332129	1.623605
0.332227	1.623465
0.332324	1.621115
0.332422	1.608956
0.332520	1.583442
0.332617	1.559169
0.332715	1.556980
0.332812	1.560079
0.332910	1.562291
0.333008	1.564463
0.333105	1.569016
0.333203	1.577996
0.333301	1.580377
0.333398	1.577318
0.333496	1.594562
0.333594	1.604633
0.333691	1.614828
0.333789	1.621876
0.333887	1.622237
0.333984	1.619886
0.334082	1.624091
0.334180	1.623755
0.334277	1.624563
0.334375	1.624988
0.334473	1.626057
0.334570	1.622080
0.334668	1.624046
0.334766	1.623021
0.334863	1.612495
0.334961	1.603606
0.335059	1.614514
0.335156	1.619108
0.335254	1.602960
0.335352	1.598282
0.335449	1.627497
0.335547	1.629221
0.335645	1.618360
0.335742	1.612773
0.335840	1.610872
0.335937	1.601047
0.336035	1.607700
0.336133	1.623308
0.336230	1.623334
0.336328	1.626788
0.336426	1.628774
0.336523	1.626621
0.336621	1.619233
0.336719	1.620779
0.336816	1.628313
0.336914	1.638125
0.337012	1.638548
0.337109	1.634598
0.337207	1.631888
0.337305	1.633906
0.337402	1.631582
0.337500	1.624438
0.337598	1.604863
0.337695	1.597690
0.337793	1.616582
0.337891	1.620864
0.337988	1.617722
0.338086	1.615892
0.338184	1.624908
0.338281	1.622065
0.338379	1.619508
0.338477	1.617151
0.338574	1.607268
0.338672	1.608160
0.338770	1.612871
0.338867	1.619112
0.338965	1.624925
0.339062	1.628294
0.339160	1.622843
0.339258	1.613952
0.339355	1.614536
0.339453	1.623961
0.339551	1.622080
0.339648	1.616971
0.339746	1.602982
0.339844	1.588005
0.339941	1.584504
0.340039	1.569961
0.340137	1.560621
0.340234	1.573653
0.340332	1.582706
0.340430	1.591831
0.340527	1.602114
0.340625	1.603698
0.340723	1.598768
0.340820	1.587138
0.340918	1.582173
0.341016	1.590386
0.341113	1.581686
0.341211	1.577651
0.341309	1.592142
0.341406	1.614581
0.341504	1.601987
0.341602	1.585877
0.341699	1.581624
0.341797	1.589646
0.341895	1.591603
0.341992	1.586224
0.342090	1.596879
0.342187	1.606300
0.342285	1.609398
0.342383	1.611129
0.342480	1.612828
0.342578	1.611635
0.342676	1.607462
0.342773	1.604206
0.342871	1.613220
0.342969	1.623153
0.343066	1.627068
0.343164	1.631716
0.343262	1.632743
0.343359	1.635789
0.343457	1.630219
0.343555	1.619421
0.343652	1.603863
0.343750	1.590825
0.343848	1.591698
0.343945	1.594525
0.344043	1.598947
0.344141	1.593501
0.344238	1.607344
0.344336	1.609525
0.344434	1.608288
0.344531	1.605290
0.344629	1.608205
0.344727	1.604036
0.344824	1.616387
0.344922	1.620745
0.345020	1.620371
0.345117	1.621365
0.345215	1.620579
0.345312	1.620413
0.345410	1.615516
0.345508	1.620057
0.345605	1.632946
0.345703	1.638224
0.345801	1.646297
0.345898	1.638814
0.345996	1.638766
0.346094	1.636406
0.346191	1.632291
0.346289	1.628839
0.346387	1.624103
0.346484	1.620653
0.346582	1.617720
0.346680	1.611885
0.346777	1.609920
0.346875	1.615742
0.346973	1.605290
0.347070	1.593710
0.347168	1.587459
0.347266	1.592500
0.347363	1.589244
0.347461	1.584225
0.347559	1.589159
0.347656	1.605388
0.347754	1.619004
0.347852	1.628233
0.347949	1.630169
0.348047	1.620440
0.348145	1.618836
0.348242	1.622993
0.348340	1.633186
0.348437	1.616763
0.348535	1.607009
0.348633	1.613147
0.348730	1.612785
0.348828	1.595255
0.348926	1.567578
0.349023	1.572335
0.349121	1.596339
0.349219	1.608349
0.349316	1.610392
0.349414	1.612078
0.349512	1.607821
0.349609	1.612495
0.349707	1.618491
0.349805	1.623118
0.349902	1.627779
0.350000	1.627391
0.350098	1.623499
0.350195	1.633534
0.350293	1.634268
0.350391	1.618924
0.350488	1.625239
0.350586	1.628918
0.350684	1.625959
0.350781	1.622645
0.350879	1.627695
0.350977	1.632787
0.351074	1.634764
0.351172	1.629302
0.351270	1.622705
0.351367	1.620622
0.351465	1.628361
0.351562	1.626202
0.351660	1.619817
0.351758	1.613647
0.351855	1.614111
0.351953	1.612038
0.352051	1.606920
0.352148	1.601566
0.352246	1.591555
0.352344	1.587319
0.352441	1.584638
0.352539	1.587320
0.352637	1.610414
0.352734	1.616889
0.352832	1.618263
0.352930	1.618935
0.353027	1.624710
0.353125	1.627522
0.353223	1.631306
0.353320	1.637424
0.353418	1.641586
0.353516	1.639739
0.353613	1.628211
0.353711	1.617448
0.353809	1.620625
0.353906	1.626633
0.354004	1.621132
0.354102	1.616084
0.354199	1.608598
0.354297	1.601627
0.354395	1.602340
0.354492	1.603517
0.354590	1.605039
0.354687	1.616880
0.354785	1.625393
0.354883	1.621422
0.354980	1.611870
0.355078	1.601651
0.355176	1.584824
0.355273	1.589875
0.355371	1.600079
0.355469	1.604221
0.355566	1.611835
0.355664	1.598610
0.355762	1.602178
0.355859	1.600303
0.355957	1.598117
0.356055	1.592229
0.356152	1.587010
0.356250	1.585717
0.356348	1.590685
0.356445	1.600851
0.356543	1.609702
0.356641	1.615010
0.356738	1.618427
0.356836	1.622981
0.356934	1.627231
0.357031	1.627628
0.357129	1.635564
0.357227	1.644656
0.357324	1.637466
0.357422	1.627785
0.357520	1.593931
0.357617	1.605863
0.357715	1.619575
0.357812	1.622725
0.357910	1.627751
0.358008	1.629129
0.358105	1.628473
0.358203	1.623352
0.358301	1.621539
0.358398	1.626003
0.358496	1.628945
0.358594	1.631602
0.358691	1.630113
0.358789	1.627314
0.358887	1.626079
0.358984	1.626478
0.359082	1.621359
0.359180	1.623005
0.359277	1.627686
0.359375	1.625777
0.359473	1.626215
0.359570	1.626184
0.359668	1.625994
0.359766	1.626022
0.359863	1.618938
0.359961	1.617390
0.360059	1.612285
0.360156	1.612752
0.360254	1.627391
0.360352	1.634037
0.360449	1.630873
0.360547	1.625573
0.360645	1.627711
0.360742	1.627772
0.360840	1.628417
0.360937	1.627176
0.361035	1.625717
0.361133	1.634972
0.361230	1.638186
0.361328	1.633158
0.361426	1.630620
0.361523	1.627650
0.361621	1.619680
0.361719	1.608376
0.361816	1.605885
0.361914	1.605070
0.362012	1.614495
0.362109	1.622146
0.362207	1.621344
0.362305	1.607031
0.362402	1.591848
0.362500	1.595685
0.362598	1.605968
0.362695	1.607897
0.362793	1.608544
0.362891	1.580445
0.362988	1.576909
0.363086	1.600967
0.363184	1.613012
0.363281	1.621714
0.363379	1.626857
0.363477	1.628280
0.363574	1.628031
0.363672	1.626515
0.363770	1.623961
0.363867	1.617951
0.363965	1.618632
0.364062	1.616026
0.364160	1.604963
0.364258	1.597393
0.364355	1.588488
0.364453	1.595036
0.364551	1.609716
0.364648	1.613209
0.364746	1.615549
0.364844	1.617257
0.364941	1.618552
0.365039	1.619148
0.365137	1.618300
0.365234	1.618215
0.365332	1.619942
0.365430	1.624775
0.365527	1.627146
0.365625	1.620674
0.365723	1.616260
0.365820	1.599085
0.365918	1.588086
0.366016	1.601028
0.366113	1.615393
0.366211	1.620166
0.366309	1.623287
0.366406	1.630068
0.366504	1.642084
0.366602	1.633375
0.366699	1.620043
0.366797	1.610526
0.366895	1.615234
0.366992	1.634628
0.367090	1.634067
0.367187	1.621604
0.367285	1.621932
0.367383	1.620199
0.367480	1.622691
0.367578	1.623190
0.367676	1.627044
0.367773	1.624945
0.367871	1.629291
0.367969	1.629505
0.368066	1.628163
0.368164	1.625141
0.368262	1.626118
0.368359	1.625008
0.368457	1.617647
0.368555	1.607528
0.368652	1.604378
0.368750	1.591799
0.368848	1.583769
0.368945	1.584308
0.369043	1.596544
0.369141	1.603939
0.369238	1.595648
0.369336	1.589593
0.369434	1.592248
0.369531	1.593938
0.369629	1.593290
0.369727	1.596892
0.369824	1.595705
0.369922	1.597833
0.370020	1.609780
0.370117	1.616917
0.370215	1.621296
0.370312	1.621842
0.370410	1.619584
0.370508	1.615186
0.370605	1.608376
0.370703	1.601084
0.370801	1.594280
0.370898	1.586569
0.370996	1.573066
0.371094	1.556479
0.371191	1.547908
0.371289	1.552755
0.371387	1.561189
0.371484	1.571788
0.371582	1.590925
0.371680	1.592995
0.371777	1.593692
0.371875	1.601219
0.371973	1.611949
0.372070	1.614809
0.372168	1.617954
0.372266	1.622087
0.372363	1.624773
0.372461	1.628399
0.372559	1.632774
0.372656	1.635504
0.372754	1.636693
0.372852	1.635315
0.372949	1.632909
0.373047	1.629175
0.373145	1.626910
0.373242	1.626858
0.373340	1.629434
0.373437	1.618682
0.373535	1.598124
0.373633	1.567939
0.373730	1.547219
0.373828	1.563645
0.373926	1.584942
0.374023	1.607727
0.374121	1.621023
0.374219	1.604990
0.374316	1.585416
0.374414	1.576410
0.374512	1.584781
0.374609	1.609237
0.374707	1.618365
0.374805	1.623833
0.374902	1.616401
0.375000	1.614058
0.375098	1.621565
0.375195	1.635645
0.375293	1.641796
0.375391	1.646715
0.375488	1.642253
0.375586	1.635794
0.375684	1.626981
0.375781	1.622174
0.375879	1.620728
0.375977	1.623463
0.376074	1.626786
0.376172	1.628208
0.376270	1.632234
0.376367	1.637909
0.376465	1.619752
0.376562	1.591973
0.376660	1.610737
0.376758	1.610900
0.376855	1.609797
0.376953	1.614281
0.377051	1.616011
0.377148	1.623830
0.377246	1.635112
0.377344	1.636688
0.377441	1.637353
0.377539	1.633880
0.377637	1.632613
0.377734	1.632599
0.377832	1.633379
0.377930	1.627801
0.378027	1.612979
0.378125	1.614655
0.378223	1.622708
0.378320	1.616764
0.378418	1.625165
0.378516	1.624137
0.378613	1.616833
0.378711	1.611004
0.378809	1.606230
0.378906	1.610536
0.379004	1.616013
0.379102	1.610388
0.379199	1.614915
0.379297	1.628490
0.379395	1.627688
0.379492	1.623703
0.379590	1.627530
0.379687	1.630270
0.379785	1.625357
0.379883	1.624586
0.379980	1.621327
0.380078	1.616126
0.380176	1.619709
0.380273	1.624917
0.380371	1.624157
0.380469	1.625434
0.380566	1.621478
0.380664	1.614990
0.380762	1.619567
0.380859	1.607385
0.380957	1.594448
0.381055	1.600151
0.381152	1.614622
0.381250	1.625936
0.381348	1.632219
0.381445	1.624200
0.381543	1.612266
0.381641	1.606695
0.381738	1.610435
0.381836	1.623451
0.381934	1.627561
0.382031	1.633761
0.382129	1.637448
0.382227	1.632199
0.382324	1.624878
0.382422	1.620831
0.382520	1.614822
0.382617	1.608888
0.382715	1.599891
0.382812	1.597802
0.382910	1.601159
0.383008	1.602701
0.383105	1.599031
0.383203	1.603324
0.383301	1.605774
0.383398	1.607398
0.383496	1.619853
0.383594	1.623143
0.383691	1.620214
0.383789	1.613286
0.383887	1.607805
0.383984	1.588896
0.384082	1.590315
0.384180	1.597638
0.384277	1.596335
0.384375	1.602850
0.384473	1.609675
0.384570	1.611708
0.384668	1.601082
0.384766	1.597463
0.384863	1.608517
0.384961	1.606394
0.385059	1.604124
0.385156	1.613519
0.385254	1.623269
0.385352	1.620354
0.385449	1.615523
0.385547	1.609916
0.385645	1.609545
0.385742	1.600743
0.385840	1.583791
0.385937	1.564699
0.386035	1.558061
0.386133	1.574472
0.386230	1.587262
0.386328	1.577032
0.386426	1.573411
0.386523	1.562968
0.386621	1.552081
0.386719	1.550669
0.386816	1.565702
0.386914	1.595884
0.387012	1.598044
0.387109	1.599888
0.387207	1.603063
0.387305	1.586567
0.387402	1.579967
0.387500	1.589847
0.387598	1.581963
0.387695	1.580840
0.387793	1.578138
0.387891	1.584569
0.387988	1.577654
0.388086	1.573105
0.388184	1.581587
0.388281	1.581722
0.388379	1.564498
0.388477	1.555572
0.388574	1.551639
0.388672	1.561315
0.388770	1.561771
0.388867	1.571300
0.388965	1.580595
0.389062	1.597229
0.389160	1.597417
0.389258	1.582343
0.389355	1.571779
0.389453	1.569799
0.389551	1.586103
0.389648	1.595358
0.389746	1.597765
0.389844	1.596788
0.389941	1.594647
0.390039	1.579524
0.390137	1.574600
0.390234	1.583100
0.390332	1.595462
0.390430	1.608990
0.390527	1.612088
0.390625	1.609409
0.390723	1.609564
0.390820	1.613877
0.390918	1.618281
0.391016	1.625164
0.391113	1.635647
0.391211	1.635162
0.391309	1.622290
0.391406	1.610324
0.391504	1.613627
0.391602	1.619272
0.391699	1.621626
0.391797	1.624464
0.391895	1.623180
0.391992	1.625451
0.392090	1.627410
0.392187	1.628667
0.392285	1.629623
0.392383	1.631120
0.392480	1.633559
0.392578	1.637903
0.392676	1.644721
0.392773	1.642468
0.392871	1.632085
0.392969	1.626240
0.393066	1.624531
0.393164	1.624039
0.393262	1.618796
0.393359	1.611176
0.393457	1.599251
0.393555	1.592021
0.393652	1.600974
0.393750	1.617806
0.393848	1.622605
0.393945	1.621007
0.394043	1.604967
0.394141	1.600338
0.394238	1.626490
0.394336	1.627674
0.394434	1.623056
0.394531	1.625368
0.394629	1.625327
0.394727	1.623219
0.394824	1.620539
0.394922	1.614502
0.395020	1.610760
0.395117	1.609387
0.395215	1.613327
0.395312	1.625952
0.395410	1.628793
0.395508	1.634120
0.395605	1.616261
0.395703	1.605804
0.395801	1.591383
0.395898	1.577283
0.395996	1.576997
0.396094	1.600288
0.396191	1.602750
0.396289	1.579436
0.396387	1.587408
0.396484	1.592399
0.396582	1.597765
0.396680	1.607707
0.396777	1.623860
0.396875	1.630766
0.396973	1.632971
0.397070	1.604826
0.397168	1.585122
0.397266	1.599194
0.397363	1.602453
0.397461	1.624101
0.397559	1.626844
0.397656	1.614060
0.397754	1.603996
0.397852	1.612856
0.397949	1.612708
0.398047	1.594013
0.398145	1.585284
0.398242	1.599384
0.398340	1.610860
0.398437	1.614159
0.398535	1.615513
0.398633	1.618702
0.398730	1.622326
0.398828	1.625687
0.398926	1.628379
0.399023	1.632413
0.399121	1.635129
0.399219	1.628656
0.399316	1.628000
0.399414	1.629059
0.399512	1.628577
0.399609	1.626771
0.399707	1.620340
0.399805	1.615217
0.399902	1.612704
0.400000	1.608918
0.400098	1.610242
0.400195	1.609782
0.400293	1.601770
0.400391	1.602634
0.400488	1.611003
0.400586	1.617065
0.400684	1.620051
0.400781	1.626193
0.400879	1.627705
0.400977	1.623886
0.401074	1.623611
0.401172	1.625039
0.401270	1.622744
0.401367	1.622615
0.401465	1.617343
0.401562	1.616621
0.401660	1.626534
0.401758	1.635005
0.401855	1.633688
0.401953	1.630427
0.402051	1.630692
0.402148	1.630283
0.402246	1.631693
0.402344	1.633275
0.402441	1.634958
0.402539	1.635099
0.402637	1.635310
0.402734	1.631660
0.402832	1.626328
0.402930	1.622062
0.403027	1.622783
0.403125	1.624195
0.403223	1.630613
0.403320	1.635190
0.403418	1.633037
0.403516	1.628426
0.403613	1.622786
0.403711	1.610851
0.403809	1.616158
0.403906	1.623026
0.404004	1.619962
0.404102	1.621921
0.404199	1.616758
0.404297	1.616553
0.404395	1.618296
0.404492	1.613672
0.404590	1.597030
0.404687	1.591428
0.404785	1.596110
0.404883	1.601611
0.404980	1.609107
0.405078	1.625579
0.405176	1.630656
0.405273	1.622011
0.405371	1.621897
0.405469	1.624172
0.405566	1.618918
0.405664	1.616617
0.405762	1.615824
0.405859	1.620736
0.405957	1.626887
0.406055	1.630492
0.406152	1.633458
0.406250	1.634618
0.406348	1.631965
0.406445	1.627733
0.406543	1.630855
0.406641	1.636892
0.406738	1.638233
0.406836	1.640043
0.406934	1.630716
0.407031	1.614386
0.407129	1.615974
0.407227	1.609912
0.407324	1.590382
0.407422	1.600308
0.407520	1.612444
0.407617	1.625674
0.407715	1.625867
0.407812	1.623536
0.407910	1.627704
0.408008	1.630215
0.408105	1.628081
0.408203	1.628535
0.408301	1.621775
0.408398	1.619061
0.408496	1.616800
0.408594	1.619110
0.408691	1.625528
0.408789	1.628777
0.408887	1.626376
0.408984	1.619178
0.409082	1.601068
0.409180	1.572387
0.409277	1.589457
0.409375	1.604616
0.409473	1.601973
0.409570	1.615916
0.409668	1.625305
0.409766	1.615699
0.409863	1.599431
0.409961	1.608711
0.410059	1.614468
0.410156	1.606667
0.410254	1.623161
0.410352	1.639056
0.410449	1.615662
0.410547	1.612603
0.410645	1.611120
0.410742	1.608424
0.410840	1.610741
0.410937	1.604338
0.411035	1.596270
0.411133	1.604077
0.411230	1.606803
0.411328	1.610487
0.411426	1.626032
0.411523	1.626207
0.411621	1.622425
0.411719	1.623620
0.411816	1.620972
0.411914	1.610729
0.412012	1.606350
0.412109	1.609154
0.412207	1.607391
0.412305	1.605982
0.412402	1.612027
0.412500	1.612148
0.412598	1.613450
0.412695	1.615803
0.412793	1.624585
0.412891	1.626014
0.412988	1.633230
0.413086	1.638340
0.413184	1.637512
0.413281	1.631811
0.413379	1.627247
0.413477	1.623483
0.413574	1.622042
0.413672	1.621791
0.413770	1.623999
0.413867	1.626855
0.413965	1.628032
0.414062	1.628084
0.414160	1.628994
0.414258	1.632583
0.414355	1.634628
0.414453	1.638227
0.414551	1.639810
0.414648	1.639843
0.414746	1.638531
0.414844	1.629951
0.414941	1.624767
0.415039	1.617222
0.415137	1.612050
0.415234	1.611194
0.415332	1.617196
0.415430	1.620036
0.415527	1.617523
0.415625	1.612581
0.415723	1.619406
0.415820	1.623453
0.415918	1.628629
0.416016	1.634993
0.416113	1.628757
0.416211	1.632801
0.416309	1.633055
0.416406	1.634922
0.416504	1.636131
0.416602	1.637904
0.416699	1.636906
0.416797	1.636763
0.416895	1.636057
0.416992	1.636212
0.417090	1.635116
0.417187	1.634473
0.417285	1.633923
0.417383	1.632745
0.417480	1.630399
0.417578	1.631181
0.417676	1.629217
0.417773	1.628033
0.417871	1.628244
0.417969	1.634478
0.418066	1.639575
0.418164	1.640113
0.418262	1.635253
0.418359	1.629407
0.418457	1.628854
0.418555	1.634368
0.418652	1.637223
0.418750	1.637198
0.418848	1.624483
0.418945	1.623812
0.419043	1.631019
0.419141	1.633001
0.419238	1.635561
0.419336	1.633753
0.419434	1.629805
0.419531	1.628288
0.419629	1.628861
0.419727	1.626952
0.419824	1.626355
0.419922	1.625452
0.420020	1.618749
0.420117	1.610506
0.420215	1.604088
0.420312	1.590442
0.420410	1.575937
0.420508	1.580894
0.420605	1.587300
0.420703	1.583837
0.420801	1.590068
0.420898	1.606329
0.420996	1.619978
0.421094	1.628879
0.421191	1.628490
0.421289	1.625030
0.421387	1.624700
0.421484	1.627607
0.421582	1.626068
0.421680	1.626704
0.421777	1.627771
0.421875	1.627522
0.421973	1.620495
0.422070	1.616909
0.422168	1.625041
0.422266	1.634058
0.422363	1.640227
0.422461	1.637263
0.422559	1.632474
0.422656	1.631779
0.422754	1.628411
0.422852	1.627415
0.422949	1.621114
0.423047	1.624629
0.423145	1.631423
0.423242	1.624546
0.423340	1.612428
0.423437	1.600873
0.423535	1.616270
0.423633	1.624305
0.423730	1.617976
0.423828	1.617365
0.423926	1.618264
0.424023	1.615838
0.424121	1.619618
0.424219	1.620074
0.424316	1.619761
0.424414	1.610090
0.424512	1.621493
0.424609	1.622738
0.424707	1.603418
0.424805	1.609497
0.424902	1.617008
0.425000	1.621265
0.425098	1.623348
0.425195	1.628012
0.425293	1.631874
0.425391	1.633908
0.425488	1.636116
0.425586	1.642272
0.425684	1.637029
0.425781	1.625271
0.425879	1.600068
0.425977	1.585584
0.426074	1.588728
0.426172	1.592010
0.426270	1.603279
0.426367	1.603214
0.426465	1.605716
0.426562	1.599974
0.426660	1.593404
0.426758	1.591752
0.426855	1.591692
0.426953	1.597928
0.427051	1.607967
0.427148	1.612007
0.427246	1.610546
0.427344	1.605595
0.427441	1.595525
0.427539	1.609834
0.427637	1.608597
0.427734	1.606094
0.427832	1.606953
0.427930	1.610710
0.428027	1.611752
0.428125	1.604614
0.428223	1.591306
0.428320	1.596824
0.428418	1.602028
0.428516	1.588026
0.428613	1.592658
0.428711	1.608183
0.428809	1.615260
0.428906	1.607171
0.429004	1.621537
0.429102	1.620876
0.429199	1.627572
0.429297	1.622591
0.429395	1.624690
0.429492	1.631937
0.429590	1.637316
0.429687	1.635271
0.429785	1.627040
0.429883	1.623899
0.429980	1.625032
0.430078	1.630523
0.430176	1.635010
0.430273	1.636478
0.430371	1.634886
0.430469	1.631159
0.430566	1.631065
0.430664	1.637356
0.430762	1.646190
0.430859	1.641945
0.430957	1.636524
0.431055	1.638954
0.431152	1.632525
0.431250	1.624569
0.431348	1.623431
0.431445	1.624859
0.431543	1.624085
0.431641	1.622343
0.431738	1.631163
0.431836	1.607250
0.431934	1.598421
0.432031	1.602309
0.432129	1.601954
0.432227	1.612615
0.432324	1.618689
0.432422	1.617780
0.432520	1.604739
0.432617	1.593277
0.432715	1.592623
0.432812	1.587198
0.432910	1.594349
0.433008	1.604202
0.433105	1.602537
0.433203	1.611236
0.433301	1.614875
0.433398	1.608996
0.433496	1.605417
0.433594	1.587836
0.433691	1.584728
0.433789	1.602545
0.433887	1.599059
0.433984	1.589802
0.434082	1.585964
0.434180	1.573377
0.434277	1.566208
0.434375	1.562205
0.434473	1.558051
0.434570	1.563651
0.434668	1.564660
0.434766	1.562822
0.434863	1.570467
0.434961	1.593116
0.435059	1.598472
0.435156	1.596470
0.435254	1.625061
0.435352	1.638138
0.435449	1.613223
0.435547	1.569867
0.435645	1.546763
0.435742	1.545775
0.435840	1.568930
0.435937	1.597693
0.436035	1.611030
0.436133	1.614078
0.436230	1.617381
0.436328	1.617989
0.436426	1.614254
0.436523	1.614910
0.436621	1.621478
0.436719	1.619580
0.436816	1.610675
0.436914	1.606493
0.437012	1.613800
0.437109	1.622927
0.437207	1.625195
0.437305	1.618190
0.437402	1.610924
0.437500	1.608639
0.437598	1.617530
0.437695	1.618726
0.437793	1.613418
0.437891	1.608332
0.437988	1.603464
0.438086	1.582312
0.438184	1.579057
0.438281	1.579545
0.438379	1.598461
0.438477	1.621122
0.438574	1.625850
0.438672	1.630405
0.438770	1.632406
0.438867	1.625237
0.438965	1.614366
0.439062	1.603417
0.439160	1.598030
0.439258	1.594828
0.439355	1.581255
0.439453	1.577362
0.439551	1.582271
0.439648	1.605609
0.439746	1.602891
0.439844	1.579687
0.439941	1.580435
0.440039	1.588800
0.440137	1.585273
0.440234	1.591898
0.440332	1.590716
0.440430	1.594403
0.440527	1.611845
0.440625	1.619100
0.440723	1.614182
0.440820	1.605322
0.440918	1.614774
0.441016	1.619223
0.441113	1.622994
0.441211	1.625777
0.441309	1.615457
0.441406	1.623275
0.441504	1.627263
0.441602	1.626888
0.441699	1.619880
0.441797	1.617828
0.441895	1.618901
0.441992	1.615955
0.442090	1.615899
0.442187	1.608088
0.442285	1.595675
0.442383	1.588822
0.442480	1.608814
0.442578	1.625581
0.442676	1.626190
0.442773	1.627636
0.442871	1.623217
0.442969	1.625705
0.443066	1.626952
0.443164	1.629954
0.443262	1.631625
0.443359	1.628818
0.443457	1.621755
0.443555	1.625654
0.443652	1.631536
0.443750	1.634770
0.443848	1.637627
0.443945	1.635882
0.444043	1.630432
0.444141	1.623653
0.444238	1.621291
0.444336	1.621350
0.444434	1.621428
0.444531	1.623259
0.444629	1.625305
0.444727	1.620225
0.444824	1.616994
0.444922	1.630245
0.445020	1.632313
0.445117	1.624099
0.445215	1.623677
0.445312	1.614472
0.445410	1.605738
0.445508	1.612568
0.445605	1.605583
0.445703	1.603080
0.445801	1.606887
0.445898	1.602181
0.445996	1.587936
0.446094	1.591055
0.446191	1.593598
0.446289	1.592840
0.446387	1.586011
0.446484	1.578362
0.446582	1.578492
0.446680	1.590072
0.446777	1.589155
0.446875	1.583373
0.446973	1.578999
0.447070	1.591287
0.447168	1.582176
0.447266	1.568017
0.447363	1.556417
0.447461	1.566867
0.447559	1.580340
0.447656	1.579678
0.447754	1.581324
0.447852	1.580776
0.447949	1.592112
0.448047	1.611138
0.448145	1.616213
0.448242	1.620192
0.448340	1.629003
0.448437	1.628326
0.448535	1.610455
0.448633	1.607006
0.448730	1.600065
0.448828	1.583564
0.448926	1.575763
0.449023	1.584366
0.449121	1.588601
0.449219	1.594924
0.449316	1.610596
0.449414	1.609804
0.449512	1.613038
0.449609	1.612797
0.449707	1.610442
0.449805	1.607618
0.449902	1.611087
0.450000	1.616582
0.450098	1.615097
0.450195	1.610225
0.450293	1.603359
0.450391	1.602969
0.450488	1.607849
0.450586	1.620424
0.450684	1.617620
0.450781	1.612491
0.450879	1.615508
0.450977	1.619513
0.451074	1.618301
0.451172	1.625189
0.451270	1.607594
0.451367	1.576070
0.451465	1.563906
0.451562	1.579950
0.451660	1.594575
0.451758	1.582404
0.451855	1.555398
0.451953	1.576968
0.452051	1.612410
0.452148	1.621742
0.452246	1.631840
0.452344	1.625973
0.452441	1.630139
0.452539	1.627507
0.452637	1.623808
0.452734	1.618816
0.452832	1.616960
0.452930	1.615252
0.453027	1.621296
0.453125	1.642624
0.453223	1.646907
0.453320	1.635381
0.453418	1.631684
0.453516	1.628372
0.453613	1.627814
0.453711	1.629123
0.453809	1.632879
0.453906	1.634846
0.454004	1.629082
0.454102	1.619000
0.454199	1.610205
0.454297	1.599650
0.454395	1.590284
0.454492	1.585772
0.454590	1.577759
0.454687	1.573348
0.454785	1.569181
0.454883	1.559791
0.454980	1.571054
0.455078	1.587056
0.455176	1.579401
0.455273	1.569316
0.455371	1.563904
0.455469	1.563153
0.455566	1.552664
0.455664	1.558820
0.455762	1.592673
0.455859	1.594299
0.455957	1.592895
0.456055	1.588776
0.456152	1.585592
0.456250	1.584970
0.456348	1.602958
0.456445	1.611609
0.456543	1.614201
0.456641	1.615464
0.456738	1.617190
0.456836	1.618328
0.456934	1.618807
0.457031	1.617714
0.457129	1.618895
0.457227	1.616388
0.457324	1.621662
0.457422	1.620037
0.457520	1.607488
0.457617	1.609997
0.457715	1.620149
0.457812	1.626083
0.457910	1.611308
0.458008	1.608446
0.458105	1.593768
0.458203	1.604779
0.458301	1.612939
0.458398	1.611932
0.458496	1.616203
0.458594	1.617558
0.458691	1.591923
0.458789	1.574139
0.458887	1.577581
0.458984	1.575098
0.459082	1.580446
0.459180	1.607606
0.459277	1.624582
0.459375	1.618171
0.459473	1.594794
0.459570	1.573955
0.459668	1.579428
0.459766	1.585180
0.459863	1.583183
0.459961	1.590986
0.460059	1.613363
0.460156	1.616000
0.460254	1.619794
0.460352	1.620187
0.460449	1.623430
0.460547	1.626009
0.460645	1.630626
0.460742	1.629391
0.460840	1.627281
0.460937	1.626733
0.461035	1.628153
0.461133	1.629482
0.461230	1.629274
0.461328	1.636789
0.461426	1.638379
0.461523	1.633578
0.461621	1.638194
0.461719	1.642415
0.461816	1.634082
0.461914	1.623829
0.462012	1.618057
0.462109	1.624507
0.462207	1.631321
0.462305	1.639223
0.462402	1.634814
0.462500	1.629137
0.462598	1.621268
0.462695	1.623076
0.462793	1.634503
0.462891	1.629461
0.462988	1.621867
0.463086	1.607712
0.463184	1.614312
0.463281	1.617440
0.463379	1.623689
0.463477	1.612799
0.463574	1.609308
0.463672	1.612514
0.463770	1.614280
0.463867	1.619239
0.463965	1.623303
0.464062	1.627678
0.464160	1.638918
0.464258	1.630425
0.464355	1.616364
0.464453	1.598494
0.464551	1.593486
0.464648	1.603575
0.464746	1.597635
0.464844	1.590229
0.464941	1.603745
0.465039	1.609966
0.465137	1.595882
0.465234	1.594694
0.465332	1.606824
0.465430	1.604448
0.465527	1.616557
0.465625	1.626965
0.465723	1.628843
0.465820	1.630864
0.465918	1.628964
0.466016	1.629629
0.466113	1.642452
0.466211	1.628315
0.466309	1.615524
0.466406	1.618727
0.466504	1.626317
0.466602	1.624757
0.466699	1.618625
0.466797	1.616493
0.466895	1.611826
0.466992	1.609262
0.467090	1.596406
0.467187	1.594614
0.467285	1.605079
0.467383	1.610262
0.467480	1.613788
0.467578	1.616317
0.467676	1.611286
0.467773	1.615639
0.467871	1.621535
0.467969	1.624436
0.468066	1.624931
0.468164	1.629963
0.468262	1.634777
0.468359	1.623629
0.468457	1.626946
0.468555	1.617932
0.468652	1.621509
0.468750	1.629711
0.468848	1.617912
0.468945	1.618568
0.469043	1.623411
0.469141	1.619551
0.469238	1.620724
0.469336	1.623264
0.469434	1.627524
0.469531	1.633527
0.469629	1.635042
0.469727	1.629418
0.469824	1.614602
0.469922	1.596796
0.470020	1.588336
0.470117	1.584443
0.470215	1.596601
0.470312	1.623316
0.470410	1.626342
0.470508	1.634796
0.470605	1.641112
0.470703	1.636333
0.470801	1.634966
0.470898	1.633599
0.470996	1.631582
0.471094	1.628654
0.471191	1.628215
0.471289	1.627625
0.471387	1.626962
0.471484	1.626048
0.471582	1.624732
0.471680	1.620406
0.471777	1.607284
0.471875	1.583267
0.471973	1.588495
0.472070	1.591118
0.472168	1.583677
0.472266	1.587823
0.472363	1.593364
0.472461	1.609815
0.472559	1.614121
0.472656	1.614830
0.472754	1.615378
0.472852	1.617752
0.472949	1.622199
0.473047	1.625224
0.473145	1.624548
0.473242	1.632657
0.473340	1.637425
0.473437	1.632305
0.473535	1.630514
0.473633	1.632153
0.473730	1.635818
0.473828	1.630178
0.473926	1.615971
0.474023	1.600860
0.474121	1.578741
0.474219	1.586772
0.474316	1.600672
0.474414	1.617199
0.474512	1.619560
0.474609	1.619062
0.474707	1.599637
0.474805	1.608123
0.474902	1.633766
0.475000	1.627641
0.475098	1.633003
0.475195	1.636838
0.475293	1.638835
0.475391	1.632652
0.475488	1.627340
0.475586	1.619552
0.475684	1.617537
0.475781	1.620246
0.475879	1.629765
0.475977	1.634742
0.476074	1.620886
0.476172	1.596212
0.476270	1.590619
0.476367	1.601842
0.476465	1.610059
0.476562	1.612925
0.476660	1.620942
0.476758	1.620997
0.476855	1.627992
0.476953	1.617439
0.477051	1.604284
0.477148	1.608350
0.477246	1.619192
0.477344	1.621929
0.477441	1.634789
0.477539	1.642253
0.477637	1.633588
0.477734	1.615380
0.477832	1.601658
0.477930	1.600170
0.478027	1.606729
0.478125	1.592057
0.478223	1.585321
0.478320	1.598307
0.478418	1.575513
0.478516	1.569627
0.478613	1.574269
0.478711	1.594938
0.478809	1.615429
0.478906	1.615864
0.479004	1.610485
0.479102	1.587963
0.479199	1.564367
0.479297	1.559104
0.479395	1.563334
0.479492	1.558606
0.479590	1.573719
0.479687	1.609838
0.479785	1.620612
0.479883	1.609458
0.479980	1.589531
0.480078	1.578566
0.480176	1.591562
0.480273	1.601943
0.480371	1.607420
0.480469	1.616071
0.480566	1.620895
0.480664	1.623109
0.480762	1.622624
0.480859	1.625703
0.480957	1.628578
0.481055	1.636874
0.481152	1.637528
0.481250	1.634612
0.481348	1.632331
0.481445	1.628833
0.481543	1.625397
0.481641	1.622689
0.481738	1.624278
0.481836	1.624976
0.481934	1.626991
0.482031	1.630393
0.482129	1.629689
0.482227	1.625708
0.482324	1.623876
0.482422	1.624499
0.482520	1.624645
0.482617	1.625539
0.482715	1.626963
0.482812	1.631284
0.482910	1.634697
0.483008	1.631661
0.483105	1.633637
0.483203	1.634166
0.483301	1.631512
0.483398	1.629332
0.483496	1.627683
0.483594	1.628401
0.483691	1.630151
0.483789	1.632987
0.483887	1.633327
0.483984	1.630666
0.484082	1.634421
0.484180	1.634812
0.484277	1.639479
0.484375	1.635375
0.484473	1.631732
0.484570	1.609407
0.484668	1.609184
0.484766	1.618100
0.484863	1.619710
0.484961	1.620776
0.485059	1.611231
0.485156	1.605656
0.485254	1.608386
0.485352	1.603790
0.485449	1.603959
0.485547	1.597410
0.485645	1.586307
0.485742	1.586776
0.485840	1.580258
0.485937	1.602462
0.486035	1.617832
0.486133	1.620839
0.486230	1.625759
0.486328	1.628156
0.486426	1.630299
0.486523	1.626519
0.486621	1.620924
0.486719	1.612920
0.486816	1.597427
0.486914	1.583856
0.487012	1.572360
0.487109	1.570674
0.487207	1.569864
0.487305	1.568014
0.487402	1.586933
0.487500	1.614754
0.487598	1.632360
0.487695	1.635431
0.487793	1.622429
0.487891	1.625019
0.487988	1.633904
0.488086	1.642601
0.488184	1.641411
0.488281	1.632521
0.488379	1.624880
0.488477	1.623417
0.488574	1.615359
0.488672	1.617996
0.488770	1.620818
0.488867	1.626805
0.488965	1.625130
0.489062	1.619757
0.489160	1.624792
0.489258	1.625518
0.489355	1.627329
0.489453	1.626933
0.489551	1.626816
0.489648	1.625158
0.489746	1.625085
0.489844	1.625746
0.489941	1.628703
0.490039	1.632026
0.490137	1.638485
0.490234	1.646751
0.490332	1.638833
0.490430	1.627441
0.490527	1.631815
0.490625	1.631532
0.490723	1.630804
0.490820	1.626898
0.490918	1.628729
0.491016	1.629471
0.491113	1.629471
0.491211	1.630809
0.491309	1.633101
0.491406	1.632582
0.491504	1.627358
0.491602	1.622368
0.491699	1.621059
0.491797	1.624884
0.491895	1.625280
0.491992	1.615440
0.492090	1.600363
0.492187	1.599325
0.492285	1.593426
0.492383	1.600617
0.492480	1.622279
0.492578	1.623953
0.492676	1.628516
0.492773	1.622758
0.492871	1.608772
0.492969	1.611367
0.493066	1.609915
0.493164	1.603339
0.493262	1.606987
0.493359	1.614156
0.493457	1.621143
0.493555	1.630124
0.493652	1.635618
0.493750	1.631516
0.493848	1.628492
0.493945	1.623729
0.494043	1.620031
0.494141	1.625935
0.494238	1.629351
0.494336	1.631846
0.494434	1.636557
0.494531	1.640863
0.494629	1.639917
0.494727	1.634618
0.494824	1.629812
0.494922	1.631693
0.495020	1.628475
0.495117	1.626696
0.495215	1.635435
0.495312	1.641209
0.495410	1.638621
0.495508	1.634939
0.495605	1.628635
0.495703	1.625024
0.495801	1.623330
0.495898	1.623015
0.495996	1.622569
0.496094	1.623643
0.496191	1.625175
0.496289	1.625517
0.496387	1.608952
0.496484	1.614600
0.496582	1.604989
0.496680	1.602555
0.496777	1.609145
0.496875	1.615893
0.496973	1.623167
0.497070	1.627675
0.497168	1.626915
0.497266	1.619475
0.497363	1.612404
0.497461	1.596796
0.497559	1.583015
0.497656	1.592932
0.497754	1.597112
0.497852	1.595233
0.497949	1.603128
0.498047	1.613628
0.498145	1.622440
0.498242	1.623936
0.498340	1.623508
0.498437	1.624950
0.498535	1.629078
0.498633	1.626030
0.498730	1.618297
0.498828	1.618366
0.498926	1.617941
0.499023	1.616714
0.499121	1.612332
0.499219	1.611354
0.499316	1.604330
0.499414	1.597745
0.499512	1.620673
0.499609	1.615940
0.499707	1.599318
0.499805	1.581541
0.499902	1.574877
0.500000	1.587560
0.500098	1.610301
0.500195	1.604184
0.500293	1.601442
0.500391	1.617799
0.500488	1.618082
0.500586	1.619998
0.500684	1.630401
0.500781	1.630429
0.500879	1.630713
0.500977	1.627516
0.501074	1.625416
0.501172	1.625327
0.501270	1.632281
0.501367	1.637759
0.501465	1.637498
0.501562	1.632098
0.501660	1.629957
0.501758	1.631836
0.501855	1.640323
0.501953	1.640840
0.502051	1.636283
0.502148	1.629132
0.502246	1.624333
0.502344	1.623855
0.502441	1.625167
0.502539	1.625495
0.502637	1.624252
0.502734	1.624482
0.502832	1.624817
0.502930	1.604538
0.503027	1.595972
0.503125	1.597816
0.503223	1.599011
0.503320	1.611504
0.503418	1.614638
0.503516	1.627197
0.503613	1.621024
0.503711	1.617785
0.503809	1.605895
0.503906	1.611832
0.504004	1.636033
0.504102	1.626171
0.504199	1.626606
0.504297	1.628384
0.504395	1.625360
0.504492	1.622521
0.504590	1.619998
0.504687	1.622823
0.504785	1.627630
0.504883	1.630295
0.504980	1.631885
0.505078	1.628920
0.505176	1.622081
0.505273	1.619508
0.505371	1.633017
0.505469	1.642392
0.505566	1.643349
0.505664	1.637674
0.505762	1.625505
0.505859	1.626179
0.505957	1.628302
0.506055	1.616214
0.506152	1.601228
0.506250	1.591766
0.506348	1.603575
0.506445	1.606359
0.506543	1.618475
0.506641	1.622508
0.506738	1.624529
0.506836	1.630764
0.506934	1.633061
0.507031	1.635476
0.507129	1.631987
0.507227	1.625701
0.507324	1.618214
0.507422	1.603069
0.507520	1.586642
0.507617	1.600080
0.507715	1.609988
0.507812	1.613630
0.507910	1.620505
0.508008	1.619979
0.508105	1.624687
0.508203	1.629480
0.508301	1.629836
0.508398	1.633672
0.508496	1.630609
0.508594	1.625007
0.508691	1.624401
0.508789	1.625315
0.508887	1.627767
0.508984	1.629595
0.509082	1.631846
0.509180	1.632699
0.509277	1.635943
0.509375	1.637599
0.509473	1.638805
0.509570	1.626099
0.509668	1.616235
0.509766	1.607465
0.509863	1.604613
0.509961	1.602579
0.510059	1.590924
0.510156	1.599824
0.510254	1.615440
0.510352	1.625058
0.510449	1.628374
0.510547	1.629588
0.510645	1.628049
0.510742	1.631422
0.510840	1.639490
0.510937	1.637608
0.511035	1.622423
0.511133	1.612399
0.511230	1.618963
0.511328	1.617846
0.511426	1.606830
0.511523	1.600671
0.511621	1.593070
0.511719	1.602543
0.511816	1.596896
0.511914	1.586369
0.512012	1.593325
0.512109	1.607892
0.512207	1.607571
0.512305	1.620203
0.512402	1.633122
0.512500	1.634269
0.512598	1.631210
0.512695	1.628740
0.512793	1.626860
0.512891	1.625005
0.512988	1.624865
0.513086	1.627257
0.513184	1.633937
0.513281	1.630022
0.513379	1.631265
0.513477	1.634525
0.513574	1.622923
0.513672	1.618495
0.513770	1.621643
0.513867	1.619546
0.513965	1.618943
0.514062	1.620695
0.514160	1.622435
0.514258	1.624220
0.514355	1.627456
0.514453	1.629990
0.514551	1.631937
0.514648	1.634568
0.514746	1.639221
0.514844	1.645319
0.514941	1.649508
0.515039	1.645329
0.515137	1.640430
0.515234	1.638425
0.515332	1.634705
0.515430	1.631263
0.515527	1.647493
0.515625	1.631755
0.515723	1.618455
0.515820	1.623110
0.515918	1.620025
0.516016	1.613564
0.516113	1.615932
0.516211	1.622467
0.516309	1.614872
0.516406	1.591473
0.516504	1.583533
0.516602	1.575107
0.516699	1.571608
0.516797	1.584305
0.516895	1.595368
0.516992	1.602304
0.517090	1.610817
0.517187	1.611073
0.517285	1.607257
0.517383	1.608888
0.517480	1.619129
0.517578	1.627675
0.517676	1.633153
0.517773	1.637895
0.517871	1.631998
0.517969	1.624015
0.518066	1.615971
0.518164	1.615598
0.518262	1.605229
0.518359	1.605716
0.518457	1.600942
0.518555	1.611177
0.518652	1.608217
0.518750	1.593413
0.518848	1.585306
0.518945	1.572463
0.519043	1.562230
0.519141	1.569622
0.519238	1.588812
0.519336	1.607429
0.519434	1.610132
0.519531	1.615092
0.519629	1.622245
0.519727	1.625819
0.519824	1.629499
0.519922	1.630765
0.520020	1.626578
0.520117	1.620425
0.520215	1.611560
0.520312	1.598745
0.520410	1.582675
0.520508	1.578266
0.520605	1.580336
0.520703	1.576567
0.520801	1.573917
0.520898	1.572421
0.520996	1.576603
0.521094	1.580238
0.521191	1.565801
0.521289	1.588172
0.521387	1.606335
0.521484	1.611657
0.521582	1.617731
0.521680	1.617375
0.521777	1.614347
0.521875	1.609131
0.521973	1.610233
0.522070	1.609638
0.522168	1.602996
0.522266	1.593312
0.522363	1.582476
0.522461	1.556650
0.522559	1.562060
0.522656	1.586830
0.522754	1.604127
0.522852	1.600833
0.522949	1.599291
0.523047	1.622169
0.523145	1.636249
0.523242	1.637070
0.523340	1.619901
0.523437	1.614811
0.523535	1.619037
0.523633	1.627190
0.523730	1.634081
0.523828	1.643872
0.523926	1.640420
0.524023	1.628896
0.524121	1.618461
0.524219	1.613702
0.524316	1.610026
0.524414	1.607349
0.524512	1.591885
0.524609	1.577552
0.524707	1.576902
0.524805	1.602493
0.524902	1.620031
0.525000	1.627444
0.525098	1.611244
0.525195	1.606577
0.525293	1.617810
0.525391	1.617527
0.525488	1.613447
0.525586	1.605889
0.525684	1.610685
0.525781	1.620477
0.525879	1.620318
0.525977	1.614419
0.526074	1.621071
0.526172	1.619550
0.526270	1.614039
0.526367	1.607270
0.526465	1.612968
0.526562	1.620064
0.526660	1.603976
0.526758	1.599980
0.526855	1.602566
0.526953	1.602606
0.527051	1.591947
0.527148	1.587949
0.527246	1.586566
0.527344	1.571944
0.527441	1.559365
0.527539	1.575839
0.527637	1.607884
0.527734	1.627131
0.527832	1.617448
0.527930	1.620283
0.528027	1.624967
0.528125	1.623133
0.528223	1.615604
0.528320	1.629586
0.528418	1.637586
0.528516	1.639531
0.528613	1.633723
0.528711	1.628436
0.528809	1.630124
0.528906	1.627370
0.529004	1.627355
0.529102	1.627444
0.529199	1.628539
0.529297	1.630478
0.529395	1.632037
0.529492	1.632805
0.529590	1.636895
0.529687	1.640877
0.529785	1.639033
0.529883	1.634515
0.529980	1.630961
0.530078	1.630105
0.530176	1.629269
0.530273	1.629391
0.530371	1.628443
0.530469	1.627973
0.530566	1.627378
0.530664	1.628174
0.530762	1.630291
0.530859	1.633413
0.530957	1.636535
0.531055	1.639711
0.531152	1.643564
0.531250	1.645028
0.531348	1.645694
0.531445	1.638548
0.531543	1.631246
0.531641	1.628899
0.531738	1.629749
0.531836	1.627021
0.531934	1.625515
0.532031	1.623455
0.532129	1.620305
0.532227	1.612365
0.532324	1.598957
0.532422	1.572586
0.532520	1.553582
0.532617	1.564363
0.532715	1.568670
0.532812	1.575399
0.532910	1.565950
0.533008	1.563880
0.533105	1.562424
0.533203	1.563733
0.533301	1.576139
0.533398	1.577841
0.533496	1.612003
0.533594	1.617061
0.533691	1.624809
0.533789	1.637050
0.533887	1.636070
0.533984	1.610881
0.534082	1.600030
0.534180	1.605487
0.534277	1.617735
0.534375	1.636948
0.534473	1.637007
0.534570	1.632976
0.534668	1.631726
0.534766	1.625494
0.534863	1.608601
0.534961	1.598482
0.535059	1.618007
0.535156	1.624471
0.535254	1.637004
0.535352	1.646821
0.535449	1.647914
0.535547	1.642740
0.535645	1.630158
0.535742	1.630913
0.535840	1.624045
0.535937	1.615588
0.536035	1.614920
0.536133	1.612365
0.536230	1.613184
0.536328	1.613650
0.536426	1.612680
0.536523	1.605260
0.536621	1.618415
0.536719	1.631805
0.536816	1.634005
0.536914	1.628986
0.537012	1.623729
0.537109	1.615718
0.537207	1.615326
0.537305	1.609826
0.537402	1.608804
0.537500	1.604396
0.537598	1.605920
0.537695	1.606161
0.537793	1.598969
0.537891	1.590424
0.537988	1.594419
0.538086	1.604321
0.538184	1.619647
0.538281	1.625391
0.538379	1.626619
0.538477	1.627304
0.538574	1.624494
0.538672	1.627328
0.538770	1.624799
0.538867	1.624673
0.538965	1.625881
0.539062	1.626432
0.539160	1.624200
0.539258	1.624008
0.539355	1.626949
0.539453	1.633763
0.539551	1.637815
0.539648	1.639971
0.539746	1.634346
0.539844	1.633716
0.539941	1.635274
0.540039	1.626263
0.540137	1.615076
0.540234	1.616484
0.540332	1.614467
0.540430	1.615427
0.540527	1.623295
0.540625	1.627123
0.540723	1.630823
0.540820	1.633744
0.540918	1.639523
0.541016	1.636940
0.541113	1.633084
0.541211	1.628734
0.541309	1.615771
0.541406	1.596829
0.541504	1.599664
0.541602	1.602391
0.541699	1.606028
0.541797	1.612782
0.541895	1.613436
0.541992	1.597194
0.542090	1.580533
0.542187	1.571720
0.542285	1.574211
0.542383	1.591437
0.542480	1.593260
0.542578	1.592986
0.542676	1.580060
0.542773	1.561742
0.542871	1.562786
0.542969	1.565405
0.543066	1.585067
0.543164	1.604989
0.543262	1.613321
0.543359	1.620573
0.543457	1.615055
0.543555	1.602082
0.543652	1.610662
0.543750	1.613654
0.543848	1.614569
0.543945	1.608140
0.544043	1.604676
0.544141	1.594844
0.544238	1.603849
0.544336	1.624079
0.544434	1.624631
0.544531	1.627941
0.544629	1.634746
0.544727	1.635814
0.544824	1.626667
0.544922	1.627312
0.545020	1.625608
0.545117	1.628285
0.545215	1.623837
0.545312	1.628831
0.545410	1.630888
0.545508	1.635921
0.545605	1.634781
0.545703	1.629800
0.545801	1.611679
0.545898	1.588818
0.545996	1.588730
0.546094	1.598257
0.546191	1.608192
0.546289	1.613672
0.546387	1.620232
0.546484	1.624647
0.546582	1.631036
0.546680	1.632748
0.546777	1.635880
0.546875	1.638666
0.546973	1.622085
0.547070	1.613540
0.547168	1.616257
0.547266	1.622390
0.547363	1.624171
0.547461	1.637846
0.547559	1.643049
0.547656	1.634103
0.547754	1.634639
0.547852	1.634318
0.547949	1.629927
0.548047	1.626941
0.548145	1.627838
0.548242	1.625543
0.548340	1.628196
0.548437	1.624600
0.548535	1.612354
0.548633	1.605652
0.548730	1.616321
0.548828	1.626408
0.548926	1.629831
0.549023	1.621855
0.549121	1.608716
0.549219	1.603856
0.549316	1.595333
0.549414	1.593227
0.549512	1.592400
0.549609	1.586977
0.549707	1.581659
0.549805	1.575612
0.549902	1.566718
0.550000	1.574962
0.550098	1.591536
0.550195	1.594269
0.550293	1.578244
0.550391	1.581980
0.550488	1.588010
0.550586	1.576203
0.550684	1.567183
0.550781	1.560683
0.550879	1.564528
0.550977	1.581545
0.551074	1.589931
0.551172	1.588078
0.551270	1.585450
0.551367	1.581800
0.551465	1.585095
0.551562	1.587804
0.551660	1.568518
0.551758	1.560417
0.551855	1.588522
0.551953	1.613185
0.552051	1.615130
0.552148	1.615560
0.552246	1.614013
0.552344	1.616440
0.552441	1.617585
0.552539	1.622472
0.552637	1.623075
0.552734	1.622207
0.552832	1.613395
0.552930	1.603712
0.553027	1.594045
0.553125	1.583479
0.553223	1.585076
0.553320	1.592803
0.553418	1.608724
0.553516	1.608676
0.553613	1.609183
0.553711	1.601129
0.553809	1.585487
0.553906	1.591936
0.554004	1.588623
0.554102	1.579051
0.554199	1.585648
0.554297	1.599391
0.554395	1.605480
0.554492	1.611455
0.554590	1.609079
0.554687	1.620139
0.554785	1.630379
0.554883	1.634576
0.554980	1.612655
0.555078	1.609282
0.555176	1.622295
0.555273	1.622879
0.555371	1.624931
0.555469	1.623238
0.555566	1.625616
0.555664	1.626328
0.555762	1.629896
0.555859	1.631204
0.555957	1.638360
0.556055	1.641987
0.556152	1.639155
0.556250	1.611923
0.556348	1.609197
0.556445	1.625571
0.556543	1.630880
0.556641	1.617232
0.556738	1.605965
0.556836	1.598833
0.556934	1.585044
0.557031	1.579172
0.557129	1.572693
0.557227	1.566646
0.557324	1.566947
0.557422	1.569646
0.557520	1.575270
0.557617	1.589041
0.557715	1.595140
0.557812	1.591317
0.557910	1.589524
0.558008	1.587259
0.558105	1.584272
0.558203	1.596615
0.558301	1.609628
0.558398	1.617985
0.558496	1.601139
0.558594	1.581586
0.558691	1.598996
0.558789	1.605835
0.558887	1.608302
0.558984	1.625388
0.559082	1.629114
0.559180	1.621591
0.559277	1.627539
0.559375	1.623492
0.559473	1.626519
0.559570	1.626583
0.559668	1.634376
0.559766	1.636215
0.559863	1.637337
0.559961	1.642116
0.560059	1.647646
0.560156	1.649965
0.560254	1.641557
0.560352	1.636924
0.560449	1.631006
0.560547	1.628032
0.560645	1.627167
0.560742	1.625942
0.560840	1.624540
0.560937	1.624747
0.561035	1.626747
0.561133	1.628313
0.561230	1.628861
0.561328	1.629039
0.561426	1.630171
0.561523	1.632640
0.561621	1.637388
0.561719	1.638300
0.561816	1.641220
0.561914	1.643727
0.562012	1.625922
0.562109	1.611142
0.562207	1.605833
0.562305	1.613138
0.562402	1.616491
0.562500	1.619542
0.562598	1.626373
0.562695	1.631512
0.562793	1.632498
0.562891	1.629815
0.562988	1.622956
0.563086	1.626361
0.563184	1.626234
0.563281	1.625583
0.563379	1.626904
0.563477	1.626804
0.563574	1.626362
0.563672	1.631334
0.563770	1.636175
0.563867	1.631429
0.563965	1.624516
0.564062	1.620447
0.564160	1.623101
0.564258	1.626301
0.564355	1.625177
0.564453	1.627170
0.564551	1.632676
0.564648	1.635915
0.564746	1.633577
0.564844	1.628695
0.564941	1.621897
0.565039	1.612662
0.565137	1.607983
0.565234	1.614852
0.565332	1.621687
0.565430	1.621427
0.565527	1.618316
0.565625	1.611617
0.565723	1.610153
0.565820	1.618134
0.565918	1.622378
0.566016	1.617367
0.566113	1.592258
0.566211	1.578711
0.566309	1.580529
0.566406	1.572716
0.566504	1.567240
0.566602	1.556644
0.566699	1.557084
0.566797	1.604149
0.566895	1.616023
0.566992	1.587902
0.567090	1.564800
0.567187	1.568068
0.567285	1.589981
0.567383	1.601518
0.567480	1.608662
0.567578	1.616052
0.567676	1.622125
0.567773	1.628274
0.567871	1.628888
0.567969	1.627569
0.568066	1.624745
0.568164	1.623811
0.568262	1.623951
0.568359	1.626628
0.568457	1.629219
0.568555	1.627363
0.568652	1.626254
0.568750	1.624427
0.568848	1.624214
0.568945	1.622253
0.569043	1.632713
0.569141	1.647681
0.569238	1.644123
0.569336	1.610967
0.569434	1.613877
0.569531	1.625492
0.569629	1.622047
0.569727	1.621296
0.569824	1.610114
0.569922	1.600358
0.570020	1.605707
0.570117	1.610995
0.570215	1.613744
0.570312	1.606488
0.570410	1.600668
0.570508	1.602223
0.570605	1.611628
0.570703	1.605314
0.570801	1.592807
0.570898	1.596669
0.570996	1.595652
0.571094	1.590786
0.571191	1.585708
0.571289	1.609442
0.571387	1.614625
0.571484	1.615669
0.571582	1.619396
0.571680	1.618826
0.571777	1.612480
0.571875	1.608449
0.571973	1.613494
0.572070	1.608968
0.572168	1.608529
0.572266	1.604749
0.572363	1.587787
0.572461	1.584059
0.572559	1.579288
0.572656	1.568356
0.572754	1.565056
0.572852	1.577521
0.572949	1.584178
0.573047	1.585035
0.573145	1.583272
0.573242	1.580820
0.573340	1.577325
0.573437	1.583790
0.573535	1.604065
0.573633	1.614951
0.573730	1.621552
0.573828	1.625350
0.573926	1.627841
0.574023	1.629355
0.574121	1.628699
0.574219	1.623666
0.574316	1.619698
0.574414	1.617282
0.574512	1.617992
0.574609	1.626054
0.574707	1.619258
0.574805	1.604830
0.574902	1.607498
0.575000	1.608574
0.575098	1.611394
0.575195	1.613313
0.575293	1.618580
0.575391	1.628136
0.575488	1.623862
0.575586	1.617359
0.575684	1.608525
0.575781	1.591447
0.575879	1.609006
0.575977	1.626161
0.576074	1.613751
0.576172	1.598008
0.576270	1.597551
0.576367	1.586342
0.576465	1.557632
0.576562	1.542069
0.576660	1.536545
0.576758	1.540801
0.576855	1.530516
0.576953	1.524721
0.577051	1.543071
0.577148	1.548111
0.577246	1.544635
0.577344	1.548165
0.577441	1.563459
0.577539	1.578083
0.577637	1.594414
0.577734	1.606410
0.577832	1.617402
0.577930	1.625827
0.578027	1.623500
0.578125	1.615253
0.578223	1.609125
0.578320	1.600694
0.578418	1.595318
0.578516	1.601568
0.578613	1.613174
0.578711	1.621075
0.578809	1.622193
0.578906	1.620962
0.579004	1.620584
0.579102	1.617991
0.579199	1.614509
0.579297	1.612509
0.579395	1.603828
0.579492	1.610851
0.579590	1.616213
0.579687	1.617728
0.579785	1.618458
0.579883	1.621186
0.579980	1.626019
0.580078	1.632988
0.580176	1.637624
0.580273	1.629401
0.580371	1.607160
0.580469	1.590634
0.580566	1.592566
0.580664	1.606520
0.580762	1.620371
0.580859	1.622389
0.580957	1.619358
0.581055	1.614231
0.581152	1.612468
0.581250	1.611577
0.581348	1.613872
0.581445	1.614138
0.581543	1.615496
0.581641	1.609171
0.581738	1.599514
0.581836	1.587200
0.581934	1.600694
0.582031	1.609733
0.582129	1.589960
0.582227	1.592108
0.582324	1.601654
0.582422	1.622624
0.582520	1.626143
0.582617	1.618154
0.582715	1.614433
0.582812	1.616352
0.582910	1.619416
0.583008	1.627575
0.583105	1.633842
0.583203	1.634150
0.583301	1.632828
0.583398	1.630133
0.583496	1.623841
0.583594	1.627022
0.583691	1.624488
0.583789	1.621049
0.583887	1.623981
0.583984	1.627286
0.584082	1.630658
0.584180	1.635025
0.584277	1.639060
0.584375	1.637448
0.584473	1.634916
0.584570	1.628914
0.584668	1.609585
0.584766	1.613799
0.584863	1.638061
0.584961	1.648788
0.585059	1.627616
0.585156	1.612626
0.585254	1.613220
0.585352	1.609422
0.585449	1.601212
0.585547	1.589805
0.585645	1.587893
0.585742	1.600180
0.585840	1.608755
0.585937	1.612473
0.586035	1.614367
0.586133	1.615537
0.586230	1.614910
0.586328	1.608344
0.586426	1.591932
0.586523	1.595304
0.586621	1.602728
0.586719	1.605364
0.586816	1.611467
0.586914	1.615687
0.587012	1.622944
0.587109	1.623202
0.587207	1.622993
0.587305	1.624618
0.587402	1.626160
0.587500	1.622160
0.587598	1.613787
0.587695	1.602350
0.587793	1.611452
0.587891	1.619050
0.587988	1.618273
0.588086	1.621479
0.588184	1.623344
0.588281	1.627870
0.588379	1.634527
0.588477	1.637340
0.588574	1.624615
0.588672	1.620088
0.588770	1.624865
0.588867	1.621536
0.588965	1.613541
0.589062	1.608133
0.589160	1.605466
0.589258	1.607883
0.589355	1.609663
0.589453	1.601485
0.589551	1.603314
0.589648	1.619306
0.589746	1.621235
0.589844	1.615193
0.589941	1.622887
0.590039	1.633879
0.590137	1.626670
0.590234	1.620635
0.590332	1.625800
0.590430	1.631127
0.590527	1.624400
0.590625	1.619493
0.590723	1.626824
0.590820	1.633013
0.590918	1.631480
0.591016	1.630002
0.591113	1.630891
0.591211	1.630597
0.591309	1.627791
0.591406	1.621445
0.591504	1.618550
0.591602	1.621961
0.591699	1.622960
0.591797	1.620278
0.591895	1.617054
0.591992	1.632500
0.592090	1.636001
0.592187	1.629225
0.592285	1.623892
0.592383	1.621452
0.592480	1.619414
0.592578	1.607996
0.592676	1.607158
0.592773	1.616347
0.592871	1.623224
0.592969	1.630686
0.593066	1.620874
0.593164	1.616935
0.593262	1.608688
0.593359	1.613489
0.593457	1.625133
0.593555	1.627962
0.593652	1.630901
0.593750	1.632309
0.593848	1.628813
0.593945	1.625947
0.594043	1.624895
0.594141	1.624159
0.594238	1.622583
0.594336	1.622046
0.594434	1.622372
0.594531	1.606633
0.594629	1.609777
0.594727	1.625811
0.594824	1.628281
0.594922	1.627661
0.595020	1.628825
0.595117	1.629236
0.595215	1.630514
0.595312	1.632170
0.595410	1.630705
0.595508	1.634056
0.595605	1.632229
0.595703	1.626304
0.595801	1.619272
0.595898	1.615832
0.595996	1.625310
0.596094	1.621606
0.596191	1.625242
0.596289	1.604605
0.596387	1.584116
0.596484	1.582786
0.596582	1.585067
0.596680	1.562900
0.596777	1.562706
0.596875	1.577960
0.596973	1.576332
0.597070	1.578308
0.597168	1.561202
0.597266	1.532700
0.597363	1.523488
0.597461	1.535243
0.597559	1.541180
0.597656	1.556117
0.597754	1.565168
0.597852	1.587588
0.597949	1.612165
0.598047	1.616720
0.598145	1.621502
0.598242	1.622918
0.598340	1.624533
0.598437	1.626906
0.598535	1.622278
0.598633	1.613868
0.598730	1.610760
0.598828	1.612714
0.598926	1.615301
0.599023	1.620314
0.599121	1.624399
0.599219	1.626947
0.599316	1.628254
0.599414	1.626994
0.599512	1.627522
0.599609	1.623979
0.599707	1.607479
0.599805	1.609509
0.599902	1.602307
0.600000	1.631532
0.600098	1.636173
0.600195	1.629621
0.600293	1.628407
0.600391	1.628170
0.600488	1.630721
0.600586	1.618934
0.600684	1.616747
0.600781	1.617317
0.600879	1.621727
0.600977	1.629655
0.601074	1.634265
0.601172	1.637710
0.601270	1.637649
0.601367	1.630861
0.601465	1.640660
0.601562	1.634124
0.601660	1.620527
0.601758	1.611177
0.601855	1.601913
0.601953	1.588544
0.602051	1.613305
0.602148	1.630302
0.602246	1.623803
0.602344	1.622190
0.602441	1.631190
0.602539	1.642331
0.602637	1.638971
0.602734	1.640228
0.602832	1.639531
0.602930	1.634588
0.603027	1.629826
0.603125	1.622304
0.603223	1.617873
0.603320	1.606965
0.603418	1.586274
0.603516	1.577074
0.603613	1.575306
0.603711	1.585890
0.603809	1.586976
0.603906	1.603287
0.604004	1.611467
0.604102	1.617744
0.604199	1.623125
0.604297	1.628114
0.604395	1.630182
0.604492	1.628253
0.604590	1.619823
0.604687	1.595090
0.604785	1.592742
0.604883	1.613235
0.604980	1.626661
0.605078	1.630942
0.605176	1.626827
0.605273	1.623806
0.605371	1.623821
0.605469	1.623277
0.605566	1.617169
0.605664	1.606112
0.605762	1.605128
0.605859	1.617391
0.605957	1.614463
0.606055	1.600660
0.606152	1.597587
0.606250	1.602880
0.606348	1.613592
0.606445	1.605771
0.606543	1.606065
0.606641	1.617966
0.606738	1.612993
0.606836	1.617828
0.606934	1.588728
0.607031	1.555633
0.607129	1.555851
0.607227	1.549293
0.607324	1.570353
0.607422	1.589062
0.607520	1.610959
0.607617	1.615930
0.607715	1.622484
0.607812	1.630134
0.607910	1.631550
0.608008	1.631007
0.608105	1.639004
0.608203	1.638519
0.608301	1.632479
0.608398	1.626886
0.608496	1.629957
0.608594	1.628892
0.608691	1.626911
0.608789	1.626570
0.608887	1.627160
0.608984	1.627819
0.609082	1.628114
0.609180	1.628864
0.609277	1.629347
0.609375	1.631438
0.609473	1.634005
0.609570	1.631165
0.609668	1.625865
0.609766	1.616301
0.609863	1.595910
0.609961	1.587624
0.610059	1.599950
0.610156	1.610369
0.610254	1.614363
0.610352	1.618488
0.610449	1.618226
0.610547	1.615828
0.610645	1.620141
0.610742	1.623231
0.610840	1.625557
0.610937	1.625341
0.611035	1.624951
0.611133	1.625694
0.611230	1.630991
0.611328	1.634618
0.611426	1.635659
0.611523	1.632959
0.611621	1.627198
0.611719	1.616229
0.611816	1.624441
0.611914	1.639474
0.612012	1.632004
0.612109	1.626158
0.612207	1.619251
0.612305	1.615825
0.612402	1.615463
0.612500	1.612613
0.612598	1.618603
0.612695	1.618231
0.612793	1.601375
0.612891	1.611745
0.612988	1.618403
0.613086	1.605961
0.613184	1.603901
0.613281	1.603861
0.613379	1.604343
0.613477	1.613126
0.613574	1.614500
0.613672	1.599196
0.613770	1.601773
0.613867	1.610422
0.613965	1.620051
0.614062	1.623511
0.614160	1.623890
0.614258	1.626437
0.614355	1.628842
0.614453	1.629877
0.614551	1.627800
0.614648	1.625014
0.614746	1.622163
0.614844	1.618799
0.614941	1.613631
0.615039	1.601070
0.615137	1.588449
0.615234	1.602695
0.615332	1.601026
0.615430	1.595490
0.615527	1.601541
0.615625	1.609534
0.615723	1.613925
0.615820	1.615694
0.615918	1.615963
0.616016	1.615883
0.616113	1.610860
0.616211	1.600793
0.616309	1.611113
0.616406	1.614510
0.616504	1.616557
0.616602	1.610272
0.616699	1.602534
0.616797	1.594474
0.616895	1.588021
0.616992	1.592136
0.617090	1.598429
0.617187	1.606147
0.617285	1.612453
0.617383	1.608522
0.617480	1.609484
0.617578	1.626052
0.617676	1.631588
0.617773	1.636440
0.617871	1.637250
0.617969	1.637355
0.618066	1.634669
0.618164	1.632633
0.618262	1.631139
0.618359	1.630124
0.618457	1.628642
0.618555	1.627650
0.618652	1.626110
0.618750	1.625102
0.618848	1.624197
0.618945	1.624572
0.619043	1.625471
0.619141	1.631698
0.619238	1.636812
0.619336	1.633803
0.619434	1.621615
0.619531	1.624879
0.619629	1.626894
0.619727	1.612352
0.619824	1.617926
0.619922	1.611708
0.620020	1.606297
0.620117	1.617273
0.620215	1.608375
0.620312	1.604559
0.620410	1.606040
0.620508	1.597619
0.620605	1.578828
0.620703	1.555195
0.620801	1.545468
0.620898	1.555928
0.620996	1.577088
0.621094	1.576852
0.621191	1.572249
0.621289	1.578810
0.621387	1.572681
0.621484	1.571968
0.621582	1.565442
0.621680	1.555165
0.621777	1.558814
0.621875	1.585070
0.621973	1.578058
0.622070	1.575631
0.622168	1.602757
0.622266	1.597232
0.622363	1.592403
0.622461	1.591413
0.622559	1.597098
0.622656	1.609203
0.622754	1.614467
0.622852	1.622152
0.622949	1.626365
0.623047	1.628865
0.623145	1.629630
0.623242	1.632516
0.623340	1.631785
0.623437	1.630110
0.623535	1.628086
0.623633	1.627280
0.623730	1.626320
0.623828	1.627030
0.623926	1.628159
0.624023	1.627611
0.624121	1.624025
0.624219	1.617609
0.624316	1.607506
0.624414	1.608916
0.624512	1.602916
0.624609	1.591680
0.624707	1.602723
0.624805	1.620959
0.624902	1.622653
0.625000	1.623422
0.625098	1.625207
0.625195	1.627625
0.625293	1.629302
0.625391	1.629390
0.625488	1.627730
0.625586	1.625947
0.625684	1.623695
0.625781	1.620385
0.625879	1.609524
0.625977	1.579369
0.626074	1.587077
0.626172	1.600272
0.626270	1.604519
0.626367	1.591406
0.626465	1.582713
0.626562	1.592156
0.626660	1.585253
0.626758	1.601716
0.626855	1.591940
0.626953	1.578895
0.627051	1.573021
0.627148	1.569441
0.627246	1.595716
0.627344	1.595899
0.627441	1.601114
0.627539	1.611682
0.627637	1.611667
0.627734	1.612927
0.627832	1.614301
0.627930	1.597859
0.628027	1.581645
0.628125	1.584277
0.628223	1.590995
0.628320	1.589502
0.628418	1.585853
0.628516	1.580096
0.628613	1.575949
0.628711	1.573382
0.628809	1.566478
0.628906	1.552556
0.629004	1.553353
0.629102	1.548840
0.629199	1.548078
0.629297	1.562555
0.629395	1.577895
0.629492	1.582537
0.629590	1.587065
0.629687	1.600442
0.629785	1.601486
0.629883	1.602348
0.629980	1.589824
0.630078	1.586214
0.630176	1.593304
0.630273	1.601103
0.630371	1.610357
0.630469	1.611182
0.630566	1.610907
0.630664	1.604839
0.630762	1.594438
0.630859	1.593214
0.630957	1.596473
0.631055	1.611564
0.631152	1.617868
0.631250	1.619056
0.631348	1.616541
0.631445	1.619635
0.631543	1.615428
0.631641	1.617106
0.631738	1.629220
0.631836	1.627791
0.631934	1.629144
0.632031	1.621955
0.632129	1.619980
0.632227	1.609963
0.632324	1.597853
0.632422	1.600317
0.632520	1.594861
0.632617	1.581370
0.632715	1.581838
0.632812	1.578090
0.632910	1.554012
0.633008	1.550521
0.633105	1.546949
0.633203	1.550706
0.633301	1.546547
0.633398	1.532562
0.633496	1.518642
0.633594	1.506187
0.633691	1.517227
0.633789	1.568691
0.633887	1.602822
0.633984	1.609183
0.634082	1.615475
0.634180	1.618154
0.634277	1.625178
0.634375	1.626967
0.634473	1.627823
0.634570	1.634019
0.634668	1.633932
0.634766	1.633546
0.634863	1.640245
0.634961	1.643436
0.635059	1.634606
0.635156	1.633696
0.635254	1.633031
0.635352	1.633177
0.635449	1.626455
0.635547	1.616867
0.635645	1.615353
0.635742	1.618267
0.635840	1.616933
0.635937	1.621359
0.636035	1.624181
0.636133	1.628144
0.636230	1.632546
0.636328	1.630323
0.636426	1.634521
0.636523	1.625351
0.636621	1.616521
0.636719	1.618098
0.636816	1.622804
0.636914	1.623566
0.637012	1.616735
0.637109	1.611976
0.637207	1.612953
0.637305	1.613655
0.637402	1.603953
0.637500	1.609248
0.637598	1.623906
0.637695	1.628282
0.637793	1.636865
0.637891	1.639637
0.637988	1.634527
0.638086	1.626955
0.638184	1.622016
0.638281	1.620444
0.638379	1.625982
0.638477	1.625426
0.638574	1.631695
0.638672	1.628580
0.638770	1.618538
0.638867	1.609989
0.638965	1.610743
0.639062	1.616178
0.639160	1.611831
0.639258	1.612950
0.639355	1.631081
0.639453	1.627370
0.639551	1.622782
0.639648	1.621180
0.639746	1.620164
0.639844	1.620216
0.639941	1.622842
0.640039	1.618364
0.640137	1.616648
0.640234	1.599295
0.640332	1.584147
0.640430	1.589477
0.640527	1.598650
0.640625	1.595280
0.640723	1.594451
0.640820	1.582806
0.640918	1.583095
0.641016	1.609521
0.641113	1.611363
0.641211	1.609936
0.641309	1.600867
0.641406	1.616728
0.641504	1.611995
0.641602	1.615911
0.641699	1.618185
0.641797	1.622314
0.641895	1.622825
0.641992	1.622151
0.642090	1.628222
0.642187	1.638711
0.642285	1.628571
0.642383	1.624249
0.642480	1.633142
0.642578	1.634012
0.642676	1.626299
0.642773	1.628396
0.642871	1.629767
0.642969	1.628838
0.643066	1.625634
0.643164	1.621376
0.643262	1.624686
0.643359	1.623445
0.643457	1.629748
0.643555	1.629793
0.643652	1.616405
0.643750	1.600507
0.643848	1.596989
0.643945	1.613357
0.644043	1.619500
0.644141	1.623998
0.644238	1.622417
0.644336	1.607729
0.644434	1.597485
0.644531	1.592652
0.644629	1.594797
0.644727	1.606751
0.644824	1.610051
0.644922	1.618312
0.645020	1.623579
0.645117	1.618738
0.645215	1.605945
0.645312	1.605568
0.645410	1.603377
0.645508	1.593784
0.645605	1.576449
0.645703	1.577255
0.645801	1.581364
0.645898	1.578739
0.645996	1.588049
0.646094	1.599719
0.646191	1.609223
0.646289	1.612297
0.646387	1.609572
0.646484	1.601862
0.646582	1.597665
0.646680	1.617605
0.646777	1.619120
0.646875	1.622537
0.646973	1.630349
0.647070	1.628825
0.647168	1.621110
0.647266	1.618411
0.647363	1.618024
0.647461	1.620082
0.647559	1.622713
0.647656	1.627053
0.647754	1.631772
0.647852	1.637729
0.647949	1.641077
0.648047	1.642452
0.648145	1.639833
0.648242	1.638676
0.648340	1.638790
0.648437	1.636199
0.648535	1.612273
0.648633	1.602352
0.648730	1.572484
0.648828	1.567465
0.648926	1.589005
0.649023	1.596629
0.649121	1.583973
0.649219	1.571155
0.649316	1.585593
0.649414	1.592616
0.649512	1.585366
0.649609	1.569326
0.649707	1.551605
0.649805	1.539686
0.649902	1.532617
0.650000	1.561185
0.650098	1.599623
0.650195	1.620781
0.650293	1.620830
0.650391	1.622486
0.650488	1.619284
0.650586	1.625269
0.650684	1.615599
0.650781	1.611712
0.650879	1.616501
0.650977	1.615750
0.651074	1.616850
0.651172	1.605104
0.651270	1.608684
0.651367	1.601676
0.651465	1.598500
0.651562	1.605465
0.651660	1.596686
0.651758	1.586759
0.651855	1.599455
0.651953	1.588003
0.652051	1.601545
0.652148	1.613805
0.652246	1.620748
0.652344	1.622353
0.652441	1.623656
0.652539	1.626904
0.652637	1.626782
0.652734	1.627213
0.652832	1.630907
0.652930	1.628623
0.653027	1.626726
0.653125	1.623840
0.653223	1.621637
0.653320	1.621104
0.653418	1.619873
0.653516	1.618337
0.653613	1.615342
0.653711	1.608343
0.653809	1.603990
0.653906	1.597028
0.654004	1.606465
0.654102	1.611557
0.654199	1.610440
0.654297	1.607466
0.654395	1.600469
0.654492	1.592471
0.654590	1.606413
0.654687	1.609825
0.654785	1.614174
0.654883	1.618585
0.654980	1.622996
0.655078	1.625468
0.655176	1.626341
0.655273	1.627626
0.655371	1.632586
0.655469	1.634018
0.655566	1.633625
0.655664	1.632496
0.655762	1.632370
0.655859	1.632918
0.655957	1.631503
0.656055	1.624627
0.656152	1.622348
0.656250	1.613855
0.656348	1.615311
0.656445	1.614492
0.656543	1.617848
0.656641	1.606132
0.656738	1.604466
0.656836	1.615995
0.656934	1.614642
0.657031	1.596911
0.657129	1.598172
0.657227	1.604350
0.657324	1.601608
0.657422	1.608245
0.657520	1.609917
0.657617	1.595159
0.657715	1.583908
0.657812	1.592251
0.657910	1.598683
0.658008	1.605527
0.658105	1.617141
0.658203	1.625214
0.658301	1.628311
0.658398	1.629435
0.658496	1.627440
0.658594	1.624977
0.658691	1.623345
0.658789	1.622851
0.658887	1.625296
0.658984	1.627149
0.659082	1.633535
0.659180	1.635040
0.659277	1.622085
0.659375	1.625701
0.659473	1.627231
0.659570	1.630422
0.659668	1.632137
0.659766	1.638243
0.659863	1.642759
0.659961	1.642271
0.660059	1.637429
0.660156	1.631397
0.660254	1.625132
0.660352	1.621730
0.660449	1.619291
0.660547	1.614607
0.660645	1.614831
0.660742	1.616684
0.660840	1.621927
0.660937	1.622514
0.661035	1.626914
0.661133	1.630734
0.661230	1.634276
0.661328	1.627841
0.661426	1.624007
0.661523	1.625533
0.661621	1.623430
0.661719	1.618340
0.661816	1.615683
0.661914	1.618362
0.662012	1.621815
0.662109	1.622639
0.662207	1.614832
0.662305	1.615574
0.662402	1.624604
0.662500	1.605980
0.662598	1.583280
0.662695	1.576110
0.662793	1.569094
0.662891	1.579470
0.662988	1.579932
0.663086	1.590209
0.663184	1.588734
0.663281	1.592347
0.663379	1.615726
0.663477	1.614091
0.663574	1.614934
0.663672	1.613479
0.663770	1.621433
0.663867	1.622122
0.663965	1.630133
0.664062	1.634676
0.664160	1.632002
0.664258	1.632001
0.664355	1.634813
0.664453	1.635880
0.664551	1.642363
0.664648	1.641350
0.664746	1.631621
0.664844	1.622685
0.664941	1.622073
0.665039	1.622916
0.665137	1.627718
0.665234	1.615283
0.665332	1.616297
0.665430	1.616081
0.665527	1.606540
0.665625	1.612226
0.665723	1.609944
0.665820	1.609001
0.665918	1.612803
0.666016	1.619885
0.666113	1.625978
0.666211	1.629253
0.666309	1.633250
0.666406	1.630748
0.666504	1.631286
0.666602	1.622367
0.666699	1.609320
0.666797	1.612680
0.666895	1.619510
0.666992	1.618353
0.667090	1.615620
0.667187	1.607129
0.667285	1.591547
0.667383	1.607892
0.667480	1.609048
0.667578	1.591764
0.667676	1.583687
0.667773	1.577302
0.667871	1.571210
0.667969	1.554595
0.668066	1.557456
0.668164	1.574278
0.668262	1.574923
0.668359	1.574800
0.668457	1.582846
0.668555	1.596754
0.668652	1.606529
0.668750	1.616028
0.668848	1.622080
0.668945	1.628961
0.669043	1.628144
0.669141	1.627131
0.669238	1.625838
0.669336	1.625856
0.669434	1.618910
0.669531	1.617897
0.669629	1.603615
0.669727	1.596050
0.669824	1.612222
0.669922	1.618499
0.670020	1.627888
0.670117	1.633026
0.670215	1.619011
0.670312	1.616539
0.670410	1.629396
0.670508	1.636079
0.670605	1.638003
0.670703	1.627791
0.670801	1.626158
0.670898	1.622501
0.670996	1.616754
0.671094	1.613083
0.671191	1.610748
0.671289	1.605199
0.671387	1.601350
0.671484	1.600802
0.671582	1.607419
0.671680	1.609946
0.671777	1.624137
0.671875	1.636423
0.671973	1.635063
0.672070	1.618539
0.672168	1.594168
0.672266	1.613530
0.672363	1.624053
0.672461	1.621474
0.672559	1.621840
0.672656	1.615471
0.672754	1.609438
0.672852	1.607358
0.672949	1.606181
0.673047	1.601211
0.673145	1.592961
0.673242	1.608660
0.673340	1.623355
0.673437	1.598542
0.673535	1.584297
0.673633	1.572056
0.673730	1.573658
0.673828	1.580333
0.673926	1.583469
0.674023	1.576708
0.674121	1.572328
0.674219	1.572825
0.674316	1.592208
0.674414	1.613956
0.674512	1.618204
0.674609	1.604804
0.674707	1.599730
0.674805	1.577828
0.674902	1.592416
0.675000	1.614428
0.675098	1.622577
0.675195	1.617754
0.675293	1.612462
0.675391	1.616069
0.675488	1.616280
0.675586	1.611790
0.675684	1.628789
0.675781	1.642020
0.675879	1.630707
0.675977	1.629029
0.676074	1.621401
0.676172	1.620413
0.676270	1.621460
0.676367	1.623497
0.676465	1.624399
0.676562	1.627996
0.676660	1.632247
0.676758	1.632729
0.676855	1.625547
0.676953	1.616725
0.677051	1.613255
0.677148	1.609041
0.677246	1.602087
0.677344	1.611181
0.677441	1.627125
0.677539	1.626166
0.677637	1.623361
0.677734	1.624175
0.677832	1.626422
0.677930	1.624989
0.678027	1.622745
0.678125	1.620816
0.678223	1.619291
0.678320	1.617487
0.678418	1.614066
0.678516	1.612456
0.678613	1.608414
0.678711	1.592696
0.678809	1.571770
0.678906	1.563844
0.679004	1.570544
0.679102	1.583073
0.679199	1.591204
0.679297	1.593019
0.679395	1.594337
0.679492	1.598637
0.679590	1.603363
0.679687	1.602482
0.679785	1.617916
0.679883	1.632020
0.679980	1.632008
0.680078	1.625290
0.680176	1.626928
0.680273	1.628648
0.680371	1.621970
0.680469	1.607379
0.680566	1.604857
0.680664	1.614650
0.680762	1.624177
0.680859	1.626982
0.680957	1.610724
0.681055	1.602573
0.681152	1.597605
0.681250	1.611806
0.681348	1.620482
0.681445	1.625736
0.681543	1.631883
0.681641	1.624681
0.681738	1.622132
0.681836	1.614214
0.681934	1.611991
0.682031	1.610476
0.682129	1.605097
0.682227	1.604838
0.682324	1.610751
0.682422	1.615764
0.682520	1.612479
0.682617	1.611286
0.682715	1.621439
0.682812	1.614042
0.682910	1.609752
0.683008	1.590864
0.683105	1.583911
0.683203	1.568569
0.683301	1.553095
0.683398	1.582496
0.683496	1.580346
0.683594	1.590277
0.683691	1.602409
0.683789	1.587488
0.683887	1.560973
0.683984	1.554718
0.684082	1.561376
0.684180	1.574644
0.684277	1.588215
0.684375	1.599884
0.684473	1.613775
0.684570	1.617376
0.684668	1.606844
0.684766	1.614277
0.684863	1.626258
0.684961	1.627798
0.685059	1.621518
0.685156	1.623762
0.685254	1.629157
0.685352	1.617971
0.685449	1.614449
0.685547	1.618164
0.685645	1.605730
0.685742	1.606455
0.685840	1.612627
0.685937	1.619572
0.686035	1.619733
0.686133	1.627502
0.686230	1.626485
0.686328	1.620667
0.686426	1.616853
0.686523	1.617872
0.686621	1.616210
0.686719	1.613836
0.686816	1.613862
0.686914	1.616563
0.687012	1.620094
0.687109	1.623150
0.687207	1.627438
0.687305	1.633354
0.687402	1.635566
0.687500	1.625770
0.687598	1.629721
0.687695	1.634001
0.687793	1.633369
0.687891	1.625454
0.687988	1.613828
0.688086	1.597842
0.688184	1.609283
0.688281	1.618714
0.688379	1.624422
0.688477	1.620467
0.688574	1.618797
0.688672	1.615920
0.688770	1.609534
0.688867	1.608707
0.688965	1.615748
0.689062	1.614593
0.689160	1.596550
0.689258	1.587330
0.689355	1.591308
0.689453	1.591267
0.689551	1.585827
0.689648	1.581609
0.689746	1.582186
0.689844	1.595246
0.689941	1.611540
0.690039	1.607672
0.690137	1.609499
0.690234	1.617572
0.690332	1.620330
0.690430	1.621523
0.690527	1.619678
0.690625	1.618902
0.690723	1.616141
0.690820	1.621618
0.690918	1.617625
0.691016	1.615829
0.691113	1.628299
0.691211	1.622503
0.691309	1.611750
0.691406	1.609752
0.691504	1.605890
0.691602	1.600807
0.691699	1.594615
0.691797	1.600384
0.691895	1.601007
0.691992	1.603292
0.692090	1.613409
0.692187	1.617155
0.692285	1.606319
0.692383	1.588635
0.692480	1.589441
0.692578	1.600248
0.692676	1.595614
0.692773	1.600355
0.692871	1.620010
0.692969	1.621723
0.693066	1.617532
0.693164	1.618607
0.693262	1.618519
0.693359	1.619750
0.693457	1.621404
0.693555	1.624957
0.693652	1.629233
0.693750	1.632589
0.693848	1.632161
0.693945	1.625122
0.694043	1.603375
0.694141	1.584584
0.694238	1.573087
0.694336	1.573487
0.694434	1.570174
0.694531	1.581246
0.694629	1.596668
0.694727	1.613313
0.694824	1.617958
0.694922	1.622336
0.695020	1.624333
0.695117	1.620151
0.695215	1.612092
0.695312	1.602874
0.695410	1.603838
0.695508	1.601287
0.695605	1.601479
0.695703	1.597874
0.695801	1.590610
0.695898	1.577016
0.695996	1.569985
0.696094	1.585406
0.696191	1.593752
0.696289	1.602220
0.696387	1.604902
0.696484	1.595605
0.696582	1.583193
0.696680	1.586690
0.696777	1.617183
0.696875	1.629693
0.696973	1.625602
0.697070	1.623827
0.697168	1.621671
0.697266	1.622614
0.697363	1.625249
0.697461	1.631248
0.697559	1.614402
0.697656	1.613331
0.697754	1.630426
0.697852	1.634274
0.697949	1.631159
0.698047	1.618599
0.698145	1.621031
0.698242	1.631485
0.698340	1.629900
0.698437	1.625678
0.698535	1.621294
0.698633	1.616896
0.698730	1.623633
0.698828	1.636410
0.698926	1.632564
0.699023	1.631588
0.699121	1.637652
0.699219	1.637220
0.699316	1.635433
0.699414	1.634496
0.699512	1.635047
0.699609	1.634961
0.699707	1.636542
0.699805	1.636452
0.699902	1.639177
0.700000	1.634715
0.700098	1.629746
0.700195	1.626299
0.700293	1.620423
0.700391	1.612798
0.700488	1.613883
0.700586	1.622603
0.700684	1.623718
0.700781	1.627685
0.700879	1.631472
0.700977	1.635684
0.701074	1.636477
0.701172	1.633698
0.701270	1.631472
0.701367	1.627742
0.701465	1.623289
0.701562	1.622512
0.701660	1.623151
0.701758	1.626047
0.701855	1.637178
0.701953	1.640261
0.702051	1.631120
0.702148	1.621343
0.702246	1.611270
0.702344	1.597502
0.702441	1.594251
0.702539	1.616591
0.702637	1.639539
0.702734	1.643226
0.702832	1.645706
0.702930	1.640856
0.703027	1.622660
0.703125	1.619573
0.703223	1.619929
0.703320	1.621750
0.703418	1.623004
0.703516	1.629033
0.703613	1.635578
0.703711	1.630584
0.703809	1.627187
0.703906	1.629584
0.704004	1.632845
0.704102	1.624903
0.704199	1.623793
0.704297	1.631075
0.704395	1.630085
0.704492	1.626800
0.704590	1.625135
0.704687	1.624814
0.704785	1.623978
0.704883	1.623871
0.704980	1.620821
0.705078	1.615628
0.705176	1.604257
0.705273	1.607870
0.705371	1.624031
0.705469	1.631461
0.705566	1.631832
0.705664	1.627681
0.705762	1.631996
0.705859	1.633702
0.705957	1.634035
0.706055	1.629419
0.706152	1.622751
0.706250	1.620265
0.706348	1.619921
0.706445	1.617772
0.706543	1.617802
0.706641	1.611440
0.706738	1.607484
0.706836	1.599681
0.706934	1.600374
0.707031	1.607310
0.707129	1.612514
0.707227	1.601263
0.707324	1.581274
0.707422	1.580868
0.707520	1.579905
0.707617	1.600188
0.707715	1.612871
0.707812	1.616914
0.707910	1.622733
0.708008	1.631367
0.708105	1.628319
0.708203	1.623666
0.708301	1.626835
0.708398	1.627344
0.708496	1.629267
0.708594	1.641367
0.708691	1.642431
0.708789	1.637114
0.708887	1.629659
0.708984	1.616701
0.709082	1.613495
0.709180	1.615624
0.709277	1.617321
0.709375	1.621909
0.709473	1.607632
0.709570	1.585252
0.709668	1.590185
0.709766	1.612428
0.709863	1.620133
0.709961	1.624723
0.710059	1.625929
0.710156	1.625242
0.710254	1.624776
0.710352	1.624338
0.710449	1.625435
0.710547	1.627902
0.710645	1.634734
0.710742	1.638527
0.710840	1.636803
0.710937	1.631399
0.711035	1.618694
0.711133	1.610580
0.711230	1.615139
0.711328	1.618262
0.711426	1.615296
0.711523	1.609140
0.711621	1.607257
0.711719	1.612057
0.711816	1.606634
0.711914	1.597275
0.712012	1.589970
0.712109	1.584388
0.712207	1.579745
0.712305	1.587196
0.712402	1.598649
0.712500	1.601779
0.712598	1.591381
0.712695	1.587523
0.712793	1.570969
0.712891	1.568544
0.712988	1.581279
0.713086	1.588825
0.713184	1.602137
0.713281	1.597031
0.713379	1.588358
0.713477	1.580953
0.713574	1.581000
0.713672	1.584154
0.713770	1.591367
0.713867	1.589580
0.713965	1.587855
0.714062	1.579870
0.714160	1.607515
0.714258	1.614673
0.714355	1.609583
0.714453	1.607822
0.714551	1.599722
0.714648	1.589443
0.714746	1.577476
0.714844	1.574255
0.714941	1.571554
0.715039	1.576301
0.715137	1.603017
0.715234	1.617503
0.715332	1.622386
0.715430	1.625589
0.715527	1.623091
0.715625	1.620861
0.715723	1.619272
0.715820	1.615812
0.715918	1.623492
0.716016	1.630309
0.716113	1.631270
0.716211	1.629927
0.716309	1.629560
0.716406	1.631415
0.716504	1.634570
0.716602	1.635712
0.716699	1.630493
0.716797	1.626772
0.716895	1.625715
0.716992	1.626179
0.717090	1.621609
0.717187	1.621293
0.717285	1.627551
0.717383	1.628558
0.717480	1.627055
0.717578	1.625717
0.717676	1.625259
0.717773	1.625324
0.717871	1.620084
0.717969	1.609270
0.718066	1.604755
0.718164	1.603387
0.718262	1.611889
0.718359	1.613360
0.718457	1.613218
0.718555	1.614683
0.718652	1.607626
0.718750	1.614749
0.718848	1.614989
0.718945	1.612920
0.719043	1.611566
0.719141	1.614352
0.719238	1.616564
0.719336	1.618855
0.719434	1.617888
0.719531	1.620386
0.719629	1.619898
0.719727	1.622474
0.719824	1.626157
0.719922	1.618929
0.720020	1.621545
0.720117	1.625424
0.720215	1.624624
0.720312	1.627207
0.720410	1.618352
0.720508	1.611088
0.720605	1.618484
0.720703	1.616807
0.720801	1.606891
0.720898	1.602910
0.720996	1.599367
0.721094	1.596189
0.721191	1.583831
0.721289	1.585687
0.721387	1.603199
0.721484	1.614600
0.721582	1.617227
0.721680	1.620502
0.721777	1.624724
0.721875	1.627936
0.721973	1.627364
0.722070	1.613141
0.722168	1.613804
0.722266	1.625224
0.722363	1.627172
0.722461	1.630277
0.722559	1.627259
0.722656	1.627049
0.722754	1.627738
0.722852	1.629764
0.722949	1.632130
0.723047	1.633398
0.723145	1.631160
0.723242	1.631612
0.723340	1.632957
0.723437	1.632849
0.723535	1.630493
0.723633	1.627593
0.723730	1.622751
0.723828	1.610457
0.723926	1.584926
0.724023	1.578484
0.724121	1.595809
0.724219	1.611117
0.724316	1.622686
0.724414	1.626377
0.724512	1.628329
0.724609	1.629130
0.724707	1.630340
0.724805	1.628320
0.724902	1.626640
0.725000	1.626554
0.725098	1.626991
0.725195	1.628118
0.725293	1.629928
0.725391	1.631772
0.725488	1.634226
0.725586	1.639068
0.725684	1.637061
0.725781	1.630456
0.725879	1.626253
0.725977	1.624889
0.726074	1.625786
0.726172	1.626278
0.726270	1.629370
0.726367	1.633242
0.726465	1.636638
0.726562	1.633743
0.726660	1.620707
0.726758	1.613076
0.726855	1.601585
0.726953	1.583101
0.727051	1.592452
0.727148	1.604782
0.727246	1.608209
0.727344	1.606643
0.727441	1.605546
0.727539	1.610465
0.727637	1.588497
0.727734	1.582573
0.727832	1.595345
0.727930	1.607836
0.728027	1.619742
0.728125	1.623691
0.728223	1.622081
0.728320	1.614827
0.728418	1.612010
0.728516	1.602176
0.728613	1.602836
0.728711	1.614228
0.728809	1.624266
0.728906	1.624563
0.729004	1.620745
0.729102	1.611588
0.729199	1.604773
0.729297	1.594601
0.729395	1.578871
0.729492	1.578113
0.729590	1.565574
0.729687	1.569248
0.729785	1.604030
0.729883	1.620089
0.729980	1.616523
0.730078	1.617275
0.730176	1.615787
0.730273	1.617818
0.730371	1.622004
0.730469	1.624647
0.730566	1.625655
0.730664	1.623101
0.730762	1.618310
0.730859	1.617766
0.730957	1.623843
0.731055	1.631860
0.731152	1.631595
0.731250	1.627098
0.731348	1.625510
0.731445	1.626100
0.731543	1.630417
0.731641	1.637345
0.731738	1.622755
0.731836	1.615342
0.731934	1.617406
0.732031	1.606708
0.732129	1.610051
0.732227	1.607700
0.732324	1.611268
0.732422	1.619999
0.732520	1.620885
0.732617	1.621576
0.732715	1.616073
0.732812	1.610022
0.732910	1.600259
0.733008	1.599827
0.733105	1.607224
0.733203	1.624330
0.733301	1.628194
0.733398	1.624795
0.733496	1.623064
0.733594	1.621656
0.733691	1.611451
0.733789	1.611429
0.733887	1.621143
0.733984	1.618871
0.734082	1.619877
0.734180	1.625496
0.734277	1.630749
0.734375	1.625119
0.734473	1.618644
0.734570	1.618088
0.734668	1.619349
0.734766	1.619348
0.734863	1.627193
0.734961	1.638465
0.735059	1.647166
0.735156	1.648036
0.735254	1.640681
0.735352	1.633178
0.735449	1.626945
0.735547	1.620878
0.735645	1.617797
0.735742	1.620773
0.735840	1.620535
0.735937	1.616151
0.736035	1.608442
0.736133	1.606623
0.736230	1.601512
0.736328	1.616296
0.736426	1.631686
0.736523	1.642416
0.736621	1.628461
0.736719	1.626093
0.736816	1.627519
0.736914	1.629516
0.737012	1.630897
0.737109	1.629520
0.737207	1.625639
0.737305	1.621882
0.737402	1.619883
0.737500	1.617799
0.737598	1.616114
0.737695	1.612496
0.737793	1.608997
0.737891	1.605005
0.737988	1.588761
0.738086	1.577422
0.738184	1.583353
0.738281	1.589094
0.738379	1.589551
0.738477	1.605969
0.738574	1.611383
0.738672	1.611673
0.738770	1.616855
0.738867	1.594302
0.738965	1.575355
0.739062	1.595616
0.739160	1.605505
0.739258	1.614656
0.739355	1.618166
0.739453	1.623375
0.739551	1.631892
0.739648	1.632439
0.739746	1.637381
0.739844	1.640590
0.739941	1.634881
0.740039	1.628226
0.740137	1.639196
0.740234	1.650582
0.740332	1.631529
0.740430	1.617850
0.740527	1.620298
0.740625	1.626016
0.740723	1.623949
0.740820	1.621333
0.740918	1.622617
0.741016	1.625150
0.741113	1.626429
0.741211	1.628646
0.741309	1.629470
0.741406	1.634476
0.741504	1.635321
0.741602	1.631780
0.741699	1.626139
0.741797	1.623508
0.741895	1.622696
0.741992	1.629761
0.742090	1.618039
0.742187	1.604265
0.742285	1.602760
0.742383	1.603988
0.742480	1.604376
0.742578	1.612897
0.742676	1.614289
0.742773	1.622367
0.742871	1.627293
0.742969	1.617758
0.743066	1.608668
0.743164	1.606140
0.743262	1.600522
0.743359	1.586229
0.743457	1.580675
0.743555	1.583453
0.743652	1.592671
0.743750	1.590717
0.743848	1.598463
0.743945	1.604566
0.744043	1.628029
0.744141	1.628738
0.744238	1.620460
0.744336	1.614935
0.744434	1.623171
0.744531	1.628709
0.744629	1.630569
0.744727	1.631392
0.744824	1.630036
0.744922	1.627802
0.745020	1.624467
0.745117	1.621562
0.745215	1.619868
0.745312	1.624214
0.745410	1.632789
0.745508	1.634848
0.745605	1.632145
0.745703	1.637487
0.745801	1.642253
0.745898	1.632311
0.745996	1.635627
0.746094	1.631425
0.746191	1.621489
0.746289	1.619272
0.746387	1.607020
0.746484	1.589056
0.746582	1.579927
0.746680	1.564176
0.746777	1.574649
0.746875	1.603540
0.746973	1.617360
0.747070	1.621609
0.747168	1.620156
0.747266	1.621980
0.747363	1.626088
0.747461	1.629279
0.747559	1.631423
0.747656	1.630656
0.747754	1.633565
0.747852	1.637129
0.747949	1.629463
0.748047	1.617913
0.748145	1.612622
0.748242	1.618873
0.748340	1.616451
0.748437	1.624266
0.748535	1.624220
0.748633	1.625739
0.748730	1.626204
0.748828	1.627559
0.748926	1.625211
0.749023	1.627074
0.749121	1.633529
0.749219	1.631750
0.749316	1.632298
0.749414	1.627860
0.749512	1.626329
0.749609	1.623456
0.749707	1.615430
0.749805	1.617337
0.749902	1.616069
0.750000	1.615010
0.750098	1.614334
0.750195	1.608360
0.750293	1.595779
0.750391	1.588778
0.750488	1.585018
0.750586	1.589967
0.750684	1.600792
0.750781	1.615367
0.750879	1.621707
0.750977	1.622860
0.751074	1.623396
0.751172	1.623820
0.751270	1.621248
0.751367	1.631813
0.751465	1.634945
0.751562	1.627018
0.751660	1.630309
0.751758	1.634568
0.751855	1.635524
0.751953	1.634744
0.752051	1.634941
0.752148	1.637648
0.752246	1.644026
0.752344	1.632231
0.752441	1.622632
0.752539	1.624708
0.752637	1.625538
0.752734	1.625925
0.752832	1.626296
0.752930	1.628272
0.753027	1.629631
0.753125	1.628694
0.753223	1.626844
0.753320	1.624034
0.753418	1.621293
0.753516	1.616360
0.753613	1.610618
0.753711	1.602678
0.753809	1.593415
0.753906	1.586587
0.754004	1.599371
0.754102	1.578208
0.754199	1.552126
0.754297	1.533453
0.754395	1.546531
0.754492	1.549089
0.754590	1.545841
0.754687	1.548768
0.754785	1.535803
0.754883	1.549338
0.754980	1.573361
0.755078	1.582137
0.755176	1.587087
0.755273	1.601862
0.755371	1.602342
0.755469	1.604242
0.755566	1.590267
0.755664	1.583465
0.755762	1.618182
0.755859	1.621974
0.755957	1.615549
0.756055	1.613542
0.756152	1.622284
0.756250	1.627464
0.756348	1.627300
0.756445	1.616058
0.756543	1.609998
0.756641	1.613053
0.756738	1.615845
0.756836	1.617861
0.756934	1.617782
0.757031	1.615875
0.757129	1.613607
0.757227	1.609065
0.757324	1.598693
0.757422	1.597652
0.757520	1.573631
0.757617	1.560749
0.757715	1.566216
0.757812	1.566156
0.757910	1.575413
0.758008	1.586057
0.758105	1.595399
0.758203	1.610856
0.758301	1.622193
0.758398	1.623383
0.758496	1.628089
0.758594	1.625830
0.758691	1.622152
0.758789	1.622367
0.758887	1.624188
0.758984	1.621009
0.759082	1.618106
0.759180	1.615602
0.759277	1.614380
0.759375	1.608857
0.759473	1.607736
0.759570	1.612464
0.759668	1.611297
0.759766	1.608356
0.759863	1.611072
0.759961	1.624153
0.760059	1.617703
0.760156	1.597711
0.760254	1.594168
0.760352	1.599490
0.760449	1.601266
0.760547	1.601095
0.760645	1.616086
0.760742	1.624358
0.760840	1.627590
0.760937	1.631163
0.761035	1.638659
0.761133	1.645974
0.761230	1.635361
0.761328	1.623137
0.761426	1.624182
0.761523	1.626014
0.761621	1.627626
0.761719	1.623165
0.761816	1.630340
0.761914	1.636636
0.762012	1.634836
0.762109	1.633725
0.762207	1.629413
0.762305	1.626759
0.762402	1.623371
0.762500	1.624393
0.762598	1.619929
0.762695	1.619311
0.762793	1.614430
0.762891	1.615748
0.762988	1.617683
0.763086	1.618164
0.763184	1.620139
0.763281	1.621471
0.763379	1.622788
0.763477	1.610376
0.763574	1.607791
0.763672	1.605614
0.763770	1.607367
0.763867	1.617135
0.763965	1.625302
0.764062	1.633554
0.764160	1.636781
0.764258	1.624790
0.764355	1.608745
0.764453	1.574730
0.764551	1.580504
0.764648	1.610277
0.764746	1.622393
0.764844	1.628206
0.764941	1.631170
0.765039	1.629335
0.765137	1.622456
0.765234	1.619410
0.765332	1.619630
0.765430	1.622898
0.765527	1.626432
0.765625	1.630883
0.765723	1.633687
0.765820	1.630868
0.765918	1.626798
0.766016	1.633788
0.766113	1.633349
0.766211	1.625870
0.766309	1.608778
0.766406	1.609167
0.766504	1.610757
0.766602	1.601284
0.766699	1.586467
0.766797	1.585507
0.766895	1.579812
0.766992	1.587589
0.767090	1.603412
0.767187	1.611778
0.767285	1.608546
0.767383	1.616892
0.767480	1.636127
0.767578	1.623781
0.767676	1.615813
0.767773	1.616418
0.767871	1.631739
0.767969	1.633937
0.768066	1.608886
0.768164	1.600260
0.768262	1.596979
0.768359	1.602979
0.768457	1.605365
0.768555	1.603318
0.768652	1.598603
0.768750	1.595741
0.768848	1.605873
0.768945	1.618216
0.769043	1.608334
0.769141	1.600830
0.769238	1.605813
0.769336	1.601926
0.769434	1.602354
0.769531	1.612506
0.769629	1.618347
0.769727	1.614915
0.769824	1.609597
0.769922	1.598451
0.770020	1.584538
0.770117	1.594464
0.770215	1.603341
0.770312	1.590412
0.770410	1.592890
0.770508	1.606587
0.770605	1.614878
0.770703	1.617658
0.770801	1.623163
0.770898	1.630371
0.770996	1.623024
0.771094	1.616377
0.771191	1.617836
0.771289	1.607117
0.771387	1.612010
0.771484	1.626530
0.771582	1.626967
0.771680	1.633528
0.771777	1.634868
0.771875	1.638141
0.771973	1.616918
0.772070	1.595314
0.772168	1.604110
0.772266	1.609245
0.772363	1.576664
0.772461	1.570245
0.772559	1.605485
0.772656	1.617117
0.772754	1.621271
0.772852	1.627135
0.772949	1.630233
0.773047	1.631222
0.773145	1.635119
0.773242	1.636475
0.773340	1.634030
0.773437	1.632745
0.773535	1.632978
0.773633	1.634234
0.773730	1.634642
0.773828	1.635520
0.773926	1.635125
0.774023	1.632608
0.774121	1.631692
0.774219	1.629779
0.774316	1.628516
0.774414	1.628131
0.774512	1.626391
0.774609	1.624176
0.774707	1.622730
0.774805	1.618594
0.774902	1.614570
0.775000	1.609869
0.775098	1.605049
0.775195	1.609656
0.775293	1.598878
0.775391	1.601722
0.775488	1.615468
0.775586	1.618261
0.775684	1.615657
0.775781	1.615565
0.775879	1.612290
0.775977	1.605015
0.776074	1.594331
0.776172	1.584885
0.776270	1.574860
0.776367	1.563498
0.776465	1.568163
0.776562	1.580366
0.776660	1.586156
0.776758	1.582911
0.776855	1.590301
0.776953	1.586229
0.777051	1.578538
0.777148	1.570417
0.777246	1.568803
0.777344	1.541282
0.777441	1.540932
0.777539	1.565063
0.777637	1.576139
0.777734	1.584941
0.777832	1.579774
0.777930	1.574099
0.778027	1.569145
0.778125	1.557750
0.778223	1.540245
0.778320	1.533445
0.778418	1.529336
0.778516	1.531339
0.778613	1.543793
0.778711	1.559049
0.778809	1.574391
0.778906	1.590310
0.779004	1.576949
0.779102	1.563338
0.779199	1.559007
0.779297	1.551771
0.779395	1.553651
0.779492	1.566226
0.779590	1.568075
0.779687	1.583566
0.779785	1.595199
0.779883	1.605254
0.779980	1.610806
0.780078	1.617390
0.780176	1.623539
0.780273	1.624364
0.780371	1.625978
0.780469	1.624890
0.780566	1.625582
0.780664	1.612395
0.780762	1.601676
0.780859	1.599419
0.780957	1.610225
0.781055	1.627881
0.781152	1.632449
0.781250	1.643780
0.781348	1.633820
0.781445	1.622288
0.781543	1.609396
0.781641	1.610871
0.781738	1.623117
0.781836	1.623333
0.781934	1.620343
0.782031	1.617839
0.782129	1.616838
0.782227	1.604481
0.782324	1.593040
0.782422	1.594903
0.782520	1.609042
0.782617	1.622847
0.782715	1.626132
0.782812	1.628253
0.782910	1.621432
0.783008	1.618193
0.783105	1.624580
0.783203	1.627814
0.783301	1.629351
0.783398	1.625943
0.783496	1.624271
0.783594	1.630046
0.783691	1.633917
0.783789	1.634208
0.783887	1.634054
0.783984	1.635901
0.784082	1.642190
0.784180	1.643783
0.784277	1.642643
0.784375	1.639999
0.784473	1.634345
0.784570	1.633131
0.784668	1.634912
0.784766	1.638942
0.784863	1.633059
0.784961	1.631012
0.785059	1.628567
0.785156	1.624773
0.785254	1.624684
0.785352	1.624429
0.785449	1.625656
0.785547	1.626840
0.785645	1.628358
0.785742	1.628813
0.785840	1.629453
0.785937	1.630772
0.786035	1.633540
0.786133	1.635109
0.786230	1.633256
0.786328	1.631458
0.786426	1.630594
0.786523	1.629257
0.786621	1.629179
0.786719	1.632099
0.786816	1.636525
0.786914	1.635301
0.787012	1.631386
0.787109	1.623096
0.787207	1.616897
0.787305	1.612801
0.787402	1.606314
0.787500	1.609278
0.787598	1.608326
0.787695	1.603361
0.787793	1.591268
0.787891	1.609414
0.787988	1.620347
0.788086	1.619041
0.788184	1.617025
0.788281	1.613318
0.788379	1.606259
0.788477	1.605888
0.788574	1.611101
0.788672	1.599903
0.788770	1.607453
0.788867	1.630102
0.788965	1.645432
0.789062	1.635769
0.789160	1.620123
0.789258	1.611193
0.789355	1.602114
0.789453	1.594715
0.789551	1.596774
0.789648	1.613171
0.789746	1.621856
0.789844	1.610129
0.789941	1.604699
0.790039	1.615587
0.790137	1.625748
0.790234	1.618499
0.790332	1.621615
0.790430	1.627309
0.790527	1.631110
0.790625	1.625698
0.790723	1.621779
0.790820	1.617459
0.790918	1.619275
0.791016	1.621711
0.791113	1.621542
0.791211	1.622255
0.791309	1.608377
0.791406	1.601547
0.791504	1.619952
0.791602	1.632394
0.791699	1.634763
0.791797	1.631560
0.791895	1.629605
0.791992	1.627850
0.792090	1.625605
0.792187	1.625307
0.792285	1.630472
0.792383	1.633100
0.792480	1.622894
0.792578	1.601912
0.792676	1.584580
0.792773	1.595227
0.792871	1.609519
0.792969	1.601173
0.793066	1.598560
0.793164	1.613378
0.793262	1.617072
0.793359	1.604942
0.793457	1.597020
0.793555	1.597846
0.793652	1.609130
0.793750	1.618572
0.793848	1.618021
0.793945	1.627052
0.794043	1.633103
0.794141	1.639079
0.794238	1.635546
0.794336	1.632775
0.794434	1.629951
0.794531	1.628931
0.794629	1.630445
0.794727	1.637117
0.794824	1.637634
0.794922	1.632542
0.795020	1.626541
0.795117	1.623642
0.795215	1.622242
0.795312	1.623478
0.795410	1.624663
0.795508	1.623843
0.795605	1.620716
0.795703	1.617435
0.795801	1.611670
0.795898	1.601059
0.795996	1.577986
0.796094	1.566681
0.796191	1.572010
0.796289	1.572943
0.796387	1.572216
0.796484	1.564733
0.796582	1.579215
0.796680	1.597098
0.796777	1.609690
0.796875	1.621995
0.796973	1.616337
0.797070	1.591755
0.797168	1.580325
0.797266	1.583423
0.797363	1.578607
0.797461	1.564300
0.797559	1.563041
0.797656	1.584268
0.797754	1.611756
0.797852	1.599118
0.797949	1.603648
0.798047	1.614322
0.798145	1.618197
0.798242	1.626025
0.798340	1.641477
0.798437	1.642784
0.798535	1.633782
0.798633	1.624349
0.798730	1.618034
0.798828	1.617276
0.798926	1.621661
0.799023	1.625653
0.799121	1.619345
0.799219	1.615558
0.799316	1.618177
0.799414	1.616290
0.799512	1.606806
0.799609	1.605558
0.799707	1.609587
0.799805	1.613394
0.799902	1.614430
0.800000	1.614067
0.800098	1.617488
0.800195	1.620308
0.800293	1.619162
0.800391	1.615858
0.800488	1.611250
0.800586	1.611050
0.800684	1.616867
0.800781	1.620501
0.800879	1.625566
0.800977	1.625899
0.801074	1.626868
0.801172	1.618520
0.801270	1.609503
0.801367	1.607114
0.801465	1.608665
0.801562	1.613937
0.801660	1.610872
0.801758	1.607296
0.801855	1.610757
0.801953	1.600222
0.802051	1.581301
0.802148	1.588629
0.802246	1.606804
0.802344	1.605928
0.802441	1.610414
0.802539	1.607288
0.802637	1.600078
0.802734	1.597607
0.802832	1.598368
0.802930	1.600040
0.803027	1.598096
0.803125	1.603531
0.803223	1.595503
0.803320	1.595468
0.803418	1.591419
0.803516	1.575480
0.803613	1.590392
0.803711	1.604487
0.803809	1.609552
0.803906	1.615959
0.804004	1.618790
0.804102	1.621907
0.804199	1.624389
0.804297	1.628418
0.804395	1.633350
0.804492	1.639323
0.804590	1.635789
0.804687	1.635311
0.804785	1.633469
0.804883	1.629549
0.804980	1.626534
0.805078	1.623252
0.805176	1.623393
0.805273	1.624635
0.805371	1.628075
0.805469	1.626007
0.805566	1.615326
0.805664	1.594193
0.805762	1.584188
0.805859	1.587251
0.805957	1.582790
0.806055	1.592051
0.806152	1.604050
0.806250	1.613111
0.806348	1.618768
0.806445	1.619341
0.806543	1.601984
0.806641	1.602217
0.806738	1.622610
0.806836	1.630083
0.806934	1.626497
0.807031	1.621210
0.807129	1.619726
0.807227	1.617599
0.807324	1.616218
0.807422	1.612625
0.807520	1.599496
0.807617	1.598073
0.807715	1.593912
0.807812	1.598806
0.807910	1.601618
0.808008	1.604213
0.808105	1.612663
0.808203	1.624272
0.808301	1.627152
0.808398	1.623865
0.808496	1.621820
0.808594	1.610574
0.808691	1.600490
0.808789	1.588427
0.808887	1.570106
0.808984	1.558900
0.809082	1.553576
0.809180	1.559769
0.809277	1.589639
0.809375	1.603261
0.809473	1.614449
0.809570	1.595557
0.809668	1.583040
0.809766	1.572567
0.809863	1.568484
0.809961	1.581159
0.810059	1.587877
0.810156	1.596079
0.810254	1.597847
0.810352	1.601291
0.810449	1.607304
0.810547	1.615402
0.810645	1.620861
0.810742	1.626457
0.810840	1.627255
0.810937	1.628654
0.811035	1.618660
0.811133	1.620691
0.811230	1.625564
0.811328	1.628585
0.811426	1.633089
0.811523	1.624029
0.811621	1.622998
0.811719	1.605818
0.811816	1.583522
0.811914	1.596913
0.812012	1.614860
0.812109	1.612702
0.812207	1.615804
0.812305	1.620051
0.812402	1.615088
0.812500	1.612676
0.812598	1.612304
0.812695	1.612613
0.812793	1.609105
0.812891	1.607243
0.812988	1.604331
0.813086	1.614662
0.813184	1.617539
0.813281	1.625640
0.813379	1.631832
0.813477	1.632650
0.813574	1.630964
0.813672	1.628435
0.813770	1.626615
0.813867	1.627236
0.813965	1.628135
0.814062	1.625652
0.814160	1.624355
0.814258	1.622412
0.814355	1.615158
0.814453	1.609433
0.814551	1.617321
0.814648	1.615521
0.814746	1.617951
0.814844	1.624986
0.814941	1.629775
0.815039	1.633011
0.815137	1.629078
0.815234	1.627127
0.815332	1.624981
0.815430	1.624214
0.815527	1.623353
0.815625	1.624693
0.815723	1.625332
0.815820	1.634208
0.815918	1.638992
0.816016	1.631885
0.816113	1.627571
0.816211	1.633272
0.816309	1.629499
0.816406	1.610096
0.816504	1.609675
0.816602	1.607906
0.816699	1.598462
0.816797	1.574236
0.816895	1.545513
0.816992	1.556096
0.817090	1.562654
0.817187	1.577234
0.817285	1.569743
0.817383	1.571784
0.817480	1.597109
0.817578	1.613046
0.817676	1.621675
0.817773	1.628002
0.817871	1.630168
0.817969	1.619448
0.818066	1.620393
0.818164	1.632086
0.818262	1.632823
0.818359	1.628380
0.818457	1.626728
0.818555	1.621634
0.818652	1.627516
0.818750	1.625701
0.818848	1.628757
0.818945	1.624393
0.819043	1.617039
0.819141	1.623386
0.819238	1.629553
0.819336	1.632007
0.819434	1.628391
0.819531	1.628522
0.819629	1.629857
0.819727	1.632706
0.819824	1.632939
0.819922	1.631804
0.820020	1.630408
0.820117	1.630328
0.820215	1.623906
0.820312	1.615851
0.820410	1.613617
0.820508	1.604323
0.820605	1.596903
0.820703	1.600971
0.820801	1.602201
0.820898	1.606399
0.820996	1.601170
0.821094	1.603904
0.821191	1.618370
0.821289	1.616194
0.821387	1.607064
0.821484	1.610577
0.821582	1.618395
0.821680	1.619350
0.821777	1.625043
0.821875	1.619624
0.821973	1.616485
0.822070	1.617793
0.822168	1.621620
0.822266	1.623854
0.822363	1.619828
0.822461	1.615742
0.822559	1.610480
0.822656	1.598570
0.822754	1.605121
0.822852	1.623385
0.822949	1.630072
0.823047	1.631754
0.823145	1.631503
0.823242	1.629905
0.823340	1.625319
0.823437	1.620326
0.823535	1.618597
0.823633	1.606848
0.823730	1.605942
0.823828	1.616259
0.823926	1.626104
0.824023	1.628112
0.824121	1.632058
0.824219	1.630224
0.824316	1.629961
0.824414	1.633136
0.824512	1.632486
0.824609	1.630295
0.824707	1.627701
0.824805	1.626292
0.824902	1.626763
0.825000	1.628865
0.825098	1.633104
0.825195	1.637643
0.825293	1.633469
0.825391	1.630232
0.825488	1.630542
0.825586	1.631220
0.825684	1.632290
0.825781	1.632828
0.825879	1.630674
0.825977	1.624873
0.826074	1.613864
0.826172	1.602199
0.826270	1.602800
0.826367	1.619944
0.826465	1.626428
0.826562	1.629956
0.826660	1.633478
0.826758	1.632701
0.826855	1.631796
0.826953	1.630996
0.827051	1.627972
0.827148	1.618482
0.827246	1.606708
0.827344	1.596215
0.827441	1.596402
0.827539	1.585197
0.827637	1.587712
0.827734	1.600229
0.827832	1.611992
0.827930	1.608015
0.828027	1.616295
0.828125	1.622102
0.828223	1.616249
0.828320	1.601061
0.828418	1.583952
0.828516	1.587262
0.828613	1.589687
0.828711	1.600839
0.828809	1.613566
0.828906	1.632192
0.829004	1.628663
0.829102	1.626772
0.829199	1.624804
0.829297	1.624232
0.829395	1.625004
0.829492	1.626321
0.829590	1.627415
0.829687	1.628375
0.829785	1.629477
0.829883	1.631530
0.829980	1.633271
0.830078	1.634697
0.830176	1.636702
0.830273	1.639237
0.830371	1.640868
0.830469	1.640929
0.830566	1.639308
0.830664	1.638476
0.830762	1.637193
0.830859	1.633773
0.830957	1.634288
0.831055	1.636368
0.831152	1.631262
0.831250	1.626950
0.831348	1.623772
0.831445	1.621540
0.831543	1.625687
0.831641	1.623934
0.831738	1.623291
0.831836	1.622268
0.831934	1.619669
0.832031	1.619063
0.832129	1.616899
0.832227	1.617603
0.832324	1.615671
0.832422	1.614040
0.832520	1.606037
0.832617	1.599431
0.832715	1.582692
0.832812	1.562277
0.832910	1.547741
0.833008	1.543090
0.833105	1.548073
0.833203	1.567686
0.833301	1.575796
0.833398	1.595152
0.833496	1.612532
0.833594	1.621439
0.833691	1.623596
0.833789	1.622164
0.833887	1.619032
0.833984	1.617857
0.834082	1.626472
0.834180	1.624147
0.834277	1.617947
0.834375	1.622630
0.834473	1.631799
0.834570	1.618281
0.834668	1.631550
0.834766	1.638440
0.834863	1.643154
0.834961	1.645571
0.835059	1.636458
0.835156	1.642208
0.835254	1.634808
0.835352	1.626933
0.835449	1.627276
0.835547	1.625103
0.835645	1.622824
0.835742	1.626494
0.835840	1.622532
0.835937	1.619731
0.836035	1.615220
0.836133	1.614257
0.836230	1.608742
0.836328	1.599484
0.836426	1.582719
0.836523	1.576030
0.836621	1.571934
0.836719	1.564829
0.836816	1.563313
0.836914	1.567993
0.837012	1.583065
0.837109	1.578949
0.837207	1.603016
0.837305	1.620594
0.837402	1.615273
0.837500	1.618863
0.837598	1.617217
0.837695	1.618245
0.837793	1.620452
0.837891	1.622725
0.837988	1.624763
0.838086	1.618065
0.838184	1.614943
0.838281	1.613466
0.838379	1.623777
0.838477	1.608551
0.838574	1.568903
0.838672	1.556654
0.838770	1.545494
0.838867	1.577191
0.838965	1.566369
0.839062	1.559993
0.839160	1.576373
0.839258	1.570231
0.839355	1.582844
0.839453	1.588021
0.839551	1.598769
0.839648	1.606532
0.839746	1.606208
0.839844	1.617963
0.839941	1.614880
0.840039	1.604326
0.840137	1.605618
0.840234	1.600926
0.840332	1.608680
0.840430	1.617276
0.840527	1.621710
0.840625	1.624031
0.840723	1.625800
0.840820	1.625242
0.840918	1.626965
0.841016	1.629324
0.841113	1.632502
0.841211	1.632635
0.841309	1.643287
0.841406	1.638032
0.841504	1.626210
0.841602	1.629632
0.841699	1.630304
0.841797	1.632506
0.841895	1.629194
0.841992	1.626437
0.842090	1.624753
0.842187	1.622624
0.842285	1.616454
0.842383	1.615117
0.842480	1.618019
0.842578	1.620929
0.842676	1.612201
0.842773	1.605591
0.842871	1.599945
0.842969	1.589363
0.843066	1.583493
0.843164	1.580111
0.843262	1.587052
0.843359	1.593059
0.843457	1.601684
0.843555	1.611090
0.843652	1.616430
0.843750	1.620008
0.843848	1.624574
0.843945	1.629704
0.844043	1.632417
0.844141	1.637255
0.844238	1.616246
0.844336	1.592818
0.844434	1.587890
0.844531	1.587954
0.844629	1.578521
0.844727	1.581368
0.844824	1.607753
0.844922	1.619527
0.845020	1.629773
0.845117	1.626122
0.845215	1.623558
0.845312	1.619572
0.845410	1.618251
0.845508	1.610518
0.845605	1.597073
0.845703	1.589474
0.845801	1.592219
0.845898	1.590819
0.845996	1.597074
0.846094	1.604233
0.846191	1.619025
0.846289	1.628959
0.846387	1.625706
0.846484	1.623842
0.846582	1.624114
0.846680	1.626827
0.846777	1.630475
0.846875	1.632353
0.846973	1.630690
0.847070	1.629516
0.847168	1.626615
0.847266	1.622059
0.847363	1.630393
0.847461	1.631896
0.847559	1.623694
0.847656	1.620556
0.847754	1.618994
0.847852	1.613927
0.847949	1.612358
0.848047	1.613934
0.848145	1.603774
0.848242	1.584371
0.848340	1.573729
0.848437	1.576734
0.848535	1.592497
0.848633	1.611659
0.848730	1.619745
0.848828	1.621912
0.848926	1.619363
0.849023	1.622027
0.849121	1.630339
0.849219	1.631188
0.849316	1.626084
0.849414	1.625362
0.849512	1.626220
0.849609	1.625759
0.849707	1.624316
0.849805	1.624023
0.849902	1.625166
0.850000	1.629285
0.850098	1.633415
0.850195	1.633310
0.850293	1.627711
0.850391	1.612305
0.850488	1.592726
0.850586	1.574806
0.850684	1.563738
0.850781	1.553830
0.850879	1.557001
0.850977	1.558503
0.851074	1.555030
0.851172	1.533159
0.851270	1.541513
0.851367	1.567218
0.851465	1.574945
0.851562	1.583912
0.851660	1.576917
0.851758	1.573643
0.851855	1.583803
0.851953	1.593067
0.852051	1.597698
0.852148	1.610502
0.852246	1.632215
0.852344	1.636461
0.852441	1.623786
0.852539	1.618964
0.852637	1.610129
0.852734	1.613206
0.852832	1.616398
0.852930	1.616111
0.853027	1.617648
0.853125	1.611938
0.853223	1.610947
0.853320	1.595392
0.853418	1.586273
0.853516	1.595802
0.853613	1.607969
0.853711	1.584398
0.853809	1.575680
0.853906	1.584852
0.854004	1.577928
0.854102	1.579045
0.854199	1.582199
0.854297	1.578575
0.854395	1.576236
0.854492	1.582797
0.854590	1.591357
0.854687	1.610161
0.854785	1.615853
0.854883	1.609899
0.854980	1.604469
0.855078	1.610096
0.855176	1.613513
0.855273	1.619552
0.855371	1.607369
0.855469	1.602174
0.855566	1.609462
0.855664	1.614085
0.855762	1.613666
0.855859	1.613798
0.855957	1.620670
0.856055	1.631367
0.856152	1.625818
0.856250	1.621924
0.856348	1.625009
0.856445	1.625584
0.856543	1.628072
0.856641	1.636104
0.856738	1.632633
0.856836	1.628448
0.856934	1.627821
0.857031	1.624979
0.857129	1.627086
0.857227	1.628582
0.857324	1.620820
0.857422	1.607943
0.857520	1.595476
0.857617	1.605987
0.857715	1.616846
0.857812	1.611713
0.857910	1.626759
0.858008	1.638464
0.858105	1.628784
0.858203	1.618872
0.858301	1.619663
0.858398	1.614680
0.858496	1.613339
0.858594	1.619104
0.858691	1.620503
0.858789	1.622084
0.858887	1.612423
0.858984	1.610374
0.859082	1.602388
0.859180	1.594888
0.859277	1.600917
0.859375	1.598163
0.859473	1.592823
0.859570	1.599157
0.859668	1.605654
0.859766	1.605420
0.859863	1.610149
0.859961	1.607966
0.860059	1.607652
0.860156	1.600730
0.860254	1.590218
0.860352	1.591544
0.860449	1.584730
0.860547	1.579344
0.860645	1.575397
0.860742	1.565815
0.860840	1.566559
0.860937	1.568044
0.861035	1.584109
0.861133	1.606077
0.861230	1.606815
0.861328	1.613242
0.861426	1.620740
0.861523	1.620234
0.861621	1.620942
0.861719	1.622229
0.861816	1.619408
0.861914	1.614348
0.862012	1.614657
0.862109	1.615057
0.862207	1.610594
0.862305	1.601316
0.862402	1.592993
0.862500	1.589616
0.862598	1.592323
0.862695	1.613604
0.862793	1.617684
0.862891	1.615596
0.862988	1.602152
0.863086	1.596681
0.863184	1.608581
0.863281	1.604740
0.863379	1.594570
0.863477	1.583578
0.863574	1.585110
0.863672	1.598362
0.863770	1.610339
0.863867	1.614593
0.863965	1.606862
0.864062	1.596701
0.864160	1.582035
0.864258	1.594152
0.864355	1.608051
0.864453	1.613824
0.864551	1.617047
0.864648	1.609680
0.864746	1.595946
0.864844	1.589904
0.864941	1.609213
0.865039	1.611327
0.865137	1.604525
0.865234	1.611248
0.865332	1.616638
0.865430	1.620622
0.865527	1.622180
0.865625	1.618977
0.865723	1.619283
0.865820	1.627773
0.865918	1.627007
0.866016	1.614903
0.866113	1.603331
0.866211	1.606521
0.866309	1.601023
0.866406	1.586863
0.866504	1.579856
0.866602	1.600730
0.866699	1.613224
0.866797	1.616023
0.866895	1.619610
0.866992	1.618393
0.867090	1.614642
0.867187	1.607969
0.867285	1.589776
0.867383	1.580173
0.867480	1.594273
0.867578	1.602258
0.867676	1.616128
0.867773	1.624828
0.867871	1.621105
0.867969	1.615621
0.868066	1.618099
0.868164	1.618630
0.868262	1.623553
0.868359	1.626008
0.868457	1.629480
0.868555	1.624671
0.868652	1.617046
0.868750	1.622318
0.868848	1.612042
0.868945	1.607341
0.869043	1.619553
0.869141	1.624732
0.869238	1.621679
0.869336	1.619995
0.869434	1.620595
0.869531	1.623437
0.869629	1.629321
0.869727	1.635414
0.869824	1.636885
0.869922	1.637401
0.870020	1.634725
0.870117	1.631143
0.870215	1.634578
0.870312	1.640108
0.870410	1.637546
0.870508	1.618084
0.870605	1.604207
0.870703	1.594938
0.870801	1.577437
0.870898	1.563128
0.870996	1.562731
0.871094	1.574865
0.871191	1.589860
0.871289	1.606453
0.871387	1.612401
0.871484	1.614295
0.871582	1.622190
0.871680	1.630099
0.871777	1.629754
0.871875	1.629207
0.871973	1.627839
0.872070	1.624255
0.872168	1.627140
0.872266	1.625074
0.872363	1.612407
0.872461	1.604470
0.872559	1.600248
0.872656	1.598485
0.872754	1.595882
0.872852	1.591678
0.872949	1.594567
0.873047	1.619413
0.873145	1.610731
0.873242	1.608878
0.873340	1.613112
0.873437	1.619117
0.873535	1.621675
0.873633	1.618545
0.873730	1.622409
0.873828	1.621464
0.873926	1.618198
0.874023	1.609441
0.874121	1.599872
0.874219	1.598920
0.874316	1.608249
0.874414	1.605893
0.874512	1.585962
0.874609	1.571049
0.874707	1.578251
0.874805	1.573292
0.874902	1.583998
0.875000	1.592168
0.875098	1.597021
0.875195	1.601507
0.875293	1.603013
0.875391	1.607759
0.875488	1.608774
0.875586	1.613036
0.875684	1.615746
0.875781	1.626731
0.875879	1.632871
0.875977	1.634852
0.876074	1.627483
0.876172	1.621734
0.876270	1.620472
0.876367	1.620967
0.876465	1.623296
0.876562	1.629421
0.876660	1.633023
0.876758	1.636740
0.876855	1.633687
0.876953	1.623906
0.877051	1.617741
0.877148	1.611002
0.877246	1.606976
0.877344	1.605781
0.877441	1.623510
0.877539	1.614171
0.877637	1.604387
0.877734	1.602127
0.877832	1.600014
0.877930	1.605318
0.878027	1.607287
0.878125	1.612769
0.878223	1.613522
0.878320	1.618226
0.878418	1.608179
0.878516	1.606734
0.878613	1.611357
0.878711	1.609987
0.878809	1.631761
0.878906	1.631818
0.879004	1.628758
0.879102	1.631097
0.879199	1.633255
0.879297	1.626405
0.879395	1.621252
0.879492	1.623204
0.879590	1.624259
0.879687	1.625966
0.879785	1.625590
0.879883	1.625600
0.879980	1.625968
0.880078	1.626720
0.880176	1.618168
0.880273	1.625681
0.880371	1.632986
0.880469	1.623790
0.880566	1.615690
0.880664	1.616637
0.880762	1.610141
0.880859	1.614809
0.880957	1.609225
0.881055	1.596807
0.881152	1.585603
0.881250	1.575514
0.881348	1.580215
0.881445	1.586907
0.881543	1.597676
0.881641	1.606302
0.881738	1.599477
0.881836	1.597816
0.881934	1.594867
0.882031	1.583061
0.882129	1.587993
0.882227	1.582368
0.882324	1.568711
0.882422	1.566345
0.882520	1.581227
0.882617	1.606335
0.882715	1.616047
0.882812	1.618785
0.882910	1.620240
0.883008	1.622487
0.883105	1.621819
0.883203	1.617327
0.883301	1.614596
0.883398	1.618264
0.883496	1.619930
0.883594	1.617377
0.883691	1.611763
0.883789	1.611637
0.883887	1.602158
0.883984	1.592241
0.884082	1.589917
0.884180	1.591289
0.884277	1.590411
0.884375	1.585738
0.884473	1.587798
0.884570	1.594589
0.884668	1.585648
0.884766	1.594201
0.884863	1.618836
0.884961	1.621989
0.885059	1.624492
0.885156	1.623164
0.885254	1.624389
0.885352	1.628403
0.885449	1.629687
0.885547	1.626234
0.885645	1.621121
0.885742	1.617451
0.885840	1.613253
0.885937	1.612028
0.886035	1.617700
0.886133	1.634001
0.886230	1.638146
0.886328	1.627585
0.886426	1.623568
0.886523	1.629231
0.886621	1.628186
0.886719	1.621989
0.886816	1.623854
0.886914	1.624556
0.887012	1.624466
0.887109	1.617963
0.887207	1.616361
0.887305	1.626927
0.887402	1.628764
0.887500	1.619018
0.887598	1.611477
0.887695	1.609968
0.887793	1.604160
0.887891	1.600204
0.887988	1.589105
0.888086	1.591101
0.888184	1.593894
0.888281	1.582390
0.888379	1.591409
0.888477	1.583206
0.888574	1.575133
0.888672	1.570084
0.888770	1.574876
0.888867	1.577204
0.888965	1.599224
0.889062	1.615964
0.889160	1.619738
0.889258	1.619286
0.889355	1.618542
0.889453	1.621905
0.889551	1.623961
0.889648	1.630399
0.889746	1.640397
0.889844	1.640766
0.889941	1.636403
0.890039	1.639075
0.890137	1.645110
0.890234	1.644196
0.890332	1.638216
0.890430	1.636301
0.890527	1.632345
0.890625	1.629302
0.890723	1.626306
0.890820	1.625681
0.890918	1.625648
0.891016	1.625394
0.891113	1.625232
0.891211	1.628093
0.891309	1.626218
0.891406	1.615415
0.891504	1.610308
0.891602	1.609365
0.891699	1.621572
0.891797	1.627848
0.891895	1.624809
0.891992	1.617410
0.892090	1.625913
0.892187	1.614851
0.892285	1.602960
0.892383	1.617534
0.892480	1.619039
0.892578	1.616845
0.892676	1.613481
0.892773	1.614342
0.892871	1.613797
0.892969	1.606389
0.893066	1.593191
0.893164	1.588760
0.893262	1.605353
0.893359	1.604524
0.893457	1.591652
0.893555	1.586100
0.893652	1.601292
0.893750	1.615317
0.893848	1.615433
0.893945	1.624103
0.894043	1.624250
0.894141	1.625714
0.894238	1.626604
0.894336	1.629529
0.894434	1.635210
0.894531	1.641261
0.894629	1.634784
0.894727	1.637029
0.894824	1.631350
0.894922	1.628640
0.895020	1.627905
0.895117	1.626988
0.895215	1.619897
0.895312	1.619508
0.895410	1.600710
0.895508	1.595417
0.895605	1.605680
0.895703	1.578317
0.895801	1.581498
0.895898	1.583298
0.895996	1.587755
0.896094	1.602157
0.896191	1.614843
0.896289	1.616916
0.896387	1.615768
0.896484	1.611482
0.896582	1.613064
0.896680	1.602517
0.896777	1.587477
0.896875	1.572529
0.896973	1.581810
0.897070	1.616819
0.897168	1.628046
0.897266	1.626868
0.897363	1.625794
0.897461	1.624106
0.897559	1.622954
0.897656	1.622690
0.897754	1.620661
0.897852	1.622265
0.897949	1.622074
0.898047	1.617627
0.898145	1.616755
0.898242	1.614436
0.898340	1.604702
0.898437	1.599308
0.898535	1.616678
0.898633	1.625936
0.898730	1.623316
0.898828	1.606765
0.898926	1.580044
0.899023	1.579086
0.899121	1.612542
0.899219	1.636913
0.899316	1.632571
0.899414	1.626850
0.899512	1.622323
0.899609	1.620576
0.899707	1.620838
0.899805	1.625881
0.899902	1.633189
0.900000	1.638031
0.900098	1.636743
0.900195	1.632932
0.900293	1.629045
0.900391	1.625205
0.900488	1.622206
0.900586	1.620273
0.900684	1.617717
0.900781	1.609168
0.900879	1.591793
0.900977	1.587145
0.901074	1.600636
0.901172	1.595863
0.901270	1.597915
0.901367	1.600425
0.901465	1.590442
0.901562	1.579300
0.901660	1.587381
0.901758	1.600579
0.901855	1.609184
0.901953	1.617545
0.902051	1.615141
0.902148	1.611742
0.902246	1.606306
0.902344	1.601330
0.902441	1.599193
0.902539	1.600264
0.902637	1.588097
0.902734	1.575859
0.902832	1.567888
0.902930	1.581430
0.903027	1.602891
0.903125	1.608611
0.903223	1.612480
0.903320	1.617893
0.903418	1.621407
0.903516	1.627001
0.903613	1.640591
0.903711	1.636604
0.903809	1.627331
0.903906	1.616449
0.904004	1.605884
0.904102	1.609425
0.904199	1.602420
0.904297	1.595653
0.904395	1.599369
0.904492	1.599556
0.904590	1.596372
0.904687	1.595757
0.904785	1.614766
0.904883	1.614694
0.904980	1.600815
0.905078	1.619115
0.905176	1.621624
0.905273	1.619875
0.905371	1.621797
0.905469	1.621560
0.905566	1.620401
0.905664	1.619527
0.905762	1.618932
0.905859	1.619558
0.905957	1.619970
0.906055	1.620978
0.906152	1.615255
0.906250	1.612041
0.906348	1.610938
0.906445	1.598128
0.906543	1.598625
0.906641	1.607997
0.906738	1.619686
0.906836	1.620524
0.906934	1.622805
0.907031	1.624880
0.907129	1.621048
0.907227	1.615540
0.907324	1.618816
0.907422	1.623673
0.907520	1.623756
0.907617	1.631938
0.907715	1.628590
0.907812	1.626267
0.907910	1.624228
0.908008	1.626210
0.908105	1.623476
0.908203	1.623771
0.908301	1.619037
0.908398	1.617798
0.908496	1.608059
0.908594	1.598084
0.908691	1.607749
0.908789	1.615953
0.908887	1.620497
0.908984	1.621696
0.909082	1.629766
0.909180	1.628330
0.909277	1.623348
0.909375	1.621528
0.909473	1.621068
0.909570	1.607005
0.909668	1.607919
0.909766	1.618575
0.909863	1.620062
0.909961	1.631365
0.910059	1.637443
0.910156	1.637163
0.910254	1.632586
0.910352	1.627718
0.910449	1.627677
0.910547	1.630435
0.910645	1.628395
0.910742	1.625253
0.910840	1.628077
0.910937	1.625928
0.911035	1.626293
0.911133	1.624227
0.911230	1.626346
0.911328	1.632579
0.911426	1.629243
0.911523	1.626867
0.911621	1.626432
0.911719	1.631173
0.911816	1.638915
0.911914	1.631885
0.912012	1.628859
0.912109	1.630706
0.912207	1.634579
0.912305	1.633952
0.912402	1.636104
0.912500	1.644047
0.912598	1.648484
0.912695	1.645123
0.912793	1.634709
0.912891	1.626306
0.912988	1.620283
0.913086	1.620980
0.913184	1.619735
0.913281	1.618563
0.913379	1.617092
0.913477	1.616822
0.913574	1.614977
0.913672	1.602224
0.913770	1.588200
0.913867	1.601312
0.913965	1.616717
0.914062	1.618624
0.914160	1.623842
0.914258	1.626601
0.914355	1.632962
0.914453	1.635142
0.914551	1.620471
0.914648	1.619781
0.914746	1.626342
0.914844	1.622769
0.914941	1.617036
0.915039	1.616254
0.915137	1.629321
0.915234	1.619312
0.915332	1.608756
0.915430	1.601162
0.915527	1.592850
0.915625	1.600545
0.915723	1.579716
0.915820	1.549520
0.915918	1.559699
0.916016	1.563969
0.916113	1.578014
0.916211	1.591376
0.916309	1.597467
0.916406	1.600939
0.916504	1.589127
0.916602	1.595450
0.916699	1.598224
0.916797	1.610544
0.916895	1.617622
0.916992	1.617782
0.917090	1.608614
0.917187	1.606461
0.917285	1.596730
0.917383	1.571140
0.917480	1.561407
0.917578	1.577291
0.917676	1.597680
0.917773	1.608064
0.917871	1.617504
0.917969	1.621337
0.918066	1.619998
0.918164	1.618450
0.918262	1.620059
0.918359	1.627579
0.918457	1.627660
0.918555	1.624142
0.918652	1.630004
0.918750	1.631492
0.918848	1.630943
0.918945	1.629389
0.919043	1.629701
0.919141	1.630712
0.919238	1.632255
0.919336	1.633999
0.919434	1.634744
0.919531	1.625186
0.919629	1.619964
0.919727	1.619876
0.919824	1.614693
0.919922	1.607139
0.920020	1.622743
0.920117	1.631598
0.920215	1.629922
0.920312	1.623995
0.920410	1.606302
0.920508	1.615388
0.920605	1.617257
0.920703	1.622325
0.920801	1.624642
0.920898	1.624418
0.920996	1.625024
0.921094	1.614627
0.921191	1.610218
0.921289	1.593626
0.921387	1.592691
0.921484	1.598629
0.921582	1.589157
0.921680	1.610270
0.921777	1.629845
0.921875	1.623368
0.921973	1.621263
0.922070	1.626512
0.922168	1.622761
0.922266	1.617976
0.922363	1.631115
0.922461	1.625532
0.922559	1.615750
0.922656	1.600688
0.922754	1.594953
0.922852	1.595802
0.922949	1.590634
0.923047	1.591126
0.923145	1.589429
0.923242	1.598224
0.923340	1.613777
0.923437	1.614747
0.923535	1.617182
0.923633	1.617101
0.923730	1.619173
0.923828	1.618657
0.923926	1.612954
0.924023	1.615641
0.924121	1.616294
0.924219	1.615364
0.924316	1.627463
0.924414	1.635447
0.924512	1.632909
0.924609	1.619228
0.924707	1.608136
0.924805	1.608903
0.924902	1.619850
0.925000	1.627151
0.925098	1.625570
0.925195	1.623654
0.925293	1.621339
0.925391	1.622361
0.925488	1.622903
0.925586	1.621376
0.925684	1.602812
0.925781	1.597977
0.925879	1.607556
0.925977	1.626318
0.926074	1.629697
0.926172	1.626595
0.926270	1.630761
0.926367	1.631357
0.926465	1.632448
0.926562	1.629505
0.926660	1.631534
0.926758	1.631871
0.926855	1.630414
0.926953	1.626486
0.927051	1.627048
0.927148	1.621786
0.927246	1.622605
0.927344	1.625040
0.927441	1.627609
0.927539	1.624562
0.927637	1.620150
0.927734	1.615601
0.927832	1.614011
0.927930	1.620532
0.928027	1.616904
0.928125	1.618331
0.928223	1.621177
0.928320	1.625464
0.928418	1.620629
0.928516	1.615375
0.928613	1.603305
0.928711	1.599601
0.928809	1.602631
0.928906	1.606937
0.929004	1.608417
0.929102	1.608364
0.929199	1.609148
0.929297	1.605209
0.929395	1.602596
0.929492	1.595024
0.929590	1.586936
0.929687	1.587764
0.929785	1.589207
0.929883	1.589064
0.929980	1.589621
0.930078	1.589498
0.930176	1.584487
0.930273	1.595949
0.930371	1.610959
0.930469	1.617061
0.930566	1.619137
0.930664	1.620716
0.930762	1.618632
0.930859	1.615999
0.930957	1.624568
0.931055	1.631100
0.931152	1.630882
0.931250	1.628828
0.931348	1.628698
0.931445	1.631005
0.931543	1.632745
0.931641	1.634759
0.931738	1.636352
0.931836	1.632085
0.931934	1.628362
0.932031	1.626719
0.932129	1.625995
0.932227	1.624890
0.932324	1.624363
0.932422	1.623269
0.932520	1.622910
0.932617	1.622563
0.932715	1.623946
0.932812	1.627619
0.932910	1.636079
0.933008	1.635310
0.933105	1.635758
0.933203	1.633193
0.933301	1.632946
0.933398	1.627699
0.933496	1.627989
0.933594	1.631184
0.933691	1.619015
0.933789	1.602225
0.933887	1.588214
0.933984	1.592563
0.934082	1.604694
0.934180	1.606642
0.934277	1.602968
0.934375	1.600588
0.934473	1.589428
0.934570	1.575911
0.934668	1.565763
0.934766	1.567343
0.934863	1.571007
0.934961	1.578337
0.935059	1.575342
0.935156	1.577326
0.935254	1.593369
0.935352	1.604336
0.935449	1.589407
0.935547	1.585508
0.935645	1.582923
0.935742	1.575005
0.935840	1.576432
0.935937	1.581820
0.936035	1.582383
0.936133	1.600451
0.936230	1.604357
0.936328	1.600810
0.936426	1.589060
0.936523	1.575878
0.936621	1.602573
0.936719	1.608116
0.936816	1.607568
0.936914	1.606444
0.937012	1.619256
0.937109	1.621916
0.937207	1.618160
0.937305	1.622307
0.937402	1.627471
0.937500	1.629956
0.937598	1.629363
0.937695	1.623708
0.937793	1.624126
0.937891	1.627226
0.937988	1.631952
0.938086	1.630005
0.938184	1.623940
0.938281	1.617747
0.938379	1.616113
0.938477	1.617016
0.938574	1.626287
0.938672	1.623115
0.938770	1.621271
0.938867	1.613278
0.938965	1.610150
0.939062	1.622257
0.939160	1.623330
0.939258	1.620670
0.939355	1.617714
0.939453	1.613367
0.939551	1.608458
0.939648	1.606937
0.939746	1.599321
0.939844	1.598337
0.939941	1.614097
0.940039	1.617886
0.940137	1.614016
0.940234	1.616731
0.940332	1.621611
0.940430	1.624108
0.940527	1.624692
0.940625	1.622445
0.940723	1.624331
0.940820	1.623615
0.940918	1.625351
0.941016	1.623153
0.941113	1.616622
0.941211	1.611103
0.941309	1.592770
0.941406	1.565465
0.941504	1.568507
0.941602	1.561681
0.941699	1.553669
0.941797	1.579082
0.941895	1.567354
0.941992	1.575153
0.942090	1.597748
0.942187	1.613582
0.942285	1.620064
0.942383	1.626806
0.942480	1.627708
0.942578	1.628879
0.942676	1.625737
0.942773	1.634484
0.942871	1.619055
0.942969	1.604990
0.943066	1.599008
0.943164	1.602650
0.943262	1.597765
0.943359	1.609005
0.943457	1.625089
0.943555	1.613591
0.943652	1.621267
0.943750	1.623616
0.943848	1.624812
0.943945	1.625044
0.944043	1.625399
0.944141	1.628926
0.944238	1.627491
0.944336	1.625263
0.944434	1.627299
0.944531	1.625382
0.944629	1.621919
0.944727	1.621172
0.944824	1.626686
0.944922	1.628391
0.945020	1.625133
0.945117	1.625498
0.945215	1.627957
0.945312	1.626803
0.945410	1.616415
0.945508	1.596397
0.945605	1.590672
0.945703	1.603786
0.945801	1.619967
0.945898	1.633559
0.945996	1.632704
0.946094	1.609180
0.946191	1.616064
0.946289	1.615301
0.946387	1.601809
0.946484	1.595256
0.946582	1.593249
0.946680	1.595223
0.946777	1.590342
0.946875	1.588376
0.946973	1.605164
0.947070	1.626173
0.947168	1.630263
0.947266	1.630641
0.947363	1.636347
0.947461	1.633236
0.947559	1.627647
0.947656	1.626126
0.947754	1.625302
0.947852	1.624763
0.947949	1.624967
0.948047	1.624948
0.948145	1.624449
0.948242	1.627361
0.948340	1.627657
0.948437	1.625304
0.948535	1.625759
0.948633	1.628844
0.948730	1.627537
0.948828	1.628270
0.948926	1.631405
0.949023	1.644414
0.949121	1.630688
0.949219	1.618906
0.949316	1.617334
0.949414	1.617998
0.949512	1.625108
0.949609	1.618605
0.949707	1.612350
0.949805	1.608720
0.949902	1.617168
0.950000	1.612362
0.950098	1.619218
0.950195	1.632967
0.950293	1.632690
0.950391	1.635948
0.950488	1.636940
0.950586	1.634793
0.950684	1.631645
0.950781	1.630309
0.950879	1.629331
0.950977	1.629931
0.951074	1.631775
0.951172	1.632326
0.951270	1.629790
0.951367	1.627999
0.951465	1.626071
0.951562	1.625210
0.951660	1.624876
0.951758	1.626752
0.951855	1.630458
0.951953	1.635128
0.952051	1.640493
0.952148	1.639666
0.952246	1.636928
0.952344	1.631469
0.952441	1.626458
0.952539	1.623835
0.952637	1.622262
0.952734	1.622156
0.952832	1.623120
0.952930	1.625504
0.953027	1.623733
0.953125	1.624604
0.953223	1.632097
0.953320	1.607601
0.953418	1.596960
0.953516	1.611399
0.953613	1.629556
0.953711	1.633064
0.953809	1.622253
0.953906	1.611562
0.954004	1.611667
0.954102	1.611000
0.954199	1.604273
0.954297	1.606638
0.954395	1.619189
0.954492	1.603379
0.954590	1.604478
0.954687	1.598765
0.954785	1.597087
0.954883	1.603357
0.954980	1.613021
0.955078	1.593713
0.955176	1.578304
0.955273	1.557515
0.955371	1.548707
0.955469	1.579134
0.955566	1.573625
0.955664	1.572833
0.955762	1.575198
0.955859	1.597306
0.955957	1.612434
0.956055	1.607146
0.956152	1.608081
0.956250	1.602562
0.956348	1.620447
0.956445	1.636312
0.956543	1.638579
0.956641	1.634039
0.956738	1.624543
0.956836	1.618793
0.956934	1.619432
0.957031	1.621027
0.957129	1.620898
0.957227	1.615399
0.957324	1.608015
0.957422	1.610076
0.957520	1.619399
0.957617	1.625221
0.957715	1.627214
0.957812	1.629751
0.957910	1.627092
0.958008	1.624859
0.958105	1.620869
0.958203	1.620435
0.958301	1.622703
0.958398	1.625512
0.958496	1.621859
0.958594	1.615310
0.958691	1.605616
0.958789	1.601694
0.958887	1.594958
0.958984	1.582572
0.959082	1.565463
0.959180	1.570496
0.959277	1.577857
0.959375	1.600431
0.959473	1.610269
0.959570	1.611087
0.959668	1.609129
0.959766	1.606286
0.959863	1.609911
0.959961	1.616835
0.960059	1.615626
0.960156	1.622556
0.960254	1.629925
0.960352	1.627935
0.960449	1.621385
0.960547	1.614964
0.960645	1.610289
0.960742	1.593661
0.960840	1.595094
0.960937	1.609919
0.961035	1.629036
0.961133	1.643730
0.961230	1.621683
0.961328	1.615529
0.961426	1.613140
0.961523	1.608480
0.961621	1.619498
0.961719	1.609597
0.961816	1.607610
0.961914	1.610877
0.962012	1.614671
0.962109	1.606978
0.962207	1.588803
0.962305	1.602321
0.962402	1.627340
0.962500	1.634770
0.962598	1.621952
0.962695	1.621702
0.962793	1.631347
0.962891	1.644567
0.962988	1.636888
0.963086	1.627055
0.963184	1.624833
0.963281	1.618779
0.963379	1.621547
0.963477	1.616459
0.963574	1.614822
0.963672	1.622197
0.963770	1.619763
0.963867	1.604927
0.963965	1.600037
0.964062	1.592774
0.964160	1.591682
0.964258	1.599904
0.964355	1.602132
0.964453	1.600060
0.964551	1.589545
0.964648	1.564804
0.964746	1.574912
0.964844	1.570472
0.964941	1.549933
0.965039	1.555761
0.965137	1.559758
0.965234	1.577938
0.965332	1.597383
0.965430	1.602900
0.965527	1.601488
0.965625	1.595481
0.965723	1.587399
0.965820	1.578942
0.965918	1.575847
0.966016	1.578066
0.966113	1.592181
0.966211	1.604569
0.966309	1.608350
0.966406	1.600099
0.966504	1.579555
0.966602	1.569391
0.966699	1.575137
0.966797	1.584630
0.966895	1.575161
0.966992	1.557937
0.967090	1.566261
0.967187	1.565334
0.967285	1.577356
0.967383	1.588336
0.967480	1.590871
0.967578	1.599935
0.967676	1.605989
0.967773	1.609123
0.967871	1.610626
0.967969	1.614218
0.968066	1.619430
0.968164	1.624098
0.968262	1.622005
0.968359	1.620993
0.968457	1.614946
0.968555	1.602373
0.968652	1.605690
0.968750	1.627510
0.968848	1.632470
0.968945	1.628048
0.969043	1.629124
0.969141	1.624761
0.969238	1.622639
0.969336	1.622304
0.969434	1.620432
0.969531	1.619329
0.969629	1.620440
0.969727	1.624781
0.969824	1.625460
0.969922	1.619617
0.970020	1.609463
0.970117	1.621698
0.970215	1.611152
0.970312	1.614283
0.970410	1.627713
0.970508	1.630299
0.970605	1.620239
0.970703	1.604284
0.970801	1.616349
0.970898	1.623175
0.970996	1.625575
0.971094	1.628230
0.971191	1.633764
0.971289	1.631772
0.971387	1.638877
0.971484	1.633995
0.971582	1.638565
0.971680	1.632478
0.971777	1.627236
0.971875	1.628464
0.971973	1.627364
0.972070	1.628089
0.972168	1.633738
0.972266	1.635502
0.972363	1.633572
0.972461	1.633018
0.972559	1.630994
0.972656	1.630600
0.972754	1.631442
0.972852	1.631715
0.972949	1.629279
0.973047	1.628859
0.973145	1.631428
0.973242	1.628755
0.973340	1.621481
0.973437	1.608550
0.973535	1.608786
0.973633	1.614131
0.973730	1.620283
0.973828	1.620615
0.973926	1.619369
0.974023	1.618466
0.974121	1.617717
0.974219	1.617661
0.974316	1.617967
0.974414	1.622304
0.974512	1.619820
0.974609	1.614706
0.974707	1.616634
0.974805	1.630182
0.974902	1.626513
0.975000	1.613472
0.975098	1.587405
0.975195	1.571183
0.975293	1.586602
0.975391	1.602635
0.975488	1.608739
0.975586	1.624395
0.975684	1.625257
0.975781	1.616692
0.975879	1.614624
0.975977	1.610696
0.976074	1.605722
0.976172	1.594328
0.976270	1.587968
0.976367	1.594071
0.976465	1.587807

