LabVIEW Measurement	
Writer_Version	2
Reader_Version	2
Separator	Tab
Decimal_Separator	.
Multi_Headings	Yes
X_Columns	One
Time_Pref	Absolute
Operator	W-Tunnel
Date	1904/01/01
Time	01:00:00
***End_of_Header***	
	
Channels	1	
Samples	10000	
Date	2024/05/17	
Time	18:31:52.1457844562499369168	
Y_Unit_Label	Volts	
X_Dimension	Time	
X0	0.0000000000000000E+0	
Delta_X	9.765625E-5	
***End_of_Header***		
X_Value	Voltage	Comment
0.000000	1.681311
9.765625E-5	1.682029
0.000195	1.682989
0.000293	1.683773
0.000391	1.684683
0.000488	1.685519
0.000586	1.686443
0.000684	1.687210
0.000781	1.687435
0.000879	1.686862
0.000977	1.686390
0.001074	1.685677
0.001172	1.684973
0.001270	1.684078
0.001367	1.683249
0.001465	1.682444
0.001562	1.681920
0.001660	1.681891
0.001758	1.682992
0.001855	1.683378
0.001953	1.681355
0.002051	1.680492
0.002148	1.679258
0.002246	1.677461
0.002344	1.675307
0.002441	1.673542
0.002539	1.672215
0.002637	1.671226
0.002734	1.670366
0.002832	1.669844
0.002930	1.669091
0.003027	1.668870
0.003125	1.668338
0.003223	1.668646
0.003320	1.668546
0.003418	1.669313
0.003516	1.669668
0.003613	1.671139
0.003711	1.671572
0.003809	1.673393
0.003906	1.671989
0.004004	1.675105
0.004102	1.669769
0.004199	1.671024
0.004297	1.683675
0.004395	1.695445
0.004492	1.681585
0.004590	1.660444
0.004687	1.656892
0.004785	1.656165
0.004883	1.656699
0.004980	1.667511
0.005078	1.672446
0.005176	1.678815
0.005273	1.686728
0.005371	1.691985
0.005469	1.691787
0.005566	1.689722
0.005664	1.688295
0.005762	1.686804
0.005859	1.687063
0.005957	1.686599
0.006055	1.691876
0.006152	1.702321
0.006250	1.703926
0.006348	1.690061
0.006445	1.689724
0.006543	1.692195
0.006641	1.695471
0.006738	1.699065
0.006836	1.698737
0.006934	1.697067
0.007031	1.696027
0.007129	1.696774
0.007227	1.701782
0.007324	1.712601
0.007422	1.729837
0.007520	1.718061
0.007617	1.714309
0.007715	1.704508
0.007812	1.698112
0.007910	1.672190
0.008008	1.640700
0.008105	1.679343
0.008203	1.689032
0.008301	1.693107
0.008398	1.671043
0.008496	1.664608
0.008594	1.666697
0.008691	1.671010
0.008789	1.653336
0.008887	1.662691
0.008984	1.648254
0.009082	1.631589
0.009180	1.595787
0.009277	1.544085
0.009375	1.526125
0.009473	1.552571
0.009570	1.587948
0.009668	1.572421
0.009766	1.598712
0.009863	1.581166
0.009961	1.614685
0.010059	1.643439
0.010156	1.652057
0.010254	1.671203
0.010352	1.672136
0.010449	1.678958
0.010547	1.671243
0.010645	1.647130
0.010742	1.658364
0.010840	1.660036
0.010937	1.664443
0.011035	1.672767
0.011133	1.671037
0.011230	1.674262
0.011328	1.670391
0.011426	1.663868
0.011523	1.662888
0.011621	1.661162
0.011719	1.663257
0.011816	1.665277
0.011914	1.667659
0.012012	1.668998
0.012109	1.670645
0.012207	1.671618
0.012305	1.672660
0.012402	1.673191
0.012500	1.674011
0.012598	1.674604
0.012695	1.675548
0.012793	1.676370
0.012891	1.677529
0.012988	1.678404
0.013086	1.680243
0.013184	1.681940
0.013281	1.683071
0.013379	1.683457
0.013477	1.681932
0.013574	1.681303
0.013672	1.679338
0.013770	1.679990
0.013867	1.682064
0.013965	1.682111
0.014062	1.683412
0.014160	1.683147
0.014258	1.683179
0.014355	1.682967
0.014453	1.681973
0.014551	1.680337
0.014648	1.678357
0.014746	1.676248
0.014844	1.674538
0.014941	1.673056
0.015039	1.671763
0.015137	1.670907
0.015234	1.670362
0.015332	1.670110
0.015430	1.670350
0.015527	1.670567
0.015625	1.670753
0.015723	1.670770
0.015820	1.669764
0.015918	1.668148
0.016016	1.666357
0.016113	1.665316
0.016211	1.665003
0.016309	1.665304
0.016406	1.666108
0.016504	1.667393
0.016602	1.668870
0.016699	1.670837
0.016797	1.673476
0.016895	1.676341
0.016992	1.676636
0.017090	1.675406
0.017187	1.674723
0.017285	1.673613
0.017383	1.672469
0.017480	1.671255
0.017578	1.670403
0.017676	1.669919
0.017773	1.669480
0.017871	1.669161
0.017969	1.668950
0.018066	1.669042
0.018164	1.669217
0.018262	1.669870
0.018359	1.670758
0.018457	1.671808
0.018555	1.673260
0.018652	1.674758
0.018750	1.676552
0.018848	1.678364
0.018945	1.680264
0.019043	1.682028
0.019141	1.683752
0.019238	1.685341
0.019336	1.686966
0.019434	1.688489
0.019531	1.689920
0.019629	1.691374
0.019727	1.692554
0.019824	1.693162
0.019922	1.693182
0.020020	1.692849
0.020117	1.692124
0.020215	1.691147
0.020312	1.690193
0.020410	1.689293
0.020508	1.688811
0.020605	1.688843
0.020703	1.689197
0.020801	1.689808
0.020898	1.690744
0.020996	1.691577
0.021094	1.692451
0.021191	1.693159
0.021289	1.693556
0.021387	1.693813
0.021484	1.693943
0.021582	1.693468
0.021680	1.692647
0.021777	1.691724
0.021875	1.690956
0.021973	1.690291
0.022070	1.689704
0.022168	1.689217
0.022266	1.688883
0.022363	1.688656
0.022461	1.688548
0.022559	1.688588
0.022656	1.688739
0.022754	1.689041
0.022852	1.689277
0.022949	1.689614
0.023047	1.690086
0.023145	1.690546
0.023242	1.691235
0.023340	1.691753
0.023437	1.691865
0.023535	1.691208
0.023633	1.689807
0.023730	1.688503
0.023828	1.687540
0.023926	1.686688
0.024023	1.685974
0.024121	1.685260
0.024219	1.684688
0.024316	1.683964
0.024414	1.683092
0.024512	1.682228
0.024609	1.681508
0.024707	1.680856
0.024805	1.680366
0.024902	1.679460
0.025000	1.678288
0.025098	1.676844
0.025195	1.675594
0.025293	1.674454
0.025391	1.673745
0.025488	1.672848
0.025586	1.672851
0.025684	1.672556
0.025781	1.672681
0.025879	1.674205
0.025977	1.677568
0.026074	1.679046
0.026172	1.679814
0.026270	1.679113
0.026367	1.683308
0.026465	1.669686
0.026562	1.680261
0.026660	1.705251
0.026758	1.698076
0.026855	1.693663
0.026953	1.694042
0.027051	1.693282
0.027148	1.689096
0.027246	1.687669
0.027344	1.686618
0.027441	1.685991
0.027539	1.685257
0.027637	1.684847
0.027734	1.684143
0.027832	1.683643
0.027930	1.683490
0.028027	1.683611
0.028125	1.683964
0.028223	1.684751
0.028320	1.685242
0.028418	1.684614
0.028516	1.682762
0.028613	1.681288
0.028711	1.680474
0.028809	1.679897
0.028906	1.678881
0.029004	1.676989
0.029102	1.675762
0.029199	1.675477
0.029297	1.675782
0.029395	1.675834
0.029492	1.675897
0.029590	1.675878
0.029687	1.676035
0.029785	1.676519
0.029883	1.677558
0.029980	1.678174
0.030078	1.678473
0.030176	1.679134
0.030273	1.680382
0.030371	1.679684
0.030469	1.676854
0.030566	1.675010
0.030664	1.674128
0.030762	1.673535
0.030859	1.672948
0.030957	1.672354
0.031055	1.672076
0.031152	1.669745
0.031250	1.664937
0.031348	1.663801
0.031445	1.665595
0.031543	1.665529
0.031641	1.664466
0.031738	1.663608
0.031836	1.662185
0.031934	1.661355
0.032031	1.660008
0.032129	1.659962
0.032227	1.659267
0.032324	1.660102
0.032422	1.659953
0.032520	1.661911
0.032617	1.662344
0.032715	1.665811
0.032812	1.666657
0.032910	1.671995
0.033008	1.672666
0.033105	1.682492
0.033203	1.685258
0.033301	1.682026
0.033398	1.683196
0.033496	1.694794
0.033594	1.682167
0.033691	1.660101
0.033789	1.657362
0.033887	1.657678
0.033984	1.634897
0.034082	1.598096
0.034180	1.607902
0.034277	1.598241
0.034375	1.631902
0.034473	1.640224
0.034570	1.600610
0.034668	1.603041
0.034766	1.610216
0.034863	1.637737
0.034961	1.700655
0.035059	1.709376
0.035156	1.679107
0.035254	1.667406
0.035352	1.690546
0.035449	1.706736
0.035547	1.677289
0.035645	1.668746
0.035742	1.676023
0.035840	1.626451
0.035937	1.646345
0.036035	1.638197
0.036133	1.634374
0.036230	1.608077
0.036328	1.621094
0.036426	1.665229
0.036523	1.665351
0.036621	1.651163
0.036719	1.630467
0.036816	1.609199
0.036914	1.632347
0.037012	1.656091
0.037109	1.658101
0.037207	1.663067
0.037305	1.665070
0.037402	1.669498
0.037500	1.674981
0.037598	1.683525
0.037695	1.693030
0.037793	1.692578
0.037891	1.686215
0.037988	1.682205
0.038086	1.680517
0.038184	1.683353
0.038281	1.687701
0.038379	1.690949
0.038477	1.702289
0.038574	1.707052
0.038672	1.689101
0.038770	1.685547
0.038867	1.683642
0.038965	1.683545
0.039062	1.694164
0.039160	1.699486
0.039258	1.689101
0.039355	1.673656
0.039453	1.662882
0.039551	1.664333
0.039648	1.674914
0.039746	1.684768
0.039844	1.687889
0.039941	1.690673
0.040039	1.686032
0.040137	1.678248
0.040234	1.676557
0.040332	1.673415
0.040430	1.678894
0.040527	1.681206
0.040625	1.677092
0.040723	1.675810
0.040820	1.675624
0.040918	1.676298
0.041016	1.677993
0.041113	1.678301
0.041211	1.678236
0.041309	1.677883
0.041406	1.680542
0.041504	1.678736
0.041602	1.668746
0.041699	1.665412
0.041797	1.663187
0.041895	1.662796
0.041992	1.661775
0.042090	1.661262
0.042187	1.660167
0.042285	1.659666
0.042383	1.658902
0.042480	1.658744
0.042578	1.658136
0.042676	1.658020
0.042773	1.657435
0.042871	1.657263
0.042969	1.656794
0.043066	1.658251
0.043164	1.657470
0.043262	1.657289
0.043359	1.657057
0.043457	1.657695
0.043555	1.655117
0.043652	1.653787
0.043750	1.654386
0.043848	1.654065
0.043945	1.654388
0.044043	1.654427
0.044141	1.654765
0.044238	1.655029
0.044336	1.655487
0.044434	1.655746
0.044531	1.655918
0.044629	1.656042
0.044727	1.656150
0.044824	1.656217
0.044922	1.656606
0.045020	1.657165
0.045117	1.657583
0.045215	1.657549
0.045312	1.657014
0.045410	1.656200
0.045508	1.655466
0.045605	1.655080
0.045703	1.654579
0.045801	1.654129
0.045898	1.653761
0.045996	1.653290
0.046094	1.652913
0.046191	1.652451
0.046289	1.652097
0.046387	1.651789
0.046484	1.651615
0.046582	1.651595
0.046680	1.651639
0.046777	1.651947
0.046875	1.652397
0.046973	1.652747
0.047070	1.653316
0.047168	1.654065
0.047266	1.654770
0.047363	1.655726
0.047461	1.656707
0.047559	1.657820
0.047656	1.659067
0.047754	1.660363
0.047852	1.661702
0.047949	1.663295
0.048047	1.664939
0.048145	1.666875
0.048242	1.668778
0.048340	1.670929
0.048437	1.672082
0.048535	1.673338
0.048633	1.676565
0.048730	1.679557
0.048828	1.681881
0.048926	1.684606
0.049023	1.686941
0.049121	1.690128
0.049219	1.693130
0.049316	1.698103
0.049414	1.700264
0.049512	1.697502
0.049609	1.698994
0.049707	1.702270
0.049805	1.703751
0.049902	1.702848
0.050000	1.704051
0.050098	1.703736
0.050195	1.703071
0.050293	1.701948
0.050391	1.702060
0.050488	1.702751
0.050586	1.703800
0.050684	1.704574
0.050781	1.704938
0.050879	1.704849
0.050977	1.703994
0.051074	1.702210
0.051172	1.700969
0.051270	1.700138
0.051367	1.699709
0.051465	1.699240
0.051562	1.698488
0.051660	1.697914
0.051758	1.697623
0.051855	1.698170
0.051953	1.699184
0.052051	1.700049
0.052148	1.699829
0.052246	1.700681
0.052344	1.699675
0.052441	1.697897
0.052539	1.695692
0.052637	1.694408
0.052734	1.692565
0.052832	1.692731
0.052930	1.692808
0.053027	1.699510
0.053125	1.701471
0.053223	1.692628
0.053320	1.690845
0.053418	1.689182
0.053516	1.687545
0.053613	1.685659
0.053711	1.683902
0.053809	1.682678
0.053906	1.682349
0.054004	1.682157
0.054102	1.681906
0.054199	1.681538
0.054297	1.681149
0.054395	1.680544
0.054492	1.680037
0.054590	1.679289
0.054687	1.678631
0.054785	1.677731
0.054883	1.676769
0.054980	1.675681
0.055078	1.674660
0.055176	1.673583
0.055273	1.672513
0.055371	1.671595
0.055469	1.670645
0.055566	1.669824
0.055664	1.668967
0.055762	1.668259
0.055859	1.667592
0.055957	1.666948
0.056055	1.666431
0.056152	1.666057
0.056250	1.665682
0.056348	1.665524
0.056445	1.665437
0.056543	1.665287
0.056641	1.665423
0.056738	1.665527
0.056836	1.665686
0.056934	1.665996
0.057031	1.666292
0.057129	1.666562
0.057227	1.667140
0.057324	1.667578
0.057422	1.668274
0.057520	1.668934
0.057617	1.669789
0.057715	1.670605
0.057812	1.671642
0.057910	1.672626
0.058008	1.673948
0.058105	1.675087
0.058203	1.676315
0.058301	1.677158
0.058398	1.679204
0.058496	1.681027
0.058594	1.683800
0.058691	1.687414
0.058789	1.693370
0.058887	1.690511
0.058984	1.686357
0.059082	1.692367
0.059180	1.692676
0.059277	1.691313
0.059375	1.685073
0.059473	1.681466
0.059570	1.679908
0.059668	1.678773
0.059766	1.678252
0.059863	1.678567
0.059961	1.678917
0.060059	1.679773
0.060156	1.680460
0.060254	1.681237
0.060352	1.681676
0.060449	1.681904
0.060547	1.681610
0.060645	1.681056
0.060742	1.680125
0.060840	1.678819
0.060937	1.677605
0.061035	1.676391
0.061133	1.675290
0.061230	1.674261
0.061328	1.673583
0.061426	1.673138
0.061523	1.673124
0.061621	1.673275
0.061719	1.673462
0.061816	1.673822
0.061914	1.674116
0.062012	1.674574
0.062109	1.674999
0.062207	1.675226
0.062305	1.675270
0.062402	1.674847
0.062500	1.674288
0.062598	1.673466
0.062695	1.673260
0.062793	1.673386
0.062891	1.676433
0.062988	1.675223
0.063086	1.673065
0.063184	1.673333
0.063281	1.673411
0.063379	1.673986
0.063477	1.674462
0.063574	1.675358
0.063672	1.676062
0.063770	1.676970
0.063867	1.677645
0.063965	1.678190
0.064062	1.678341
0.064160	1.678005
0.064258	1.677426
0.064355	1.676674
0.064453	1.676114
0.064551	1.675613
0.064648	1.675191
0.064746	1.674725
0.064844	1.674308
0.064941	1.674074
0.065039	1.673731
0.065137	1.673764
0.065234	1.673968
0.065332	1.674533
0.065430	1.675036
0.065527	1.675936
0.065625	1.676757
0.065723	1.677940
0.065820	1.679327
0.065918	1.681200
0.066016	1.682991
0.066113	1.683795
0.066211	1.682231
0.066309	1.680802
0.066406	1.678855
0.066504	1.680089
0.066602	1.682310
0.066699	1.696961
0.066797	1.702555
0.066895	1.697920
0.066992	1.708934
0.067090	1.698752
0.067187	1.696807
0.067285	1.700737
0.067383	1.698621
0.067480	1.708466
0.067578	1.701074
0.067676	1.701650
0.067773	1.699810
0.067871	1.701027
0.067969	1.712363
0.068066	1.706882
0.068164	1.712021
0.068262	1.711482
0.068359	1.708659
0.068457	1.707196
0.068555	1.703327
0.068652	1.700669
0.068750	1.700053
0.068848	1.700087
0.068945	1.699939
0.069043	1.699474
0.069141	1.698860
0.069238	1.697866
0.069336	1.697138
0.069434	1.698378
0.069531	1.699859
0.069629	1.700723
0.069727	1.704007
0.069824	1.704289
0.069922	1.705309
0.070020	1.706411
0.070117	1.707479
0.070215	1.708482
0.070312	1.705087
0.070410	1.697151
0.070508	1.695221
0.070605	1.695794
0.070703	1.696053
0.070801	1.696847
0.070898	1.698635
0.070996	1.700848
0.071094	1.699958
0.071191	1.697497
0.071289	1.693844
0.071387	1.686099
0.071484	1.682530
0.071582	1.679544
0.071680	1.678875
0.071777	1.677952
0.071875	1.678869
0.071973	1.677328
0.072070	1.680393
0.072168	1.678967
0.072266	1.676874
0.072363	1.668540
0.072461	1.672556
0.072559	1.673532
0.072656	1.668615
0.072754	1.670580
0.072852	1.669825
0.072949	1.671220
0.073047	1.674251
0.073145	1.671876
0.073242	1.670219
0.073340	1.671498
0.073437	1.668914
0.073535	1.666908
0.073633	1.654836
0.073730	1.631722
0.073828	1.628790
0.073926	1.641053
0.074023	1.645448
0.074121	1.638566
0.074219	1.619273
0.074316	1.604857
0.074414	1.595395
0.074512	1.588713
0.074609	1.580032
0.074707	1.571244
0.074805	1.587401
0.074902	1.616723
0.075000	1.615153
0.075098	1.615261
0.075195	1.601142
0.075293	1.596351
0.075391	1.582271
0.075488	1.589301
0.075586	1.631952
0.075684	1.636868
0.075781	1.634564
0.075879	1.647016
0.075977	1.644364
0.076074	1.641330
0.076172	1.643366
0.076270	1.642269
0.076367	1.641841
0.076465	1.640200
0.076562	1.640018
0.076660	1.640376
0.076758	1.643033
0.076855	1.642262
0.076953	1.641718
0.077051	1.641975
0.077148	1.643390
0.077246	1.644180
0.077344	1.646366
0.077441	1.648033
0.077539	1.651750
0.077637	1.655566
0.077734	1.666839
0.077832	1.671718
0.077930	1.668707
0.078027	1.670141
0.078125	1.669261
0.078223	1.670003
0.078320	1.668388
0.078418	1.666367
0.078516	1.665238
0.078613	1.665119
0.078711	1.665229
0.078809	1.665810
0.078906	1.666644
0.079004	1.667935
0.079102	1.669814
0.079199	1.671929
0.079297	1.674921
0.079395	1.677701
0.079492	1.681965
0.079590	1.680220
0.079687	1.680923
0.079785	1.684207
0.079883	1.683735
0.079980	1.681466
0.080078	1.672959
0.080176	1.672822
0.080273	1.676371
0.080371	1.678571
0.080469	1.681104
0.080566	1.682570
0.080664	1.684210
0.080762	1.686391
0.080859	1.688097
0.080957	1.688697
0.081055	1.692356
0.081152	1.696795
0.081250	1.699961
0.081348	1.699264
0.081445	1.697339
0.081543	1.696302
0.081641	1.695128
0.081738	1.693996
0.081836	1.693287
0.081934	1.693518
0.082031	1.694166
0.082129	1.695438
0.082227	1.696895
0.082324	1.698823
0.082422	1.700338
0.082520	1.700304
0.082617	1.699956
0.082715	1.700289
0.082812	1.698766
0.082910	1.695206
0.083008	1.699279
0.083105	1.700908
0.083203	1.686884
0.083301	1.690580
0.083398	1.664494
0.083496	1.673310
0.083594	1.690103
0.083691	1.690384
0.083789	1.687446
0.083887	1.683682
0.083984	1.686919
0.084082	1.686629
0.084180	1.685782
0.084277	1.681334
0.084375	1.679521
0.084473	1.678288
0.084570	1.678902
0.084668	1.679246
0.084766	1.680214
0.084863	1.680684
0.084961	1.681197
0.085059	1.681224
0.085156	1.681139
0.085254	1.680927
0.085352	1.680561
0.085449	1.680051
0.085547	1.679490
0.085645	1.678910
0.085742	1.678430
0.085840	1.678014
0.085937	1.677776
0.086035	1.677394
0.086133	1.677269
0.086230	1.676930
0.086328	1.676711
0.086426	1.676435
0.086523	1.676178
0.086621	1.675932
0.086719	1.675820
0.086816	1.675733
0.086914	1.676031
0.087012	1.676467
0.087109	1.676910
0.087207	1.677745
0.087305	1.678686
0.087402	1.679804
0.087500	1.680243
0.087598	1.680201
0.087695	1.680001
0.087793	1.680126
0.087891	1.680480
0.087988	1.681395
0.088086	1.681309
0.088184	1.681358
0.088281	1.680207
0.088379	1.679407
0.088477	1.677620
0.088574	1.677544
0.088672	1.676472
0.088770	1.675087
0.088867	1.672361
0.088965	1.674969
0.089062	1.673989
0.089160	1.667050
0.089258	1.648907
0.089355	1.655994
0.089453	1.665168
0.089551	1.667683
0.089648	1.657335
0.089746	1.658110
0.089844	1.641289
0.089941	1.640559
0.090039	1.658976
0.090137	1.662163
0.090234	1.671721
0.090332	1.670910
0.090430	1.673401
0.090527	1.675580
0.090625	1.671909
0.090723	1.668194
0.090820	1.669238
0.090918	1.669717
0.091016	1.672571
0.091113	1.675199
0.091211	1.678703
0.091309	1.682071
0.091406	1.682949
0.091504	1.679607
0.091602	1.674618
0.091699	1.660623
0.091797	1.650349
0.091895	1.651780
0.091992	1.655147
0.092090	1.654231
0.092187	1.646766
0.092285	1.640078
0.092383	1.640245
0.092480	1.639762
0.092578	1.639712
0.092676	1.639083
0.092773	1.638934
0.092871	1.638383
0.092969	1.638341
0.093066	1.638323
0.093164	1.638744
0.093262	1.639126
0.093359	1.639875
0.093457	1.640396
0.093555	1.641103
0.093652	1.641587
0.093750	1.642256
0.093848	1.642728
0.093945	1.643202
0.094043	1.643778
0.094141	1.644390
0.094238	1.644952
0.094336	1.645566
0.094434	1.646355
0.094531	1.647144
0.094629	1.647902
0.094727	1.648833
0.094824	1.649711
0.094922	1.650792
0.095020	1.651958
0.095117	1.653123
0.095215	1.654651
0.095312	1.656205
0.095410	1.657976
0.095508	1.659945
0.095605	1.661966
0.095703	1.663970
0.095801	1.665817
0.095898	1.667501
0.095996	1.669257
0.096094	1.670824
0.096191	1.672544
0.096289	1.674081
0.096387	1.675541
0.096484	1.676692
0.096582	1.677599
0.096680	1.678228
0.096777	1.678812
0.096875	1.679532
0.096973	1.680049
0.097070	1.680215
0.097168	1.679945
0.097266	1.679449
0.097363	1.678731
0.097461	1.678011
0.097559	1.677261
0.097656	1.676682
0.097754	1.676253
0.097852	1.676013
0.097949	1.675773
0.098047	1.675746
0.098145	1.675811
0.098242	1.675904
0.098340	1.676239
0.098437	1.676752
0.098535	1.677443
0.098633	1.678411
0.098730	1.679527
0.098828	1.680830
0.098926	1.682242
0.099023	1.683847
0.099121	1.685960
0.099219	1.688118
0.099316	1.690281
0.099414	1.691795
0.099512	1.692955
0.099609	1.693943
0.099707	1.694546
0.099805	1.694668
0.099902	1.694609
0.100000	1.694526
0.100098	1.694268
0.100195	1.693876
0.100293	1.693367
0.100391	1.692762
0.100488	1.692214
0.100586	1.691710
0.100684	1.691144
0.100781	1.690787
0.100879	1.690539
0.100977	1.690288
0.101074	1.690104
0.101172	1.690045
0.101270	1.689688
0.101367	1.689555
0.101465	1.689333
0.101562	1.689693
0.101660	1.690194
0.101758	1.691498
0.101855	1.691679
0.101953	1.693554
0.102051	1.696271
0.102148	1.697835
0.102246	1.699798
0.102344	1.699687
0.102441	1.698509
0.102539	1.695208
0.102637	1.694118
0.102734	1.700206
0.102832	1.704996
0.102930	1.692792
0.103027	1.689760
0.103125	1.687296
0.103223	1.694675
0.103320	1.707815
0.103418	1.685213
0.103516	1.662519
0.103613	1.671977
0.103711	1.684838
0.103809	1.675202
0.103906	1.665877
0.104004	1.660033
0.104102	1.655798
0.104199	1.654698
0.104297	1.655369
0.104395	1.654260
0.104492	1.652853
0.104590	1.651559
0.104687	1.650952
0.104785	1.650447
0.104883	1.650478
0.104980	1.650631
0.105078	1.651144
0.105176	1.651788
0.105273	1.652939
0.105371	1.654225
0.105469	1.656002
0.105566	1.657946
0.105664	1.660510
0.105762	1.663281
0.105859	1.666432
0.105957	1.668294
0.106055	1.670838
0.106152	1.669148
0.106250	1.668460
0.106348	1.668432
0.106445	1.667718
0.106543	1.667791
0.106641	1.667655
0.106738	1.668014
0.106836	1.668441
0.106934	1.669358
0.107031	1.670151
0.107129	1.670821
0.107227	1.671300
0.107324	1.671881
0.107422	1.672485
0.107520	1.673515
0.107617	1.674507
0.107715	1.675793
0.107812	1.677048
0.107910	1.678618
0.108008	1.680088
0.108105	1.681919
0.108203	1.683907
0.108301	1.686023
0.108398	1.687837
0.108496	1.689354
0.108594	1.687747
0.108691	1.688133
0.108789	1.693645
0.108887	1.687758
0.108984	1.660614
0.109082	1.660598
0.109180	1.681992
0.109277	1.683039
0.109375	1.684202
0.109473	1.687477
0.109570	1.690187
0.109668	1.690251
0.109766	1.689395
0.109863	1.688476
0.109961	1.686665
0.110059	1.686178
0.110156	1.685956
0.110254	1.686557
0.110352	1.687071
0.110449	1.688451
0.110547	1.689362
0.110645	1.691518
0.110742	1.693550
0.110840	1.697363
0.110937	1.700194
0.111035	1.704407
0.111133	1.705658
0.111230	1.714326
0.111328	1.716726
0.111426	1.700343
0.111523	1.698256
0.111621	1.680860
0.111719	1.673073
0.111816	1.683249
0.111914	1.685467
0.112012	1.684065
0.112109	1.686180
0.112207	1.691475
0.112305	1.696745
0.112402	1.696809
0.112500	1.697346
0.112598	1.697698
0.112695	1.697907
0.112793	1.698974
0.112891	1.700168
0.112988	1.702296
0.113086	1.702520
0.113184	1.700853
0.113281	1.699144
0.113379	1.698397
0.113477	1.698231
0.113574	1.698258
0.113672	1.697854
0.113770	1.697284
0.113867	1.696573
0.113965	1.695897
0.114062	1.695629
0.114160	1.695580
0.114258	1.696259
0.114355	1.699054
0.114453	1.708770
0.114551	1.713919
0.114648	1.699152
0.114746	1.694905
0.114844	1.696820
0.114941	1.696728
0.115039	1.695525
0.115137	1.695445
0.115234	1.696717
0.115332	1.696570
0.115430	1.693522
0.115527	1.689309
0.115625	1.685856
0.115723	1.683340
0.115820	1.681572
0.115918	1.680297
0.116016	1.679377
0.116113	1.679066
0.116211	1.679060
0.116309	1.679982
0.116406	1.681173
0.116504	1.683743
0.116602	1.685331
0.116699	1.689800
0.116797	1.695264
0.116895	1.697412
0.116992	1.699750
0.117090	1.695670
0.117187	1.692673
0.117285	1.694372
0.117383	1.684630
0.117480	1.685832
0.117578	1.689935
0.117676	1.683036
0.117773	1.672755
0.117871	1.667658
0.117969	1.664649
0.118066	1.654618
0.118164	1.663468
0.118262	1.647105
0.118359	1.654788
0.118457	1.654148
0.118555	1.650024
0.118652	1.664745
0.118750	1.652326
0.118848	1.618027
0.118945	1.578062
0.119043	1.559326
0.119141	1.545811
0.119238	1.580508
0.119336	1.611293
0.119434	1.646644
0.119531	1.656291
0.119629	1.671862
0.119727	1.680652
0.119824	1.686732
0.119922	1.672748
0.120020	1.664613
0.120117	1.661531
0.120215	1.658492
0.120312	1.661935
0.120410	1.666686
0.120508	1.678964
0.120605	1.679489
0.120703	1.656620
0.120801	1.666278
0.120898	1.681380
0.120996	1.689149
0.121094	1.671071
0.121191	1.662851
0.121289	1.669035
0.121387	1.673297
0.121484	1.675773
0.121582	1.679553
0.121680	1.670848
0.121777	1.669186
0.121875	1.665247
0.121973	1.649175
0.122070	1.631070
0.122168	1.619432
0.122266	1.613240
0.122363	1.598866
0.122461	1.619443
0.122559	1.638911
0.122656	1.650689
0.122754	1.656582
0.122852	1.664211
0.122949	1.671145
0.123047	1.666082
0.123145	1.676229
0.123242	1.683388
0.123340	1.673537
0.123437	1.668667
0.123535	1.668248
0.123633	1.666238
0.123730	1.667537
0.123828	1.666356
0.123926	1.665213
0.124023	1.665546
0.124121	1.666918
0.124219	1.667674
0.124316	1.668344
0.124414	1.668662
0.124512	1.668939
0.124609	1.668959
0.124707	1.669437
0.124805	1.670248
0.124902	1.670868
0.125000	1.670346
0.125098	1.669269
0.125195	1.666099
0.125293	1.664321
0.125391	1.664255
0.125488	1.664117
0.125586	1.664807
0.125684	1.664459
0.125781	1.665025
0.125879	1.666115
0.125977	1.668164
0.126074	1.669613
0.126172	1.671743
0.126270	1.673006
0.126367	1.675396
0.126465	1.676868
0.126562	1.678313
0.126660	1.679140
0.126758	1.687527
0.126855	1.689970
0.126953	1.698333
0.127051	1.698400
0.127148	1.684277
0.127246	1.673793
0.127344	1.674162
0.127441	1.672909
0.127539	1.661296
0.127637	1.663275
0.127734	1.662289
0.127832	1.669213
0.127930	1.669762
0.128027	1.677922
0.128125	1.681043
0.128223	1.687114
0.128320	1.695680
0.128418	1.690943
0.128516	1.673011
0.128613	1.675935
0.128711	1.657627
0.128809	1.644539
0.128906	1.638895
0.129004	1.651828
0.129102	1.656531
0.129199	1.655321
0.129297	1.665986
0.129395	1.680071
0.129492	1.688675
0.129590	1.680204
0.129687	1.683459
0.129785	1.679132
0.129883	1.678421
0.129980	1.681688
0.130078	1.694730
0.130176	1.711711
0.130273	1.718884
0.130371	1.704166
0.130469	1.704543
0.130566	1.713319
0.130664	1.688933
0.130762	1.652230
0.130859	1.636226
0.130957	1.659158
0.131055	1.662778
0.131152	1.663483
0.131250	1.677923
0.131348	1.686148
0.131445	1.705830
0.131543	1.719151
0.131641	1.716045
0.131738	1.691172
0.131836	1.681368
0.131934	1.675176
0.132031	1.659052
0.132129	1.670839
0.132227	1.668706
0.132324	1.667529
0.132422	1.664125
0.132520	1.662689
0.132617	1.660515
0.132715	1.659979
0.132812	1.658996
0.132910	1.658893
0.133008	1.658336
0.133105	1.658315
0.133203	1.658005
0.133301	1.657993
0.133398	1.657643
0.133496	1.657578
0.133594	1.657274
0.133691	1.657075
0.133789	1.656648
0.133887	1.656251
0.133984	1.655773
0.134082	1.655249
0.134180	1.654733
0.134277	1.654286
0.134375	1.653868
0.134473	1.653366
0.134570	1.652890
0.134668	1.652563
0.134766	1.652202
0.134863	1.652003
0.134961	1.651893
0.135059	1.651829
0.135156	1.651853
0.135254	1.651912
0.135352	1.652040
0.135449	1.651955
0.135547	1.651794
0.135645	1.651643
0.135742	1.651077
0.135840	1.650712
0.135937	1.650169
0.136035	1.650056
0.136133	1.649775
0.136230	1.650094
0.136328	1.650500
0.136426	1.651779
0.136523	1.653249
0.136621	1.656333
0.136719	1.660721
0.136816	1.664236
0.136914	1.662212
0.137012	1.661744
0.137109	1.641159
0.137207	1.652425
0.137305	1.661633
0.137402	1.656024
0.137500	1.656652
0.137598	1.654928
0.137695	1.655529
0.137793	1.654979
0.137891	1.655801
0.137988	1.656221
0.138086	1.657677
0.138184	1.658891
0.138281	1.660634
0.138379	1.661911
0.138477	1.663525
0.138574	1.665025
0.138672	1.666110
0.138770	1.666325
0.138867	1.665601
0.138965	1.666658
0.139062	1.668549
0.139160	1.673605
0.139258	1.669740
0.139355	1.668050
0.139453	1.669091
0.139551	1.664377
0.139648	1.661139
0.139746	1.658281
0.139844	1.657236
0.139941	1.656301
0.140039	1.656131
0.140137	1.655796
0.140234	1.655838
0.140332	1.655624
0.140430	1.655646
0.140527	1.655671
0.140625	1.655848
0.140723	1.656097
0.140820	1.656512
0.140918	1.657190
0.141016	1.658029
0.141113	1.658956
0.141211	1.660299
0.141309	1.661729
0.141406	1.663471
0.141504	1.665331
0.141602	1.667416
0.141699	1.669326
0.141797	1.671140
0.141895	1.672602
0.141992	1.673921
0.142090	1.675175
0.142187	1.676398
0.142285	1.677674
0.142383	1.678994
0.142480	1.680374
0.142578	1.681544
0.142676	1.681942
0.142773	1.682291
0.142871	1.682315
0.142969	1.682297
0.143066	1.682570
0.143164	1.683170
0.143262	1.684047
0.143359	1.685126
0.143457	1.686219
0.143555	1.687222
0.143652	1.688138
0.143750	1.689004
0.143848	1.690101
0.143945	1.691593
0.144043	1.693422
0.144141	1.694771
0.144238	1.696272
0.144336	1.696627
0.144434	1.697360
0.144531	1.697136
0.144629	1.697611
0.144727	1.697067
0.144824	1.696516
0.144922	1.691881
0.145020	1.685838
0.145117	1.665771
0.145215	1.667659
0.145312	1.701864
0.145410	1.728688
0.145508	1.712723
0.145605	1.714989
0.145703	1.707851
0.145801	1.698538
0.145898	1.662188
0.145996	1.626861
0.146094	1.648536
0.146191	1.651183
0.146289	1.668875
0.146387	1.666376
0.146484	1.656843
0.146582	1.648729
0.146680	1.685847
0.146777	1.689733
0.146875	1.677565
0.146973	1.681039
0.147070	1.679162
0.147168	1.670471
0.147266	1.672004
0.147363	1.643219
0.147461	1.649835
0.147559	1.666188
0.147656	1.655201
0.147754	1.610813
0.147852	1.640339
0.147949	1.662775
0.148047	1.668020
0.148145	1.661709
0.148242	1.642577
0.148340	1.642970
0.148437	1.638901
0.148535	1.650349
0.148633	1.668256
0.148730	1.689301
0.148828	1.691651
0.148926	1.691629
0.149023	1.685479
0.149121	1.677597
0.149219	1.693995
0.149316	1.692169
0.149414	1.709272
0.149512	1.682747
0.149609	1.658000
0.149707	1.686540
0.149805	1.705811
0.149902	1.710063
0.150000	1.699474
0.150098	1.694066
0.150195	1.681280
0.150293	1.668663
0.150391	1.661141
0.150488	1.655713
0.150586	1.651577
0.150684	1.648725
0.150781	1.646512
0.150879	1.644955
0.150977	1.643370
0.151074	1.641901
0.151172	1.640210
0.151270	1.638378
0.151367	1.636626
0.151465	1.635159
0.151562	1.633648
0.151660	1.632350
0.151758	1.631231
0.151855	1.630290
0.151953	1.629601
0.152051	1.629081
0.152148	1.628821
0.152246	1.628922
0.152344	1.629174
0.152441	1.629529
0.152539	1.629834
0.152637	1.629735
0.152734	1.629291
0.152832	1.628703
0.152930	1.628148
0.153027	1.627676
0.153125	1.627273
0.153223	1.627184
0.153320	1.627160
0.153418	1.627297
0.153516	1.627416
0.153613	1.627645
0.153711	1.628001
0.153809	1.628286
0.153906	1.628718
0.154004	1.629078
0.154102	1.629637
0.154199	1.630047
0.154297	1.630744
0.154395	1.631221
0.154492	1.631866
0.154590	1.632586
0.154687	1.633350
0.154785	1.634132
0.154883	1.635048
0.154980	1.636044
0.155078	1.637114
0.155176	1.638273
0.155273	1.639429
0.155371	1.640834
0.155469	1.642151
0.155566	1.643684
0.155664	1.645168
0.155762	1.646874
0.155859	1.648606
0.155957	1.650506
0.156055	1.652727
0.156152	1.655218
0.156250	1.658186
0.156348	1.661183
0.156445	1.662325
0.156543	1.663150
0.156641	1.666747
0.156738	1.670234
0.156836	1.671521
0.156934	1.672175
0.157031	1.673290
0.157129	1.673945
0.157227	1.673908
0.157324	1.673309
0.157422	1.672825
0.157520	1.672480
0.157617	1.672410
0.157715	1.672592
0.157812	1.673050
0.157910	1.673401
0.158008	1.673934
0.158105	1.674533
0.158203	1.675250
0.158301	1.675993
0.158398	1.676933
0.158496	1.677938
0.158594	1.679071
0.158691	1.680370
0.158789	1.681519
0.158887	1.682714
0.158984	1.683880
0.159082	1.685032
0.159180	1.686205
0.159277	1.687507
0.159375	1.688771
0.159473	1.689919
0.159570	1.690601
0.159668	1.690231
0.159766	1.689410
0.159863	1.689081
0.159961	1.689021
0.160059	1.689101
0.160156	1.689049
0.160254	1.689308
0.160352	1.689926
0.160449	1.690627
0.160547	1.691343
0.160645	1.691911
0.160742	1.692370
0.160840	1.692668
0.160937	1.692921
0.161035	1.692914
0.161133	1.693152
0.161230	1.693245
0.161328	1.693643
0.161426	1.693938
0.161523	1.694549
0.161621	1.693685
0.161719	1.693418
0.161816	1.692206
0.161914	1.690103
0.162012	1.687434
0.162109	1.686402
0.162207	1.685054
0.162305	1.685752
0.162402	1.682925
0.162500	1.682885
0.162598	1.676470
0.162695	1.680881
0.162793	1.691801
0.162891	1.693439
0.162988	1.692077
0.163086	1.684871
0.163184	1.681843
0.163281	1.681213
0.163379	1.683539
0.163477	1.686427
0.163574	1.691074
0.163672	1.695095
0.163770	1.697769
0.163867	1.701271
0.163965	1.705955
0.164062	1.706257
0.164160	1.698068
0.164258	1.704480
0.164355	1.697526
0.164453	1.691332
0.164551	1.678848
0.164648	1.673974
0.164746	1.669746
0.164844	1.664882
0.164941	1.667992
0.165039	1.661074
0.165137	1.657982
0.165234	1.661059
0.165332	1.668319
0.165430	1.672091
0.165527	1.673394
0.165625	1.674251
0.165723	1.674841
0.165820	1.675269
0.165918	1.675914
0.166016	1.676631
0.166113	1.677530
0.166211	1.678702
0.166309	1.680109
0.166406	1.681737
0.166504	1.683084
0.166602	1.683038
0.166699	1.682592
0.166797	1.681626
0.166895	1.679991
0.166992	1.678485
0.167090	1.676917
0.167187	1.675362
0.167285	1.673618
0.167383	1.671706
0.167480	1.669631
0.167578	1.667823
0.167676	1.666380
0.167773	1.665514
0.167871	1.664267
0.167969	1.663350
0.168066	1.663373
0.168164	1.663237
0.168262	1.662951
0.168359	1.662329
0.168457	1.661725
0.168555	1.661132
0.168652	1.660418
0.168750	1.659665
0.168848	1.658790
0.168945	1.657916
0.169043	1.656926
0.169141	1.655916
0.169238	1.654990
0.169336	1.653976
0.169434	1.653063
0.169531	1.652172
0.169629	1.651312
0.169727	1.650643
0.169824	1.649832
0.169922	1.649202
0.170020	1.648805
0.170117	1.648471
0.170215	1.648232
0.170312	1.648117
0.170410	1.648158
0.170508	1.648239
0.170605	1.648436
0.170703	1.648678
0.170801	1.649035
0.170898	1.649248
0.170996	1.649599
0.171094	1.649881
0.171191	1.650149
0.171289	1.650330
0.171387	1.650594
0.171484	1.650929
0.171582	1.651292
0.171680	1.651754
0.171777	1.652243
0.171875	1.652964
0.171973	1.653728
0.172070	1.654502
0.172168	1.655455
0.172266	1.656550
0.172363	1.657680
0.172461	1.658918
0.172559	1.660181
0.172656	1.661556
0.172754	1.662839
0.172852	1.664230
0.172949	1.665474
0.173047	1.666666
0.173145	1.667758
0.173242	1.668734
0.173340	1.669583
0.173437	1.670362
0.173535	1.670910
0.173633	1.671491
0.173730	1.672111
0.173828	1.672502
0.173926	1.673095
0.174023	1.673559
0.174121	1.674218
0.174219	1.674784
0.174316	1.675346
0.174414	1.675948
0.174512	1.676568
0.174609	1.677392
0.174707	1.678130
0.174805	1.679109
0.174902	1.680031
0.175000	1.681128
0.175098	1.681953
0.175195	1.683017
0.175293	1.683490
0.175391	1.684566
0.175488	1.684550
0.175586	1.685686
0.175684	1.685720
0.175781	1.686690
0.175879	1.686248
0.175977	1.685760
0.176074	1.680315
0.176172	1.665272
0.176270	1.647022
0.176367	1.677629
0.176465	1.637460
0.176562	1.653375
0.176660	1.645503
0.176758	1.667120
0.176855	1.676206
0.176953	1.662774
0.177051	1.668717
0.177148	1.673992
0.177246	1.694094
0.177344	1.697548
0.177441	1.707863
0.177539	1.692642
0.177637	1.683179
0.177734	1.665966
0.177832	1.676222
0.177930	1.678368
0.178027	1.678945
0.178125	1.678733
0.178223	1.679617
0.178320	1.678868
0.178418	1.679312
0.178516	1.678912
0.178613	1.680544
0.178711	1.681829
0.178809	1.685779
0.178906	1.679875
0.179004	1.672058
0.179102	1.674465
0.179199	1.675327
0.179297	1.675702
0.179395	1.675296
0.179492	1.675062
0.179590	1.674618
0.179687	1.674388
0.179785	1.673932
0.179883	1.673823
0.179980	1.673790
0.180078	1.674030
0.180176	1.674214
0.180273	1.674449
0.180371	1.674504
0.180469	1.674642
0.180566	1.674521
0.180664	1.674266
0.180762	1.673651
0.180859	1.672984
0.180957	1.672264
0.181055	1.671450
0.181152	1.670614
0.181250	1.669909
0.181348	1.669268
0.181445	1.668717
0.181543	1.668183
0.181641	1.667814
0.181738	1.667384
0.181836	1.666993
0.181934	1.666630
0.182031	1.666215
0.182129	1.666006
0.182227	1.665724
0.182324	1.665720
0.182422	1.665681
0.182520	1.665874
0.182617	1.666099
0.182715	1.666490
0.182812	1.666891
0.182910	1.667403
0.183008	1.667877
0.183105	1.668336
0.183203	1.668737
0.183301	1.669160
0.183398	1.669376
0.183496	1.669682
0.183594	1.670111
0.183691	1.670355
0.183789	1.670662
0.183887	1.671010
0.183984	1.671329
0.184082	1.671676
0.184180	1.672030
0.184277	1.672570
0.184375	1.672941
0.184473	1.673499
0.184570	1.674081
0.184668	1.674756
0.184766	1.675380
0.184863	1.676084
0.184961	1.676890
0.185059	1.677755
0.185156	1.678737
0.185254	1.679606
0.185352	1.680675
0.185449	1.681493
0.185547	1.682303
0.185645	1.683262
0.185742	1.684235
0.185840	1.685090
0.185937	1.685721
0.186035	1.686010
0.186133	1.686183
0.186230	1.686170
0.186328	1.686139
0.186426	1.685995
0.186523	1.686050
0.186621	1.686010
0.186719	1.686252
0.186816	1.686474
0.186914	1.687011
0.187012	1.687397
0.187109	1.688096
0.187207	1.688786
0.187305	1.689809
0.187402	1.690619
0.187500	1.691329
0.187598	1.691272
0.187695	1.691842
0.187793	1.692144
0.187891	1.694071
0.187988	1.690483
0.188086	1.692334
0.188184	1.699615
0.188281	1.698549
0.188379	1.696691
0.188477	1.694150
0.188574	1.692021
0.188672	1.690040
0.188770	1.688994
0.188867	1.687996
0.188965	1.687521
0.189062	1.687324
0.189160	1.687900
0.189258	1.688622
0.189355	1.689999
0.189453	1.691435
0.189551	1.693187
0.189648	1.694813
0.189746	1.696240
0.189844	1.697324
0.189941	1.698883
0.190039	1.700695
0.190137	1.702714
0.190234	1.704761
0.190332	1.706328
0.190430	1.706757
0.190527	1.708332
0.190625	1.710554
0.190723	1.715733
0.190820	1.713327
0.190918	1.714106
0.191016	1.712132
0.191113	1.709446
0.191211	1.712388
0.191309	1.714769
0.191406	1.717043
0.191504	1.713352
0.191602	1.708454
0.191699	1.711910
0.191797	1.713307
0.191895	1.716034
0.191992	1.709656
0.192090	1.708638
0.192187	1.697775
0.192285	1.693915
0.192383	1.706634
0.192480	1.705148
0.192578	1.702539
0.192676	1.700156
0.192773	1.702686
0.192871	1.701078
0.192969	1.700117
0.193066	1.696014
0.193164	1.690923
0.193262	1.689029
0.193359	1.689785
0.193457	1.691561
0.193555	1.686843
0.193652	1.681393
0.193750	1.681348
0.193848	1.682210
0.193945	1.682747
0.194043	1.684555
0.194141	1.687811
0.194238	1.693354
0.194336	1.699261
0.194434	1.699343
0.194531	1.694738
0.194629	1.694053
0.194727	1.697797
0.194824	1.699559
0.194922	1.706204
0.195020	1.712777
0.195117	1.708249
0.195215	1.691712
0.195312	1.669764
0.195410	1.677363
0.195508	1.656963
0.195605	1.659020
0.195703	1.651219
0.195801	1.642967
0.195898	1.680757
0.195996	1.669459
0.196094	1.670863
0.196191	1.666505
0.196289	1.658926
0.196387	1.631282
0.196484	1.615077
0.196582	1.631052
0.196680	1.632876
0.196777	1.649099
0.196875	1.644144
0.196973	1.645779
0.197070	1.642566
0.197168	1.639167
0.197266	1.637286
0.197363	1.627429
0.197461	1.629533
0.197559	1.630088
0.197656	1.630677
0.197754	1.630435
0.197852	1.631044
0.197949	1.631304
0.198047	1.632273
0.198145	1.632968
0.198242	1.633991
0.198340	1.634649
0.198437	1.635464
0.198535	1.636453
0.198633	1.637787
0.198730	1.639111
0.198828	1.640559
0.198926	1.641920
0.199023	1.643512
0.199121	1.644951
0.199219	1.646557
0.199316	1.648147
0.199414	1.649741
0.199512	1.651144
0.199609	1.652344
0.199707	1.653274
0.199805	1.654021
0.199902	1.654535
0.200000	1.654962
0.200098	1.655407
0.200195	1.655778
0.200293	1.655986
0.200391	1.656161
0.200488	1.656337
0.200586	1.656404
0.200684	1.656523
0.200781	1.656690
0.200879	1.657029
0.200977	1.657403
0.201074	1.657854
0.201172	1.658515
0.201270	1.659165
0.201367	1.660055
0.201465	1.661024
0.201562	1.662076
0.201660	1.663241
0.201758	1.664441
0.201855	1.665711
0.201953	1.667012
0.202051	1.668053
0.202148	1.669067
0.202246	1.669839
0.202344	1.670443
0.202441	1.670780
0.202539	1.671034
0.202637	1.671228
0.202734	1.671311
0.202832	1.671295
0.202930	1.671126
0.203027	1.671056
0.203125	1.671009
0.203223	1.671049
0.203320	1.671224
0.203418	1.671486
0.203516	1.671916
0.203613	1.672499
0.203711	1.673236
0.203809	1.674016
0.203906	1.674781
0.204004	1.675643
0.204102	1.676453
0.204199	1.677104
0.204297	1.677779
0.204395	1.678410
0.204492	1.679072
0.204590	1.679809
0.204687	1.680571
0.204785	1.681345
0.204883	1.682023
0.204980	1.682611
0.205078	1.683123
0.205176	1.683668
0.205273	1.683999
0.205371	1.684280
0.205469	1.684624
0.205566	1.684979
0.205664	1.685209
0.205762	1.685707
0.205859	1.686112
0.205957	1.686767
0.206055	1.687492
0.206152	1.688116
0.206250	1.688867
0.206348	1.689627
0.206445	1.690375
0.206543	1.691123
0.206641	1.692159
0.206738	1.693290
0.206836	1.694666
0.206934	1.696318
0.207031	1.697940
0.207129	1.699147
0.207227	1.699849
0.207324	1.700671
0.207422	1.701486
0.207520	1.701498
0.207617	1.699924
0.207715	1.698895
0.207812	1.695613
0.207910	1.695178
0.208008	1.698077
0.208105	1.697621
0.208203	1.691139
0.208301	1.687827
0.208398	1.686447
0.208496	1.685057
0.208594	1.683534
0.208691	1.681459
0.208789	1.679190
0.208887	1.677252
0.208984	1.675905
0.209082	1.674717
0.209180	1.673644
0.209277	1.672650
0.209375	1.671711
0.209473	1.670932
0.209570	1.670056
0.209668	1.669314
0.209766	1.668577
0.209863	1.667990
0.209961	1.667639
0.210059	1.667348
0.210156	1.667082
0.210254	1.666794
0.210352	1.666562
0.210449	1.666221
0.210547	1.665860
0.210645	1.665529
0.210742	1.665089
0.210840	1.664667
0.210937	1.664114
0.211035	1.663658
0.211133	1.663186
0.211230	1.662650
0.211328	1.662112
0.211426	1.661521
0.211523	1.661131
0.211621	1.660542
0.211719	1.660218
0.211816	1.659727
0.211914	1.659299
0.212012	1.659030
0.212109	1.658699
0.212207	1.658433
0.212305	1.658195
0.212402	1.657888
0.212500	1.657756
0.212598	1.657536
0.212695	1.657370
0.212793	1.657215
0.212891	1.657097
0.212988	1.656935
0.213086	1.656759
0.213184	1.656687
0.213281	1.656614
0.213379	1.656456
0.213477	1.656327
0.213574	1.656207
0.213672	1.656060
0.213770	1.655969
0.213867	1.655964
0.213965	1.655990
0.214062	1.656053
0.214160	1.656119
0.214258	1.656354
0.214355	1.656565
0.214453	1.656959
0.214551	1.657295
0.214648	1.657692
0.214746	1.658114
0.214844	1.658583
0.214941	1.659048
0.215039	1.659497
0.215137	1.660041
0.215234	1.660530
0.215332	1.661034
0.215430	1.661556
0.215527	1.662159
0.215625	1.662821
0.215723	1.663435
0.215820	1.664232
0.215918	1.665171
0.216016	1.666123
0.216113	1.667347
0.216211	1.668606
0.216309	1.670228
0.216406	1.672043
0.216504	1.674215
0.216602	1.676345
0.216699	1.678581
0.216797	1.680724
0.216895	1.682857
0.216992	1.684899
0.217090	1.687136
0.217187	1.687756
0.217285	1.687061
0.217383	1.686099
0.217480	1.684327
0.217578	1.682025
0.217676	1.679649
0.217773	1.677474
0.217871	1.675904
0.217969	1.675034
0.218066	1.674617
0.218164	1.674390
0.218262	1.674270
0.218359	1.674288
0.218457	1.674462
0.218555	1.674831
0.218652	1.675197
0.218750	1.675668
0.218848	1.676204
0.218945	1.676789
0.219043	1.677253
0.219141	1.677720
0.219238	1.678172
0.219336	1.678681
0.219434	1.679167
0.219531	1.679690
0.219629	1.680215
0.219727	1.680786
0.219824	1.681443
0.219922	1.682163
0.220020	1.683205
0.220117	1.684173
0.220215	1.685211
0.220312	1.686268
0.220410	1.687268
0.220508	1.688201
0.220605	1.688724
0.220703	1.689026
0.220801	1.689290
0.220898	1.689312
0.220996	1.689378
0.221094	1.689114
0.221191	1.688697
0.221289	1.688073
0.221387	1.687205
0.221484	1.686376
0.221582	1.685597
0.221680	1.684914
0.221777	1.684347
0.221875	1.683891
0.221973	1.683385
0.222070	1.683031
0.222168	1.682725
0.222266	1.682323
0.222363	1.681917
0.222461	1.681692
0.222559	1.681308
0.222656	1.680933
0.222754	1.680578
0.222852	1.680370
0.222949	1.679965
0.223047	1.679756
0.223145	1.679542
0.223242	1.679230
0.223340	1.678997
0.223437	1.678677
0.223535	1.678322
0.223633	1.678047
0.223730	1.677783
0.223828	1.677637
0.223926	1.677518
0.224023	1.677466
0.224121	1.677494
0.224219	1.677748
0.224316	1.677974
0.224414	1.678266
0.224512	1.678588
0.224609	1.679004
0.224707	1.679268
0.224805	1.679479
0.224902	1.679399
0.225000	1.679432
0.225098	1.678919
0.225195	1.678310
0.225293	1.677515
0.225391	1.676718
0.225488	1.676008
0.225586	1.675305
0.225684	1.674855
0.225781	1.674335
0.225879	1.673947
0.225977	1.673700
0.226074	1.673431
0.226172	1.673161
0.226270	1.672972
0.226367	1.672860
0.226465	1.672741
0.226562	1.672677
0.226660	1.672605
0.226758	1.672673
0.226855	1.672669
0.226953	1.672746
0.227051	1.672682
0.227148	1.672768
0.227246	1.672792
0.227344	1.672723
0.227441	1.672709
0.227539	1.672595
0.227637	1.672493
0.227734	1.672325
0.227832	1.672270
0.227930	1.672126
0.228027	1.672102
0.228125	1.672035
0.228223	1.672006
0.228320	1.671998
0.228418	1.671858
0.228516	1.671769
0.228613	1.671765
0.228711	1.671794
0.228809	1.671929
0.228906	1.672073
0.229004	1.672287
0.229102	1.672601
0.229199	1.672885
0.229297	1.673244
0.229395	1.673422
0.229492	1.673737
0.229590	1.674052
0.229687	1.674299
0.229785	1.674512
0.229883	1.674742
0.229980	1.675191
0.230078	1.675630
0.230176	1.676062
0.230273	1.676574
0.230371	1.677195
0.230469	1.677870
0.230566	1.678562
0.230664	1.679385
0.230762	1.680156
0.230859	1.681153
0.230957	1.682077
0.231055	1.682974
0.231152	1.683848
0.231250	1.684693
0.231348	1.685470
0.231445	1.686312
0.231543	1.686985
0.231641	1.687623
0.231738	1.688285
0.231836	1.688850
0.231934	1.689298
0.232031	1.689632
0.232129	1.689995
0.232227	1.690195
0.232324	1.690342
0.232422	1.690405
0.232520	1.690527
0.232617	1.690468
0.232715	1.690508
0.232812	1.690499
0.232910	1.690472
0.233008	1.690302
0.233105	1.689934
0.233203	1.689514
0.233301	1.688820
0.233398	1.688264
0.233496	1.687578
0.233594	1.687053
0.233691	1.686631
0.233789	1.686213
0.233887	1.685867
0.233984	1.685576
0.234082	1.685276
0.234180	1.684902
0.234277	1.684611
0.234375	1.684472
0.234473	1.684558
0.234570	1.684725
0.234668	1.685089
0.234766	1.685405
0.234863	1.685910
0.234961	1.686258
0.235059	1.686416
0.235156	1.686640
0.235254	1.687274
0.235352	1.688201
0.235449	1.689371
0.235547	1.691337
0.235645	1.694682
0.235742	1.696739
0.235840	1.691283
0.235937	1.688245
0.236035	1.690887
0.236133	1.697057
0.236230	1.705641
0.236328	1.711285
0.236426	1.713582
0.236523	1.713428
0.236621	1.712003
0.236719	1.709309
0.236816	1.703569
0.236914	1.699541
0.237012	1.696968
0.237109	1.694946
0.237207	1.694061
0.237305	1.693087
0.237402	1.692395
0.237500	1.691966
0.237598	1.691726
0.237695	1.691650
0.237793	1.691388
0.237891	1.690588
0.237988	1.689465
0.238086	1.688115
0.238184	1.686953
0.238281	1.686151
0.238379	1.685651
0.238477	1.685487
0.238574	1.685337
0.238672	1.685517
0.238770	1.685616
0.238867	1.685845
0.238965	1.685998
0.239062	1.686164
0.239160	1.686103
0.239258	1.686214
0.239355	1.686217
0.239453	1.686470
0.239551	1.686631
0.239648	1.686637
0.239746	1.686665
0.239844	1.686424
0.239941	1.686342
0.240039	1.686360
0.240137	1.686309
0.240234	1.686271
0.240332	1.686186
0.240430	1.686203
0.240527	1.686214
0.240625	1.686338
0.240723	1.686350
0.240820	1.686531
0.240918	1.686432
0.241016	1.686569
0.241113	1.686222
0.241211	1.685925
0.241309	1.684891
0.241406	1.683938
0.241504	1.682426
0.241602	1.682515
0.241699	1.680303
0.241797	1.680312
0.241895	1.680859
0.241992	1.676192
0.242090	1.679968
0.242187	1.672798
0.242285	1.674474
0.242383	1.666673
0.242480	1.653771
0.242578	1.662585
0.242676	1.668137
0.242773	1.654046
0.242871	1.653555
0.242969	1.674885
0.243066	1.683984
0.243164	1.674482
0.243262	1.681774
0.243359	1.697481
0.243457	1.697354
0.243555	1.701969
0.243652	1.703388
0.243750	1.700387
0.243848	1.696212
0.243945	1.688138
0.244043	1.697075
0.244141	1.705213
0.244238	1.695285
0.244336	1.691297
0.244434	1.677351
0.244531	1.669077
0.244629	1.660531
0.244727	1.652477
0.244824	1.651484
0.244922	1.645757
0.245020	1.666185
0.245117	1.674438
0.245215	1.650406
0.245312	1.657043
0.245410	1.671625
0.245508	1.678463
0.245605	1.681741
0.245703	1.676870
0.245801	1.679177
0.245898	1.680593
0.245996	1.681835
0.246094	1.682150
0.246191	1.682217
0.246289	1.680796
0.246387	1.680653
0.246484	1.681247
0.246582	1.682526
0.246680	1.683567
0.246777	1.684810
0.246875	1.685743
0.246973	1.686708
0.247070	1.687382
0.247168	1.687955
0.247266	1.688479
0.247363	1.689162
0.247461	1.690005
0.247559	1.690203
0.247656	1.690417
0.247754	1.690597
0.247852	1.691959
0.247949	1.692784
0.248047	1.694200
0.248145	1.694768
0.248242	1.698771
0.248340	1.699700
0.248437	1.702491
0.248535	1.707327
0.248633	1.700491
0.248730	1.699904
0.248828	1.700999
0.248926	1.701948
0.249023	1.701553
0.249121	1.698262
0.249219	1.696813
0.249316	1.695837
0.249414	1.695887
0.249512	1.696335
0.249609	1.697080
0.249707	1.695031
0.249805	1.693570
0.249902	1.692406
0.250000	1.693494
0.250098	1.693453
0.250195	1.695354
0.250293	1.695399
0.250391	1.698736
0.250488	1.690759
0.250586	1.689251
0.250684	1.699978
0.250781	1.681943
0.250879	1.676325
0.250977	1.684531
0.251074	1.708736
0.251172	1.701414
0.251270	1.693810
0.251367	1.685154
0.251465	1.682281
0.251562	1.686083
0.251660	1.680730
0.251758	1.670241
0.251855	1.637923
0.251953	1.582253
0.252051	1.579111
0.252148	1.598521
0.252246	1.612154
0.252344	1.653270
0.252441	1.678595
0.252539	1.689974
0.252637	1.685021
0.252734	1.674548
0.252832	1.674783
0.252930	1.664792
0.253027	1.650954
0.253125	1.638585
0.253223	1.652763
0.253320	1.652285
0.253418	1.654322
0.253516	1.639769
0.253613	1.655134
0.253711	1.689488
0.253809	1.680382
0.253906	1.668593
0.254004	1.676771
0.254102	1.673164
0.254199	1.668539
0.254297	1.666976
0.254395	1.668059
0.254492	1.667621
0.254590	1.667149
0.254687	1.666008
0.254785	1.664840
0.254883	1.663348
0.254980	1.662265
0.255078	1.661200
0.255176	1.660684
0.255273	1.660486
0.255371	1.660546
0.255469	1.660961
0.255566	1.661594
0.255664	1.662239
0.255762	1.662857
0.255859	1.663287
0.255957	1.663257
0.256055	1.662437
0.256152	1.661490
0.256250	1.660501
0.256348	1.659541
0.256445	1.658528
0.256543	1.657569
0.256641	1.656364
0.256738	1.655447
0.256836	1.654522
0.256934	1.653873
0.257031	1.653206
0.257129	1.652868
0.257227	1.652776
0.257324	1.652735
0.257422	1.652894
0.257520	1.653079
0.257617	1.653424
0.257715	1.653959
0.257812	1.654481
0.257910	1.655156
0.258008	1.656194
0.258105	1.657225
0.258203	1.658517
0.258301	1.660081
0.258398	1.661789
0.258496	1.663652
0.258594	1.666064
0.258691	1.668377
0.258789	1.671348
0.258887	1.673986
0.258984	1.677290
0.259082	1.679897
0.259180	1.683437
0.259277	1.685636
0.259375	1.688727
0.259473	1.689974
0.259570	1.692760
0.259668	1.693707
0.259766	1.697151
0.259863	1.695228
0.259961	1.694739
0.260059	1.669355
0.260156	1.666249
0.260254	1.677737
0.260352	1.654702
0.260449	1.632972
0.260547	1.659716
0.260645	1.667697
0.260742	1.679673
0.260840	1.672336
0.260937	1.666582
0.261035	1.683704
0.261133	1.696049
0.261230	1.702354
0.261328	1.698935
0.261426	1.690546
0.261523	1.678814
0.261621	1.684503
0.261719	1.686325
0.261816	1.685962
0.261914	1.670263
0.262012	1.678233
0.262109	1.677988
0.262207	1.668174
0.262305	1.669203
0.262402	1.681162
0.262500	1.681125
0.262598	1.667898
0.262695	1.674149
0.262793	1.674402
0.262891	1.671639
0.262988	1.676499
0.263086	1.678093
0.263184	1.678665
0.263281	1.678866
0.263379	1.679083
0.263477	1.679353
0.263574	1.679806
0.263672	1.680198
0.263770	1.680430
0.263867	1.680316
0.263965	1.680190
0.264062	1.679833
0.264160	1.679754
0.264258	1.679561
0.264355	1.679386
0.264453	1.679486
0.264551	1.679374
0.264648	1.679767
0.264746	1.679689
0.264844	1.678302
0.264941	1.680196
0.265039	1.687253
0.265137	1.683746
0.265234	1.680978
0.265332	1.679687
0.265430	1.682923
0.265527	1.681020
0.265625	1.685061
0.265723	1.683393
0.265820	1.683736
0.265918	1.682055
0.266016	1.685366
0.266113	1.693658
0.266211	1.691399
0.266309	1.677454
0.266406	1.656864
0.266504	1.644416
0.266602	1.644568
0.266699	1.644908
0.266797	1.625177
0.266895	1.628652
0.266992	1.636608
0.267090	1.677018
0.267187	1.677047
0.267285	1.665182
0.267383	1.661486
0.267480	1.659179
0.267578	1.665083
0.267676	1.668694
0.267773	1.684550
0.267871	1.686908
0.267969	1.693652
0.268066	1.689225
0.268164	1.681391
0.268262	1.681769
0.268359	1.692533
0.268457	1.698961
0.268555	1.699905
0.268652	1.685062
0.268750	1.674749
0.268848	1.664353
0.268945	1.663276
0.269043	1.650414
0.269141	1.663219
0.269238	1.665957
0.269336	1.664173
0.269434	1.664451
0.269531	1.656907
0.269629	1.653040
0.269727	1.651814
0.269824	1.651388
0.269922	1.653448
0.270020	1.652768
0.270117	1.647636
0.270215	1.651097
0.270312	1.651285
0.270410	1.650487
0.270508	1.648510
0.270605	1.644900
0.270703	1.643241
0.270801	1.641723
0.270898	1.641084
0.270996	1.640309
0.271094	1.639817
0.271191	1.639523
0.271289	1.639447
0.271387	1.639446
0.271484	1.639613
0.271582	1.639749
0.271680	1.640110
0.271777	1.640359
0.271875	1.640891
0.271973	1.641349
0.272070	1.641810
0.272168	1.642290
0.272266	1.642787
0.272363	1.643174
0.272461	1.643421
0.272559	1.643807
0.272656	1.644033
0.272754	1.644467
0.272852	1.644988
0.272949	1.645680
0.273047	1.646414
0.273145	1.647271
0.273242	1.648311
0.273340	1.649280
0.273437	1.650464
0.273535	1.651459
0.273633	1.652639
0.273730	1.653658
0.273828	1.654942
0.273926	1.656085
0.274023	1.657199
0.274121	1.658412
0.274219	1.659447
0.274316	1.660341
0.274414	1.660938
0.274512	1.661292
0.274609	1.661358
0.274707	1.661254
0.274805	1.661059
0.274902	1.661030
0.275000	1.661224
0.275098	1.661558
0.275195	1.662176
0.275293	1.662945
0.275391	1.663896
0.275488	1.664983
0.275586	1.666314
0.275684	1.667696
0.275781	1.669134
0.275879	1.670498
0.275977	1.671974
0.276074	1.673250
0.276172	1.674446
0.276270	1.675680
0.276367	1.676915
0.276465	1.678120
0.276562	1.679340
0.276660	1.680431
0.276758	1.681450
0.276855	1.682383
0.276953	1.683205
0.277051	1.683798
0.277148	1.684298
0.277246	1.684537
0.277344	1.684685
0.277441	1.684891
0.277539	1.685082
0.277637	1.685204
0.277734	1.685509
0.277832	1.685879
0.277930	1.686285
0.278027	1.686856
0.278125	1.687301
0.278223	1.687723
0.278320	1.687811
0.278418	1.687571
0.278516	1.687396
0.278613	1.687059
0.278711	1.686816
0.278809	1.686771
0.278906	1.686602
0.279004	1.686597
0.279102	1.686546
0.279199	1.686693
0.279297	1.686886
0.279395	1.687373
0.279492	1.687883
0.279590	1.688684
0.279687	1.689127
0.279785	1.689417
0.279883	1.689245
0.279980	1.689217
0.280078	1.688910
0.280176	1.688724
0.280273	1.688421
0.280371	1.688647
0.280469	1.689102
0.280566	1.690077
0.280664	1.690286
0.280762	1.690797
0.280859	1.690640
0.280957	1.690721
0.281055	1.689965
0.281152	1.690405
0.281250	1.694471
0.281348	1.703999
0.281445	1.694764
0.281543	1.697029
0.281641	1.687687
0.281738	1.685980
0.281836	1.685353
0.281934	1.688936
0.282031	1.683591
0.282129	1.659431
0.282227	1.673913
0.282324	1.676218
0.282422	1.679992
0.282520	1.676045
0.282617	1.628064
0.282715	1.633843
0.282812	1.670357
0.282910	1.669675
0.283008	1.675189
0.283105	1.678044
0.283203	1.684108
0.283301	1.686750
0.283398	1.685588
0.283496	1.676125
0.283594	1.675785
0.283691	1.668012
0.283789	1.665515
0.283887	1.667087
0.283984	1.667593
0.284082	1.671126
0.284180	1.676758
0.284277	1.679464
0.284375	1.677876
0.284473	1.675886
0.284570	1.677469
0.284668	1.678556
0.284766	1.676873
0.284863	1.674002
0.284961	1.671973
0.285059	1.671322
0.285156	1.672893
0.285254	1.674601
0.285352	1.670493
0.285449	1.666409
0.285547	1.666699
0.285645	1.667398
0.285742	1.667841
0.285840	1.667591
0.285937	1.666947
0.286035	1.666232
0.286133	1.665498
0.286230	1.664540
0.286328	1.663261
0.286426	1.661731
0.286523	1.660343
0.286621	1.658624
0.286719	1.657090
0.286816	1.655609
0.286914	1.654214
0.287012	1.653019
0.287109	1.652096
0.287207	1.651393
0.287305	1.650937
0.287402	1.650660
0.287500	1.650679
0.287598	1.650682
0.287695	1.650851
0.287793	1.651165
0.287891	1.651656
0.287988	1.652177
0.288086	1.652636
0.288184	1.653134
0.288281	1.653753
0.288379	1.654176
0.288477	1.654879
0.288574	1.655639
0.288672	1.656344
0.288770	1.657076
0.288867	1.657813
0.288965	1.658453
0.289062	1.658924
0.289160	1.659285
0.289258	1.659619
0.289355	1.659768
0.289453	1.659845
0.289551	1.659823
0.289648	1.659748
0.289746	1.659584
0.289844	1.659333
0.289941	1.659352
0.290039	1.659343
0.290137	1.659445
0.290234	1.659468
0.290332	1.659612
0.290430	1.659790
0.290527	1.660028
0.290625	1.660357
0.290723	1.660781
0.290820	1.661011
0.290918	1.660970
0.291016	1.661219
0.291113	1.661683
0.291211	1.662198
0.291309	1.662779
0.291406	1.663247
0.291504	1.663895
0.291602	1.664619
0.291699	1.665482
0.291797	1.666441
0.291895	1.667791
0.291992	1.669435
0.292090	1.671293
0.292187	1.673506
0.292285	1.676201
0.292383	1.679155
0.292480	1.682212
0.292578	1.683931
0.292676	1.686780
0.292773	1.689799
0.292871	1.691378
0.292969	1.692196
0.293066	1.692387
0.293164	1.692462
0.293262	1.692839
0.293359	1.693635
0.293457	1.694693
0.293555	1.696267
0.293652	1.698170
0.293750	1.699565
0.293848	1.700287
0.293945	1.699821
0.294043	1.698248
0.294141	1.696439
0.294238	1.694657
0.294336	1.692722
0.294434	1.690961
0.294531	1.690247
0.294629	1.690360
0.294727	1.691160
0.294824	1.691751
0.294922	1.692238
0.295020	1.692168
0.295117	1.691802
0.295215	1.691346
0.295312	1.691109
0.295410	1.690871
0.295508	1.690731
0.295605	1.690723
0.295703	1.690770
0.295801	1.691075
0.295898	1.691333
0.295996	1.691789
0.296094	1.692244
0.296191	1.692836
0.296289	1.693345
0.296387	1.693900
0.296484	1.694290
0.296582	1.694498
0.296680	1.694550
0.296777	1.694712
0.296875	1.694906
0.296973	1.695111
0.297070	1.694829
0.297168	1.694519
0.297266	1.693929
0.297363	1.692980
0.297461	1.691784
0.297559	1.690947
0.297656	1.690644
0.297754	1.690680
0.297852	1.690746
0.297949	1.690502
0.298047	1.689989
0.298145	1.689116
0.298242	1.687605
0.298340	1.686537
0.298437	1.686230
0.298535	1.685887
0.298633	1.686058
0.298730	1.686640
0.298828	1.687915
0.298926	1.689660
0.299023	1.691869
0.299121	1.690807
0.299219	1.685101
0.299316	1.682437
0.299414	1.683866
0.299512	1.684949
0.299609	1.685918
0.299707	1.686619
0.299805	1.685388
0.299902	1.682983
0.300000	1.681416
0.300098	1.679787
0.300195	1.677883
0.300293	1.675656
0.300391	1.673163
0.300488	1.671080
0.300586	1.668848
0.300684	1.666448
0.300781	1.665210
0.300879	1.664571
0.300977	1.664360
0.301074	1.663982
0.301172	1.663234
0.301270	1.662243
0.301367	1.660894
0.301465	1.659488
0.301562	1.658442
0.301660	1.657470
0.301758	1.656574
0.301855	1.655750
0.301953	1.655106
0.302051	1.654760
0.302148	1.654535
0.302246	1.654842
0.302344	1.655342
0.302441	1.656216
0.302539	1.657157
0.302637	1.657649
0.302734	1.657861
0.302832	1.658434
0.302930	1.659297
0.303027	1.660388
0.303125	1.661598
0.303223	1.662415
0.303320	1.663040
0.303418	1.663583
0.303516	1.663984
0.303613	1.664112
0.303711	1.663545
0.303809	1.662679
0.303906	1.662208
0.304004	1.662113
0.304102	1.662499
0.304199	1.663098
0.304297	1.663857
0.304395	1.664874
0.304492	1.665988
0.304590	1.667190
0.304687	1.668392
0.304785	1.669691
0.304883	1.670930
0.304980	1.672179
0.305078	1.673251
0.305176	1.674271
0.305273	1.675128
0.305371	1.676167
0.305469	1.677097
0.305566	1.677836
0.305664	1.678991
0.305762	1.680032
0.305859	1.681320
0.305957	1.682310
0.306055	1.683481
0.306152	1.684176
0.306250	1.684789
0.306348	1.684852
0.306445	1.685743
0.306543	1.686339
0.306641	1.687905
0.306738	1.689006
0.306836	1.691426
0.306934	1.692948
0.307031	1.696312
0.307129	1.697746
0.307227	1.704221
0.307324	1.701846
0.307422	1.691433
0.307520	1.689916
0.307617	1.682136
0.307715	1.682559
0.307812	1.685511
0.307910	1.707000
0.308008	1.709895
0.308105	1.700869
0.308203	1.681633
0.308301	1.686450
0.308398	1.688815
0.308496	1.694848
0.308594	1.692938
0.308691	1.693793
0.308789	1.692733
0.308887	1.692999
0.308984	1.692715
0.309082	1.693628
0.309180	1.694348
0.309277	1.695248
0.309375	1.694572
0.309473	1.693816
0.309570	1.691915
0.309668	1.689408
0.309766	1.686975
0.309863	1.684667
0.309961	1.682708
0.310059	1.681095
0.310156	1.679734
0.310254	1.678737
0.310352	1.677863
0.310449	1.677353
0.310547	1.676852
0.310645	1.676492
0.310742	1.676201
0.310840	1.675904
0.310937	1.675515
0.311035	1.675348
0.311133	1.675112
0.311230	1.675086
0.311328	1.674878
0.311426	1.674968
0.311523	1.674820
0.311621	1.675126
0.311719	1.675154
0.311816	1.675819
0.311914	1.676074
0.312012	1.677216
0.312109	1.677739
0.312207	1.679110
0.312305	1.678086
0.312402	1.679739
0.312500	1.677712
0.312598	1.677445
0.312695	1.673911
0.312793	1.680168
0.312891	1.682905
0.312988	1.679147
0.313086	1.680470
0.313184	1.678327
0.313281	1.679183
0.313379	1.678291
0.313477	1.678800
0.313574	1.680270
0.313672	1.683659
0.313770	1.687868
0.313867	1.691594
0.313965	1.697320
0.314062	1.681897
0.314160	1.626725
0.314258	1.628524
0.314355	1.630498
0.314453	1.629703
0.314551	1.633711
0.314648	1.618029
0.314746	1.595675
0.314844	1.569385
0.314941	1.556010
0.315039	1.552976
0.315137	1.533429
0.315234	1.484202
0.315332	1.506130
0.315430	1.548241
0.315527	1.557504
0.315625	1.515898
0.315723	1.512161
0.315820	1.552275
0.315918	1.566215
0.316016	1.567031
0.316113	1.571169
0.316211	1.588721
0.316309	1.599229
0.316406	1.603264
0.316504	1.608869
0.316602	1.586011
0.316699	1.591409
0.316797	1.599689
0.316895	1.593466
0.316992	1.573654
0.317090	1.578518
0.317187	1.587940
0.317285	1.577509
0.317383	1.588060
0.317480	1.601147
0.317578	1.603749
0.317676	1.608455
0.317773	1.612083
0.317871	1.615658
0.317969	1.618436
0.318066	1.620914
0.318164	1.622966
0.318262	1.624779
0.318359	1.626452
0.318457	1.628056
0.318555	1.629282
0.318652	1.630552
0.318750	1.631688
0.318848	1.632787
0.318945	1.633839
0.319043	1.634821
0.319141	1.635893
0.319238	1.637010
0.319336	1.638001
0.319434	1.639116
0.319531	1.640385
0.319629	1.641540
0.319727	1.642769
0.319824	1.644097
0.319922	1.645539
0.320020	1.646981
0.320117	1.648495
0.320215	1.650235
0.320312	1.651763
0.320410	1.653650
0.320508	1.655592
0.320605	1.657780
0.320703	1.659909
0.320801	1.662425
0.320898	1.664616
0.320996	1.667261
0.321094	1.669359
0.321191	1.672366
0.321289	1.674529
0.321387	1.679312
0.321484	1.678341
0.321582	1.674132
0.321680	1.680995
0.321777	1.684027
0.321875	1.685896
0.321973	1.682008
0.322070	1.683999
0.322168	1.685885
0.322266	1.687301
0.322363	1.688321
0.322461	1.689617
0.322559	1.689940
0.322656	1.691531
0.322754	1.693249
0.322852	1.697714
0.322949	1.704702
0.323047	1.714980
0.323145	1.705263
0.323242	1.683932
0.323340	1.672869
0.323437	1.671517
0.323535	1.683639
0.323633	1.683406
0.323730	1.683520
0.323828	1.681506
0.323926	1.681366
0.324023	1.674579
0.324121	1.660206
0.324219	1.661239
0.324316	1.678433
0.324414	1.672615
0.324512	1.677729
0.324609	1.678867
0.324707	1.680315
0.324805	1.681632
0.324902	1.682864
0.325000	1.682898
0.325098	1.681344
0.325195	1.679739
0.325293	1.680254
0.325391	1.676776
0.325488	1.679658
0.325586	1.677554
0.325684	1.685726
0.325781	1.688833
0.325879	1.687787
0.325977	1.686014
0.326074	1.683071
0.326172	1.681613
0.326270	1.683990
0.326367	1.686192
0.326465	1.678907
0.326562	1.672463
0.326660	1.670961
0.326758	1.670252
0.326855	1.669984
0.326953	1.669489
0.327051	1.669302
0.327148	1.669156
0.327246	1.669426
0.327344	1.669922
0.327441	1.670810
0.327539	1.671768
0.327637	1.673077
0.327734	1.674512
0.327832	1.676221
0.327930	1.677972
0.328027	1.679752
0.328125	1.681505
0.328223	1.682973
0.328320	1.684057
0.328418	1.684899
0.328516	1.684878
0.328613	1.684885
0.328711	1.685061
0.328809	1.685728
0.328906	1.686841
0.329004	1.688671
0.329102	1.690958
0.329199	1.693080
0.329297	1.693699
0.329395	1.694143
0.329492	1.693921
0.329590	1.691354
0.329687	1.688401
0.329785	1.686701
0.329883	1.686500
0.329980	1.687089
0.330078	1.688241
0.330176	1.689130
0.330273	1.689792
0.330371	1.689748
0.330469	1.689910
0.330566	1.690885
0.330664	1.694327
0.330762	1.689339
0.330859	1.679706
0.330957	1.675976
0.331055	1.673829
0.331152	1.673775
0.331250	1.673458
0.331348	1.673364
0.331445	1.672536
0.331543	1.671663
0.331641	1.670442
0.331738	1.669127
0.331836	1.667744
0.331934	1.666672
0.332031	1.665643
0.332129	1.664884
0.332227	1.663788
0.332324	1.662664
0.332422	1.661097
0.332520	1.659650
0.332617	1.658408
0.332715	1.657675
0.332812	1.657252
0.332910	1.657248
0.333008	1.657401
0.333105	1.657584
0.333203	1.658018
0.333301	1.658505
0.333398	1.659020
0.333496	1.659563
0.333594	1.660214
0.333691	1.660926
0.333789	1.661689
0.333887	1.662559
0.333984	1.663395
0.334082	1.664501
0.334180	1.665511
0.334277	1.666806
0.334375	1.668073
0.334473	1.669607
0.334570	1.671182
0.334668	1.672741
0.334766	1.674246
0.334863	1.675692
0.334961	1.677071
0.335059	1.678173
0.335156	1.679421
0.335254	1.680612
0.335352	1.682059
0.335449	1.683518
0.335547	1.685082
0.335645	1.686596
0.335742	1.687832
0.335840	1.688540
0.335937	1.688948
0.336035	1.688940
0.336133	1.688584
0.336230	1.687460
0.336328	1.686223
0.336426	1.685165
0.336523	1.684514
0.336621	1.683958
0.336719	1.683672
0.336816	1.683487
0.336914	1.683317
0.337012	1.683266
0.337109	1.683140
0.337207	1.683264
0.337305	1.683215
0.337402	1.683182
0.337500	1.683116
0.337598	1.682968
0.337695	1.682759
0.337793	1.682426
0.337891	1.682078
0.337988	1.681654
0.338086	1.681350
0.338184	1.680974
0.338281	1.680778
0.338379	1.680563
0.338477	1.680297
0.338574	1.680070
0.338672	1.679850
0.338770	1.679688
0.338867	1.679409
0.338965	1.679267
0.339062	1.679072
0.339160	1.678958
0.339258	1.678764
0.339355	1.678623
0.339453	1.678489
0.339551	1.678363
0.339648	1.678140
0.339746	1.678083
0.339844	1.677910
0.339941	1.677910
0.340039	1.677970
0.340137	1.677951
0.340234	1.678034
0.340332	1.678008
0.340430	1.678055
0.340527	1.678069
0.340625	1.677906
0.340723	1.677771
0.340820	1.677527
0.340918	1.677560
0.341016	1.677128
0.341113	1.677385
0.341211	1.676812
0.341309	1.677280
0.341406	1.676749
0.341504	1.677496
0.341602	1.676740
0.341699	1.678507
0.341797	1.670947
0.341895	1.665051
0.341992	1.643864
0.342090	1.627730
0.342187	1.609719
0.342285	1.655463
0.342383	1.688296
0.342480	1.690947
0.342578	1.692561
0.342676	1.700251
0.342773	1.681695
0.342871	1.673545
0.342969	1.640940
0.343066	1.627487
0.343164	1.604264
0.343262	1.604393
0.343359	1.637206
0.343457	1.663354
0.343555	1.678374
0.343652	1.680757
0.343750	1.669162
0.343848	1.642778
0.343945	1.619258
0.344043	1.630495
0.344141	1.644126
0.344238	1.657545
0.344336	1.657015
0.344434	1.651997
0.344531	1.638898
0.344629	1.635793
0.344727	1.633059
0.344824	1.629507
0.344922	1.636640
0.345020	1.639781
0.345117	1.609726
0.345215	1.585166
0.345312	1.597394
0.345410	1.601721
0.345508	1.595794
0.345605	1.594309
0.345703	1.585955
0.345801	1.589219
0.345898	1.596581
0.345996	1.596415
0.346094	1.612787
0.346191	1.638559
0.346289	1.641311
0.346387	1.657598
0.346484	1.656997
0.346582	1.650455
0.346680	1.653019
0.346777	1.651590
0.346875	1.653332
0.346973	1.653426
0.347070	1.654725
0.347168	1.654901
0.347266	1.655951
0.347363	1.656274
0.347461	1.657138
0.347559	1.657599
0.347656	1.658428
0.347754	1.658885
0.347852	1.659520
0.347949	1.659793
0.348047	1.660420
0.348145	1.660819
0.348242	1.661199
0.348340	1.661583
0.348437	1.661785
0.348535	1.662261
0.348633	1.662326
0.348730	1.662835
0.348828	1.663145
0.348926	1.664100
0.349023	1.664384
0.349121	1.664061
0.349219	1.663238
0.349316	1.662396
0.349414	1.659602
0.349512	1.655221
0.349609	1.643754
0.349707	1.627410
0.349805	1.631685
0.349902	1.669947
0.350000	1.686378
0.350098	1.682569
0.350195	1.682577
0.350293	1.680624
0.350391	1.678783
0.350488	1.676759
0.350586	1.676635
0.350684	1.676771
0.350781	1.677745
0.350879	1.678122
0.350977	1.678166
0.351074	1.677870
0.351172	1.677295
0.351270	1.677702
0.351367	1.680436
0.351465	1.691664
0.351562	1.689794
0.351660	1.687740
0.351758	1.692985
0.351855	1.701507
0.351953	1.706072
0.352051	1.704731
0.352148	1.710852
0.352246	1.702141
0.352344	1.680999
0.352441	1.681654
0.352539	1.684476
0.352637	1.678696
0.352734	1.671843
0.352832	1.673761
0.352930	1.680507
0.353027	1.648760
0.353125	1.641482
0.353223	1.661098
0.353320	1.672287
0.353418	1.694126
0.353516	1.687758
0.353613	1.685503
0.353711	1.683911
0.353809	1.681478
0.353906	1.680142
0.354004	1.677596
0.354102	1.675685
0.354199	1.674285
0.354297	1.670791
0.354395	1.663149
0.354492	1.641875
0.354590	1.638891
0.354687	1.661002
0.354785	1.669481
0.354883	1.678459
0.354980	1.674010
0.355078	1.670625
0.355176	1.677104
0.355273	1.707152
0.355371	1.713048
0.355469	1.707904
0.355566	1.708151
0.355664	1.696213
0.355762	1.695835
0.355859	1.686691
0.355957	1.684377
0.356055	1.692944
0.356152	1.674241
0.356250	1.660846
0.356348	1.666442
0.356445	1.646942
0.356543	1.645859
0.356641	1.652075
0.356738	1.641773
0.356836	1.613695
0.356934	1.611287
0.357031	1.626173
0.357129	1.634674
0.357227	1.643293
0.357324	1.641967
0.357422	1.647728
0.357520	1.646914
0.357617	1.648122
0.357715	1.646545
0.357812	1.647809
0.357910	1.647640
0.358008	1.649013
0.358105	1.649486
0.358203	1.651249
0.358301	1.652254
0.358398	1.654169
0.358496	1.655285
0.358594	1.656607
0.358691	1.657454
0.358789	1.658200
0.358887	1.658095
0.358984	1.659228
0.359082	1.660293
0.359180	1.660505
0.359277	1.661335
0.359375	1.662229
0.359473	1.665348
0.359570	1.666140
0.359668	1.666686
0.359766	1.665315
0.359863	1.666283
0.359961	1.666365
0.360059	1.671448
0.360156	1.677029
0.360254	1.683869
0.360352	1.696331
0.360449	1.705449
0.360547	1.708530
0.360645	1.670950
0.360742	1.669231
0.360840	1.694721
0.360937	1.661959
0.361035	1.656056
0.361133	1.682165
0.361230	1.660377
0.361328	1.675522
0.361426	1.678604
0.361523	1.675008
0.361621	1.678014
0.361719	1.669662
0.361816	1.672388
0.361914	1.692477
0.362012	1.691100
0.362109	1.662460
0.362207	1.645561
0.362305	1.653390
0.362402	1.646940
0.362500	1.654408
0.362598	1.664851
0.362695	1.664069
0.362793	1.672684
0.362891	1.673865
0.362988	1.680442
0.363086	1.672858
0.363184	1.658608
0.363281	1.662702
0.363379	1.664091
0.363477	1.672361
0.363574	1.685098
0.363672	1.685553
0.363770	1.675312
0.363867	1.667603
0.363965	1.663936
0.364062	1.665904
0.364160	1.668038
0.364258	1.670993
0.364355	1.671567
0.364453	1.667556
0.364551	1.661357
0.364648	1.657373
0.364746	1.654630
0.364844	1.653941
0.364941	1.654110
0.365039	1.655242
0.365137	1.656344
0.365234	1.657170
0.365332	1.657537
0.365430	1.658441
0.365527	1.659139
0.365625	1.659138
0.365723	1.658348
0.365820	1.657557
0.365918	1.657113
0.366016	1.657171
0.366113	1.657318
0.366211	1.657926
0.366309	1.658934
0.366406	1.660780
0.366504	1.662527
0.366602	1.664709
0.366699	1.666138
0.366797	1.664465
0.366895	1.651622
0.366992	1.660784
0.367090	1.667917
0.367187	1.668275
0.367285	1.669700
0.367383	1.669980
0.367480	1.670813
0.367578	1.670936
0.367676	1.671639
0.367773	1.671841
0.367871	1.672627
0.367969	1.673083
0.368066	1.674335
0.368164	1.675373
0.368262	1.677166
0.368359	1.678589
0.368457	1.680978
0.368555	1.683048
0.368652	1.686494
0.368750	1.689187
0.368848	1.692631
0.368945	1.690435
0.369043	1.689578
0.369141	1.692490
0.369238	1.692016
0.369336	1.693010
0.369434	1.693436
0.369531	1.693868
0.369629	1.693184
0.369727	1.692702
0.369824	1.692024
0.369922	1.691579
0.370020	1.690910
0.370117	1.690269
0.370215	1.689379
0.370312	1.688614
0.370410	1.687645
0.370508	1.686738
0.370605	1.685768
0.370703	1.684946
0.370801	1.684055
0.370898	1.683176
0.370996	1.682416
0.371094	1.681591
0.371191	1.680930
0.371289	1.680218
0.371387	1.679733
0.371484	1.679277
0.371582	1.678850
0.371680	1.678696
0.371777	1.678441
0.371875	1.678334
0.371973	1.678387
0.372070	1.678425
0.372168	1.678557
0.372266	1.678674
0.372363	1.678806
0.372461	1.678698
0.372559	1.678750
0.372656	1.678541
0.372754	1.678321
0.372852	1.677628
0.372949	1.676720
0.373047	1.675500
0.373145	1.674129
0.373242	1.672669
0.373340	1.671109
0.373437	1.669552
0.373535	1.668388
0.373633	1.667376
0.373730	1.666831
0.373828	1.666557
0.373926	1.666506
0.374023	1.666526
0.374121	1.666439
0.374219	1.666225
0.374316	1.665689
0.374414	1.665151
0.374512	1.664348
0.374609	1.663812
0.374707	1.663168
0.374805	1.662786
0.374902	1.662283
0.375000	1.662203
0.375098	1.661692
0.375195	1.661766
0.375293	1.661216
0.375391	1.661223
0.375488	1.660512
0.375586	1.660599
0.375684	1.659549
0.375781	1.659842
0.375879	1.651234
0.375977	1.654353
0.376074	1.649333
0.376172	1.628048
0.376270	1.610567
0.376367	1.612410
0.376465	1.614654
0.376562	1.584081
0.376660	1.573140
0.376758	1.601287
0.376855	1.601529
0.376953	1.588120
0.377051	1.587303
0.377148	1.572787
0.377246	1.541052
0.377344	1.509531
0.377441	1.476483
0.377539	1.375016
0.377637	1.298384
0.377734	1.296705
0.377832	1.316957
0.377930	1.395976
0.378027	1.431076
0.378125	1.473806
0.378223	1.512305
0.378320	1.528605
0.378418	1.523036
0.378516	1.534133
0.378613	1.537438
0.378711	1.515223
0.378809	1.523258
0.378906	1.551520
0.379004	1.556690
0.379102	1.596025
0.379199	1.622970
0.379297	1.611684
0.379395	1.620991
0.379492	1.654699
0.379590	1.672014
0.379687	1.641236
0.379785	1.627477
0.379883	1.640843
0.379980	1.649301
0.380078	1.653400
0.380176	1.656809
0.380273	1.658873
0.380371	1.659836
0.380469	1.660953
0.380566	1.661932
0.380664	1.663167
0.380762	1.664160
0.380859	1.664670
0.380957	1.663951
0.381055	1.662742
0.381152	1.661418
0.381250	1.660279
0.381348	1.659435
0.381445	1.658947
0.381543	1.658643
0.381641	1.658567
0.381738	1.658470
0.381836	1.658511
0.381934	1.658689
0.382031	1.658888
0.382129	1.659095
0.382227	1.659541
0.382324	1.659921
0.382422	1.660345
0.382520	1.660908
0.382617	1.661486
0.382715	1.662312
0.382812	1.663308
0.382910	1.664447
0.383008	1.665826
0.383105	1.667596
0.383203	1.669481
0.383301	1.671891
0.383398	1.674673
0.383496	1.677982
0.383594	1.681619
0.383691	1.685475
0.383789	1.687611
0.383887	1.687861
0.383984	1.690122
0.384082	1.693386
0.384180	1.696492
0.384277	1.699349
0.384375	1.702087
0.384473	1.703892
0.384570	1.704398
0.384668	1.704145
0.384766	1.703048
0.384863	1.701046
0.384961	1.700741
0.385059	1.701968
0.385156	1.702906
0.385254	1.702140
0.385352	1.703303
0.385449	1.702585
0.385547	1.692747
0.385645	1.687043
0.385742	1.689395
0.385840	1.690878
0.385937	1.690521
0.386035	1.689919
0.386133	1.690350
0.386230	1.688925
0.386328	1.677414
0.386426	1.676718
0.386523	1.692617
0.386621	1.700755
0.386719	1.707051
0.386816	1.708015
0.386914	1.708134
0.387012	1.710339
0.387109	1.687584
0.387207	1.692590
0.387305	1.703358
0.387402	1.705078
0.387500	1.699948
0.387598	1.690962
0.387695	1.689331
0.387793	1.687121
0.387891	1.686809
0.387988	1.685847
0.388086	1.684772
0.388184	1.683180
0.388281	1.681860
0.388379	1.683142
0.388477	1.681803
0.388574	1.683125
0.388672	1.685502
0.388770	1.697335
0.388867	1.676327
0.388965	1.685206
0.389062	1.687734
0.389160	1.686025
0.389258	1.695488
0.389355	1.695966
0.389453	1.696707
0.389551	1.684805
0.389648	1.680520
0.389746	1.677103
0.389844	1.676111
0.389941	1.673574
0.390039	1.676387
0.390137	1.680701
0.390234	1.693094
0.390332	1.681168
0.390430	1.680943
0.390527	1.670239
0.390625	1.644683
0.390723	1.674608
0.390820	1.680563
0.390918	1.668327
0.391016	1.662135
0.391113	1.672580
0.391211	1.675935
0.391309	1.681141
0.391406	1.682380
0.391504	1.682112
0.391602	1.675453
0.391699	1.682957
0.391797	1.711493
0.391895	1.695493
0.391992	1.670044
0.392090	1.648562
0.392187	1.639788
0.392285	1.650504
0.392383	1.667813
0.392480	1.676762
0.392578	1.674887
0.392676	1.649014
0.392773	1.638740
0.392871	1.649208
0.392969	1.625893
0.393066	1.599623
0.393164	1.592898
0.393262	1.626849
0.393359	1.657380
0.393457	1.681168
0.393555	1.679501
0.393652	1.670140
0.393750	1.682113
0.393848	1.696982
0.393945	1.690859
0.394043	1.681509
0.394141	1.679451
0.394238	1.663998
0.394336	1.656983
0.394434	1.644201
0.394531	1.644877
0.394629	1.655870
0.394727	1.662019
0.394824	1.670901
0.394922	1.657983
0.395020	1.666865
0.395117	1.682216
0.395215	1.682595
0.395312	1.676037
0.395410	1.683553
0.395508	1.668173
0.395605	1.666176
0.395703	1.667107
0.395801	1.661169
0.395898	1.651881
0.395996	1.645334
0.396094	1.641710
0.396191	1.640211
0.396289	1.638171
0.396387	1.637007
0.396484	1.636120
0.396582	1.636466
0.396680	1.637027
0.396777	1.638096
0.396875	1.639038
0.396973	1.639885
0.397070	1.640902
0.397168	1.641852
0.397266	1.642720
0.397363	1.643656
0.397461	1.644636
0.397559	1.645852
0.397656	1.647130
0.397754	1.648521
0.397852	1.649948
0.397949	1.651388
0.398047	1.652640
0.398145	1.653779
0.398242	1.654661
0.398340	1.655391
0.398437	1.655988
0.398535	1.656417
0.398633	1.656515
0.398730	1.656664
0.398828	1.656479
0.398926	1.656242
0.399023	1.656077
0.399121	1.655875
0.399219	1.655872
0.399316	1.655992
0.399414	1.656124
0.399512	1.656534
0.399609	1.657127
0.399707	1.657849
0.399805	1.658543
0.399902	1.659553
0.400000	1.660654
0.400098	1.661562
0.400195	1.662202
0.400293	1.663630
0.400391	1.664939
0.400488	1.666298
0.400586	1.667528
0.400684	1.668726
0.400781	1.670225
0.400879	1.672793
0.400977	1.674694
0.401074	1.677617
0.401172	1.680605
0.401270	1.680715
0.401367	1.664428
0.401465	1.670414
0.401562	1.660338
0.401660	1.668762
0.401758	1.668001
0.401855	1.695685
0.401953	1.691681
0.402051	1.690477
0.402148	1.673925
0.402246	1.683176
0.402344	1.709436
0.402441	1.734058
0.402539	1.724572
0.402637	1.697927
0.402734	1.700333
0.402832	1.693301
0.402930	1.692604
0.403027	1.675247
0.403125	1.672957
0.403223	1.672552
0.403320	1.668842
0.403418	1.664777
0.403516	1.679505
0.403613	1.675201
0.403711	1.673509
0.403809	1.673093
0.403906	1.675906
0.404004	1.679058
0.404102	1.690161
0.404199	1.694439
0.404297	1.688538
0.404395	1.681652
0.404492	1.670891
0.404590	1.653724
0.404687	1.650708
0.404785	1.634143
0.404883	1.643718
0.404980	1.639323
0.405078	1.650720
0.405176	1.647205
0.405273	1.653154
0.405371	1.670271
0.405469	1.658600
0.405566	1.651884
0.405664	1.623463
0.405762	1.589547
0.405859	1.607091
0.405957	1.610635
0.406055	1.635891
0.406152	1.674236
0.406250	1.628975
0.406348	1.625238
0.406445	1.643209
0.406543	1.619054
0.406641	1.617431
0.406738	1.631961
0.406836	1.610012
0.406934	1.593698
0.407031	1.643419
0.407129	1.654847
0.407227	1.694568
0.407324	1.697240
0.407422	1.685729
0.407520	1.682798
0.407617	1.679592
0.407715	1.677697
0.407812	1.677885
0.407910	1.679112
0.408008	1.682911
0.408105	1.684700
0.408203	1.677190
0.408301	1.672428
0.408398	1.671444
0.408496	1.669698
0.408594	1.668518
0.408691	1.666938
0.408789	1.665711
0.408887	1.663968
0.408984	1.662300
0.409082	1.660318
0.409180	1.658401
0.409277	1.656444
0.409375	1.654643
0.409473	1.652978
0.409570	1.651559
0.409668	1.650187
0.409766	1.649163
0.409863	1.648316
0.409961	1.647864
0.410059	1.647562
0.410156	1.647471
0.410254	1.647536
0.410352	1.647792
0.410449	1.648259
0.410547	1.648771
0.410645	1.649467
0.410742	1.650222
0.410840	1.650737
0.410937	1.651359
0.411035	1.651626
0.411133	1.652074
0.411230	1.652850
0.411328	1.653681
0.411426	1.654463
0.411523	1.654929
0.411621	1.654968
0.411719	1.654906
0.411816	1.654804
0.411914	1.654658
0.412012	1.654500
0.412109	1.654259
0.412207	1.653969
0.412305	1.653843
0.412402	1.653832
0.412500	1.653984
0.412598	1.654308
0.412695	1.654926
0.412793	1.655623
0.412891	1.656581
0.412988	1.657861
0.413086	1.659320
0.413184	1.660963
0.413281	1.662892
0.413379	1.664994
0.413477	1.667648
0.413574	1.670292
0.413672	1.673305
0.413770	1.676016
0.413867	1.678623
0.413965	1.680217
0.414062	1.683587
0.414160	1.690601
0.414258	1.683018
0.414355	1.688570
0.414453	1.685206
0.414551	1.685602
0.414648	1.689794
0.414746	1.694981
0.414844	1.699819
0.414941	1.701733
0.415039	1.697856
0.415137	1.702471
0.415234	1.704296
0.415332	1.701935
0.415430	1.697008
0.415527	1.695022
0.415625	1.701106
0.415723	1.699144
0.415820	1.700845
0.415918	1.704217
0.416016	1.709643
0.416113	1.704629
0.416211	1.708887
0.416309	1.705211
0.416406	1.715340
0.416504	1.693916
0.416602	1.689685
0.416699	1.704405
0.416797	1.678182
0.416895	1.682861
0.416992	1.689829
0.417090	1.696628
0.417187	1.696436
0.417285	1.692056
0.417383	1.683734
0.417480	1.680920
0.417578	1.678543
0.417676	1.678455
0.417773	1.677929
0.417871	1.680740
0.417969	1.683522
0.418066	1.686082
0.418164	1.688846
0.418262	1.692118
0.418359	1.695661
0.418457	1.699517
0.418555	1.704740
0.418652	1.704883
0.418750	1.703732
0.418848	1.701500
0.418945	1.717487
0.419043	1.703273
0.419141	1.676676
0.419238	1.681591
0.419336	1.679287
0.419434	1.681248
0.419531	1.681117
0.419629	1.684343
0.419727	1.681706
0.419824	1.680082
0.419922	1.679678
0.420020	1.681837
0.420117	1.677258
0.420215	1.667690
0.420312	1.637557
0.420410	1.639710
0.420508	1.652031
0.420605	1.666034
0.420703	1.664619
0.420801	1.668078
0.420898	1.665878
0.420996	1.665781
0.421094	1.650444
0.421191	1.661468
0.421289	1.669841
0.421387	1.665020
0.421484	1.680107
0.421582	1.681978
0.421680	1.683579
0.421777	1.671473
0.421875	1.657416
0.421973	1.666141
0.422070	1.680971
0.422168	1.680535
0.422266	1.668727
0.422363	1.643859
0.422461	1.637976
0.422559	1.637378
0.422656	1.641648
0.422754	1.645869
0.422852	1.647002
0.422949	1.656205
0.423047	1.647709
0.423145	1.647896
0.423242	1.643985
0.423340	1.644447
0.423437	1.642212
0.423535	1.642504
0.423633	1.641084
0.423730	1.641486
0.423828	1.640610
0.423926	1.641125
0.424023	1.640755
0.424121	1.641106
0.424219	1.640966
0.424316	1.641228
0.424414	1.641034
0.424512	1.641148
0.424609	1.640915
0.424707	1.640924
0.424805	1.640675
0.424902	1.640490
0.425000	1.640194
0.425098	1.639944
0.425195	1.639543
0.425293	1.639340
0.425391	1.639249
0.425488	1.639225
0.425586	1.639479
0.425684	1.639835
0.425781	1.640478
0.425879	1.641292
0.425977	1.642331
0.426074	1.643577
0.426172	1.644978
0.426270	1.646616
0.426367	1.648356
0.426465	1.650402
0.426562	1.652607
0.426660	1.654809
0.426758	1.657071
0.426855	1.659045
0.426953	1.660978
0.427051	1.663175
0.427148	1.665551
0.427246	1.668075
0.427344	1.670804
0.427441	1.674110
0.427539	1.678826
0.427637	1.685100
0.427734	1.691751
0.427832	1.696557
0.427930	1.697263
0.428027	1.695764
0.428125	1.696318
0.428223	1.698217
0.428320	1.698030
0.428418	1.695367
0.428516	1.692362
0.428613	1.690677
0.428711	1.689682
0.428809	1.688022
0.428906	1.686089
0.429004	1.684028
0.429102	1.681848
0.429199	1.680102
0.429297	1.678675
0.429395	1.677698
0.429492	1.677084
0.429590	1.676557
0.429687	1.676049
0.429785	1.675659
0.429883	1.675438
0.429980	1.675531
0.430078	1.675637
0.430176	1.676128
0.430273	1.676710
0.430371	1.677750
0.430469	1.678672
0.430566	1.679918
0.430664	1.681231
0.430762	1.682632
0.430859	1.684089
0.430957	1.685738
0.431055	1.687235
0.431152	1.689137
0.431250	1.690878
0.431348	1.693261
0.431445	1.695822
0.431543	1.697837
0.431641	1.696498
0.431738	1.699508
0.431836	1.700846
0.431934	1.700636
0.432031	1.702227
0.432129	1.703209
0.432227	1.704766
0.432324	1.705736
0.432422	1.706675
0.432520	1.707428
0.432617	1.707684
0.432715	1.707668
0.432812	1.708293
0.432910	1.708726
0.433008	1.709960
0.433105	1.711706
0.433203	1.714102
0.433301	1.716292
0.433398	1.717524
0.433496	1.718176
0.433594	1.719678
0.433691	1.721167
0.433789	1.723180
0.433887	1.724576
0.433984	1.726222
0.434082	1.726363
0.434180	1.726041
0.434277	1.725707
0.434375	1.727572
0.434473	1.730212
0.434570	1.735590
0.434668	1.742176
0.434766	1.742116
0.434863	1.736401
0.434961	1.737072
0.435059	1.730057
0.435156	1.729632
0.435254	1.727045
0.435352	1.703153
0.435449	1.697540
0.435547	1.688641
0.435645	1.692469
0.435742	1.707361
0.435840	1.714213
0.435937	1.705589
0.436035	1.693068
0.436133	1.671076
0.436230	1.666824
0.436328	1.654980
0.436426	1.623995
0.436523	1.613384
0.436621	1.596990
0.436719	1.643205
0.436816	1.681342
0.436914	1.669074
0.437012	1.643486
0.437109	1.648532
0.437207	1.649303
0.437305	1.646164
0.437402	1.658419
0.437500	1.659411
0.437598	1.650529
0.437695	1.658804
0.437793	1.657651
0.437891	1.656310
0.437988	1.649473
0.438086	1.641964
0.438184	1.637674
0.438281	1.634796
0.438379	1.632957
0.438477	1.631554
0.438574	1.630232
0.438672	1.629280
0.438770	1.628214
0.438867	1.627613
0.438965	1.627162
0.439062	1.627522
0.439160	1.627995
0.439258	1.629507
0.439355	1.630346
0.439453	1.632384
0.439551	1.633662
0.439648	1.643874
0.439746	1.651163
0.439844	1.637903
0.439941	1.634882
0.440039	1.633737
0.440137	1.632237
0.440234	1.630994
0.440332	1.630428
0.440430	1.630072
0.440527	1.630481
0.440625	1.631073
0.440723	1.632009
0.440820	1.632835
0.440918	1.633424
0.441016	1.634055
0.441113	1.634719
0.441211	1.635436
0.441309	1.636304
0.441406	1.637007
0.441504	1.637888
0.441602	1.638751
0.441699	1.639601
0.441797	1.640553
0.441895	1.641663
0.441992	1.642796
0.442090	1.644268
0.442187	1.645870
0.442285	1.647587
0.442383	1.649593
0.442480	1.651507
0.442578	1.653584
0.442676	1.655537
0.442773	1.657378
0.442871	1.659078
0.442969	1.660551
0.443066	1.662085
0.443164	1.663564
0.443262	1.665050
0.443359	1.666640
0.443457	1.668075
0.443555	1.669221
0.443652	1.670028
0.443750	1.670489
0.443848	1.670796
0.443945	1.670849
0.444043	1.671108
0.444141	1.671268
0.444238	1.671383
0.444336	1.671617
0.444434	1.671891
0.444531	1.672496
0.444629	1.673171
0.444727	1.674020
0.444824	1.674969
0.444922	1.675479
0.445020	1.675580
0.445117	1.675232
0.445215	1.674925
0.445312	1.674708
0.445410	1.674772
0.445508	1.675001
0.445605	1.675084
0.445703	1.674926
0.445801	1.674471
0.445898	1.673901
0.445996	1.673437
0.446094	1.673363
0.446191	1.673509
0.446289	1.673800
0.446387	1.674183
0.446484	1.674550
0.446582	1.675223
0.446680	1.675774
0.446777	1.676596
0.446875	1.677428
0.446973	1.678114
0.447070	1.678762
0.447168	1.679084
0.447266	1.679157
0.447363	1.678928
0.447461	1.678647
0.447559	1.678185
0.447656	1.677751
0.447754	1.677537
0.447852	1.677177
0.447949	1.677125
0.448047	1.676990
0.448145	1.677003
0.448242	1.677079
0.448340	1.677278
0.448437	1.677367
0.448535	1.677721
0.448633	1.678012
0.448730	1.678491
0.448828	1.678941
0.448926	1.679470
0.449023	1.680049
0.449121	1.681085
0.449219	1.681868
0.449316	1.683063
0.449414	1.684043
0.449512	1.685580
0.449609	1.686672
0.449707	1.688368
0.449805	1.689345
0.449902	1.691140
0.450000	1.691910
0.450098	1.693759
0.450195	1.694089
0.450293	1.696268
0.450391	1.696238
0.450488	1.699855
0.450586	1.700048
0.450684	1.709756
0.450781	1.699194
0.450879	1.701137
0.450977	1.704227
0.451074	1.697740
0.451172	1.696762
0.451270	1.698106
0.451367	1.699942
0.451465	1.706914
0.451562	1.702628
0.451660	1.700020
0.451758	1.691232
0.451855	1.697059
0.451953	1.715968
0.452051	1.694662
0.452148	1.689506
0.452246	1.703264
0.452344	1.700136
0.452441	1.697192
0.452539	1.695546
0.452637	1.693811
0.452734	1.690908
0.452832	1.687700
0.452930	1.687086
0.453027	1.687910
0.453125	1.688750
0.453223	1.689507
0.453320	1.686402
0.453418	1.682521
0.453516	1.682628
0.453613	1.679542
0.453711	1.675385
0.453809	1.664756
0.453906	1.668272
0.454004	1.677161
0.454102	1.689224
0.454199	1.692024
0.454297	1.687476
0.454395	1.681958
0.454492	1.679587
0.454590	1.681626
0.454687	1.677396
0.454785	1.676435
0.454883	1.676970
0.454980	1.676761
0.455078	1.676740
0.455176	1.674260
0.455273	1.673710
0.455371	1.671236
0.455469	1.671287
0.455566	1.671131
0.455664	1.675196
0.455762	1.672102
0.455859	1.680226
0.455957	1.678720
0.456055	1.653769
0.456152	1.644752
0.456250	1.649423
0.456348	1.646603
0.456445	1.642628
0.456543	1.649084
0.456641	1.650215
0.456738	1.652783
0.456836	1.653697
0.456934	1.655581
0.457031	1.656939
0.457129	1.658860
0.457227	1.661059
0.457324	1.663060
0.457422	1.666042
0.457520	1.668374
0.457617	1.671987
0.457715	1.672272
0.457812	1.675151
0.457910	1.678103
0.458008	1.679228
0.458105	1.680483
0.458203	1.682374
0.458301	1.659612
0.458398	1.628057
0.458496	1.642229
0.458594	1.608499
0.458691	1.609555
0.458789	1.619903
0.458887	1.642786
0.458984	1.615382
0.459082	1.612515
0.459180	1.621903
0.459277	1.626157
0.459375	1.622483
0.459473	1.626642
0.459570	1.618281
0.459668	1.638765
0.459766	1.659719
0.459863	1.673729
0.459961	1.675267
0.460059	1.660037
0.460156	1.661126
0.460254	1.657847
0.460352	1.658403
0.460449	1.656172
0.460547	1.656668
0.460645	1.655261
0.460742	1.655980
0.460840	1.655419
0.460937	1.655883
0.461035	1.655415
0.461133	1.655599
0.461230	1.655182
0.461328	1.655341
0.461426	1.655167
0.461523	1.655540
0.461621	1.655635
0.461719	1.656160
0.461816	1.656675
0.461914	1.657529
0.462012	1.658441
0.462109	1.659503
0.462207	1.660709
0.462305	1.661893
0.462402	1.663096
0.462500	1.664228
0.462598	1.665364
0.462695	1.666375
0.462793	1.667486
0.462891	1.668440
0.462988	1.669382
0.463086	1.670362
0.463184	1.671203
0.463281	1.672154
0.463379	1.673075
0.463477	1.674103
0.463574	1.675020
0.463672	1.676212
0.463770	1.677141
0.463867	1.678337
0.463965	1.679321
0.464062	1.680517
0.464160	1.681482
0.464258	1.682602
0.464355	1.683668
0.464453	1.685104
0.464551	1.686397
0.464648	1.687758
0.464746	1.689320
0.464844	1.692067
0.464941	1.694539
0.465039	1.699546
0.465137	1.698575
0.465234	1.694700
0.465332	1.693414
0.465430	1.691662
0.465527	1.689941
0.465625	1.689062
0.465723	1.689163
0.465820	1.689720
0.465918	1.690618
0.466016	1.690939
0.466113	1.691091
0.466211	1.691346
0.466309	1.691874
0.466406	1.692348
0.466504	1.693470
0.466602	1.695037
0.466699	1.696967
0.466797	1.698976
0.466895	1.700805
0.466992	1.699545
0.467090	1.694835
0.467187	1.689823
0.467285	1.689106
0.467383	1.690330
0.467480	1.692467
0.467578	1.690018
0.467676	1.693174
0.467773	1.691802
0.467871	1.688395
0.467969	1.688597
0.468066	1.686625
0.468164	1.686796
0.468262	1.685148
0.468359	1.684668
0.468457	1.683697
0.468555	1.683467
0.468652	1.682313
0.468750	1.681429
0.468848	1.679988
0.468945	1.679431
0.469043	1.678427
0.469141	1.678267
0.469238	1.677380
0.469336	1.677550
0.469434	1.676780
0.469531	1.678155
0.469629	1.677697
0.469727	1.681039
0.469824	1.679495
0.469922	1.669296
0.470020	1.674678
0.470117	1.677005
0.470215	1.678706
0.470312	1.672525
0.470410	1.673208
0.470508	1.682197
0.470605	1.691375
0.470703	1.700202
0.470801	1.705199
0.470898	1.699475
0.470996	1.697539
0.471094	1.694915
0.471191	1.700127
0.471289	1.695471
0.471387	1.697105
0.471484	1.703339
0.471582	1.696888
0.471680	1.697054
0.471777	1.685755
0.471875	1.669009
0.471973	1.648855
0.472070	1.641167
0.472168	1.637097
0.472266	1.650209
0.472363	1.684730
0.472461	1.696430
0.472559	1.674172
0.472656	1.647244
0.472754	1.591613
0.472852	1.552785
0.472949	1.544011
0.473047	1.533836
0.473145	1.599317
0.473242	1.656917
0.473340	1.644722
0.473437	1.648219
0.473535	1.656995
0.473633	1.648270
0.473730	1.642274
0.473828	1.655236
0.473926	1.678570
0.474023	1.669949
0.474121	1.660168
0.474219	1.642357
0.474316	1.629390
0.474414	1.635335
0.474512	1.598053
0.474609	1.597987
0.474707	1.631860
0.474805	1.636863
0.474902	1.639056
0.475000	1.638625
0.475098	1.639694
0.475195	1.639589
0.475293	1.640605
0.475391	1.640942
0.475488	1.642031
0.475586	1.642684
0.475684	1.643584
0.475781	1.644395
0.475879	1.645285
0.475977	1.645950
0.476074	1.646766
0.476172	1.647332
0.476270	1.648098
0.476367	1.648816
0.476465	1.649469
0.476562	1.650179
0.476660	1.650988
0.476758	1.651682
0.476855	1.652473
0.476953	1.653185
0.477051	1.654214
0.477148	1.655097
0.477246	1.656235
0.477344	1.657370
0.477441	1.658423
0.477539	1.659448
0.477637	1.660498
0.477734	1.661323
0.477832	1.662468
0.477930	1.663782
0.478027	1.664269
0.478125	1.664593
0.478223	1.665116
0.478320	1.665947
0.478418	1.666744
0.478516	1.667605
0.478613	1.668231
0.478711	1.668912
0.478809	1.669451
0.478906	1.669919
0.479004	1.670283
0.479102	1.670661
0.479199	1.671002
0.479297	1.671462
0.479395	1.671855
0.479492	1.672380
0.479590	1.672990
0.479687	1.673635
0.479785	1.674354
0.479883	1.675297
0.479980	1.676358
0.480078	1.677193
0.480176	1.678089
0.480273	1.678907
0.480371	1.679822
0.480469	1.680689
0.480566	1.681494
0.480664	1.682446
0.480762	1.683323
0.480859	1.684368
0.480957	1.685128
0.481055	1.685612
0.481152	1.685731
0.481250	1.685150
0.481348	1.684710
0.481445	1.684051
0.481543	1.683932
0.481641	1.684263
0.481738	1.686200
0.481836	1.685811
0.481934	1.684533
0.482031	1.684627
0.482129	1.684049
0.482227	1.684235
0.482324	1.684622
0.482422	1.686754
0.482520	1.688561
0.482617	1.689198
0.482715	1.686346
0.482812	1.685601
0.482910	1.686238
0.483008	1.693320
0.483105	1.695866
0.483203	1.679886
0.483301	1.667648
0.483398	1.682701
0.483496	1.675613
0.483594	1.670103
0.483691	1.677984
0.483789	1.678401
0.483887	1.680851
0.483984	1.682853
0.484082	1.687964
0.484180	1.687733
0.484277	1.678135
0.484375	1.681638
0.484473	1.686739
0.484570	1.682217
0.484668	1.679164
0.484766	1.676738
0.484863	1.675666
0.484961	1.674472
0.485059	1.673927
0.485156	1.673324
0.485254	1.672674
0.485352	1.671937
0.485449	1.671190
0.485547	1.670711
0.485645	1.670487
0.485742	1.671472
0.485840	1.672773
0.485937	1.675879
0.486035	1.676889
0.486133	1.676528
0.486230	1.674442
0.486328	1.678745
0.486426	1.677942
0.486523	1.670804
0.486621	1.645964
0.486719	1.650627
0.486816	1.629847
0.486914	1.684180
0.487012	1.727334
0.487109	1.703243
0.487207	1.703596
0.487305	1.678975
0.487402	1.684717
0.487500	1.690324
0.487598	1.679764
0.487695	1.647474
0.487793	1.653804
0.487891	1.653757
0.487988	1.619312
0.488086	1.606609
0.488184	1.605929
0.488281	1.649799
0.488379	1.652693
0.488477	1.654585
0.488574	1.653642
0.488672	1.661298
0.488770	1.665883
0.488867	1.670782
0.488965	1.659804
0.489062	1.639809
0.489160	1.646660
0.489258	1.653788
0.489355	1.654634
0.489453	1.655069
0.489551	1.654826
0.489648	1.654907
0.489746	1.654564
0.489844	1.654430
0.489941	1.654373
0.490039	1.654141
0.490137	1.654060
0.490234	1.653823
0.490332	1.653946
0.490430	1.654191
0.490527	1.654575
0.490625	1.655075
0.490723	1.655731
0.490820	1.656280
0.490918	1.657248
0.491016	1.658150
0.491113	1.659167
0.491211	1.660213
0.491309	1.661367
0.491406	1.662489
0.491504	1.663566
0.491602	1.664647
0.491699	1.665678
0.491797	1.666744
0.491895	1.667864
0.491992	1.669136
0.492090	1.670475
0.492187	1.672112
0.492285	1.673761
0.492383	1.675438
0.492480	1.676861
0.492578	1.677808
0.492676	1.678409
0.492773	1.679015
0.492871	1.679442
0.492969	1.679974
0.493066	1.680497
0.493164	1.680976
0.493262	1.681354
0.493359	1.681673
0.493457	1.681959
0.493555	1.682225
0.493652	1.682488
0.493750	1.682799
0.493848	1.683168
0.493945	1.683753
0.494043	1.684292
0.494141	1.685009
0.494238	1.685748
0.494336	1.686604
0.494434	1.687464
0.494531	1.688305
0.494629	1.689311
0.494727	1.690133
0.494824	1.690987
0.494922	1.691654
0.495020	1.692484
0.495117	1.693251
0.495215	1.693927
0.495312	1.694482
0.495410	1.695081
0.495508	1.695656
0.495605	1.696374
0.495703	1.697249
0.495801	1.697611
0.495898	1.695458
0.495996	1.692576
0.496094	1.690557
0.496191	1.689493
0.496289	1.689213
0.496387	1.691348
0.496484	1.693929
0.496582	1.692235
0.496680	1.698305
0.496777	1.698610
0.496875	1.698649
0.496973	1.703080
0.497070	1.705063
0.497168	1.708269
0.497266	1.706106
0.497363	1.703179
0.497461	1.697291
0.497559	1.696668
0.497656	1.693395
0.497754	1.695330
0.497852	1.690923
0.497949	1.691650
0.498047	1.667638
0.498145	1.664017
0.498242	1.661999
0.498340	1.668178
0.498437	1.679415
0.498535	1.670424
0.498633	1.674925
0.498730	1.670078
0.498828	1.686133
0.498926	1.671469
0.499023	1.667071
0.499121	1.652343
0.499219	1.650405
0.499316	1.654633
0.499414	1.646308
0.499512	1.632936
0.499609	1.607233
0.499707	1.584639
0.499805	1.557875
0.499902	1.517341
0.500000	1.492485
0.500098	1.462783
0.500195	1.460126
0.500293	1.516812
0.500391	1.558420
0.500488	1.573284
0.500586	1.576424
0.500684	1.589597
0.500781	1.599213
0.500879	1.575327
0.500977	1.599368
0.501074	1.642463
0.501172	1.621096
0.501270	1.623700
0.501367	1.632293
0.501465	1.631110
0.501562	1.632167
0.501660	1.631103
0.501758	1.634564
0.501855	1.630968
0.501953	1.634246
0.502051	1.638806
0.502148	1.628640
0.502246	1.647594
0.502344	1.652043
0.502441	1.647506
0.502539	1.650899
0.502637	1.657688
0.502734	1.666452
0.502832	1.667322
0.502930	1.665997
0.503027	1.665936
0.503125	1.665756
0.503223	1.665810
0.503320	1.665830
0.503418	1.666741
0.503516	1.667572
0.503613	1.668687
0.503711	1.669296
0.503809	1.670571
0.503906	1.671266
0.504004	1.672005
0.504102	1.668452
0.504199	1.672245
0.504297	1.681958
0.504395	1.681994
0.504492	1.685250
0.504590	1.680221
0.504687	1.678513
0.504785	1.681319
0.504883	1.681331
0.504980	1.683230
0.505078	1.684053
0.505176	1.685912
0.505273	1.685771
0.505371	1.686450
0.505469	1.687310
0.505566	1.694650
0.505664	1.700196
0.505762	1.701462
0.505859	1.680076
0.505957	1.663746
0.506055	1.649733
0.506152	1.622101
0.506250	1.604118
0.506348	1.638236
0.506445	1.671524
0.506543	1.687078
0.506641	1.648982
0.506738	1.640504
0.506836	1.607353
0.506934	1.564466
0.507031	1.555921
0.507129	1.556025
0.507227	1.567184
0.507324	1.570333
0.507422	1.603993
0.507520	1.614289
0.507617	1.621312
0.507715	1.640240
0.507812	1.664634
0.507910	1.677235
0.508008	1.674463
0.508105	1.644462
0.508203	1.640072
0.508301	1.645770
0.508398	1.653278
0.508496	1.689343
0.508594	1.683111
0.508691	1.677871
0.508789	1.663921
0.508887	1.660559
0.508984	1.669366
0.509082	1.689404
0.509180	1.690724
0.509277	1.690919
0.509375	1.692949
0.509473	1.695450
0.509570	1.692027
0.509668	1.690720
0.509766	1.689215
0.509863	1.691457
0.509961	1.691056
0.510059	1.697895
0.510156	1.675306
0.510254	1.666234
0.510352	1.680108
0.510449	1.677709
0.510547	1.672732
0.510645	1.635213
0.510742	1.632993
0.510840	1.654053
0.510937	1.638844
0.511035	1.644994
0.511133	1.650361
0.511230	1.652903
0.511328	1.652708
0.511426	1.653420
0.511523	1.653068
0.511621	1.653516
0.511719	1.653458
0.511816	1.653879
0.511914	1.653657
0.512012	1.653957
0.512109	1.653688
0.512207	1.653885
0.512305	1.653634
0.512402	1.653764
0.512500	1.653557
0.512598	1.653512
0.512695	1.653374
0.512793	1.653334
0.512891	1.653193
0.512988	1.653126
0.513086	1.653082
0.513184	1.653036
0.513281	1.653050
0.513379	1.653077
0.513477	1.653163
0.513574	1.653336
0.513672	1.653399
0.513770	1.653750
0.513867	1.654029
0.513965	1.654470
0.514062	1.654990
0.514160	1.655609
0.514258	1.656441
0.514355	1.657481
0.514453	1.658608
0.514551	1.660006
0.514648	1.661719
0.514746	1.663492
0.514844	1.665569
0.514941	1.667721
0.515039	1.669936
0.515137	1.672285
0.515234	1.674481
0.515332	1.676570
0.515430	1.678538
0.515527	1.680535
0.515625	1.682773
0.515723	1.686184
0.515820	1.691480
0.515918	1.699723
0.516016	1.705434
0.516113	1.707693
0.516211	1.709549
0.516309	1.709327
0.516406	1.708256
0.516504	1.711780
0.516602	1.713984
0.516699	1.715206
0.516797	1.717765
0.516895	1.721270
0.516992	1.718518
0.517090	1.715278
0.517187	1.715632
0.517285	1.722066
0.517383	1.713643
0.517480	1.720192
0.517578	1.730004
0.517676	1.723349
0.517773	1.697556
0.517871	1.711876
0.517969	1.726311
0.518066	1.732763
0.518164	1.720697
0.518262	1.719144
0.518359	1.685545
0.518457	1.682052
0.518555	1.683613
0.518652	1.683345
0.518750	1.684029
0.518848	1.674529
0.518945	1.658380
0.519043	1.651353
0.519141	1.654954
0.519238	1.660935
0.519336	1.660083
0.519434	1.674847
0.519531	1.685680
0.519629	1.685973
0.519727	1.678294
0.519824	1.669977
0.519922	1.685345
0.520020	1.698344
0.520117	1.689236
0.520215	1.688493
0.520312	1.687171
0.520410	1.683860
0.520508	1.678528
0.520605	1.671597
0.520703	1.667876
0.520801	1.666387
0.520898	1.667252
0.520996	1.668670
0.521094	1.670288
0.521191	1.671346
0.521289	1.672570
0.521387	1.673646
0.521484	1.674897
0.521582	1.676179
0.521680	1.677926
0.521777	1.680290
0.521875	1.683096
0.521973	1.685580
0.522070	1.686166
0.522168	1.684722
0.522266	1.682363
0.522363	1.680768
0.522461	1.680418
0.522559	1.680747
0.522656	1.681305
0.522754	1.681536
0.522852	1.681392
0.522949	1.680772
0.523047	1.680190
0.523145	1.679523
0.523242	1.678634
0.523340	1.677340
0.523437	1.676049
0.523535	1.675251
0.523633	1.674838
0.523730	1.674795
0.523828	1.675133
0.523926	1.675638
0.524023	1.676234
0.524121	1.676711
0.524219	1.677016
0.524316	1.676968
0.524414	1.676708
0.524512	1.676400
0.524609	1.676056
0.524707	1.675659
0.524805	1.675342
0.524902	1.675060
0.525000	1.674903
0.525098	1.674913
0.525195	1.674986
0.525293	1.675227
0.525391	1.675562
0.525488	1.675957
0.525586	1.676337
0.525684	1.676632
0.525781	1.676808
0.525879	1.677202
0.525977	1.677781
0.526074	1.678512
0.526172	1.679420
0.526270	1.680448
0.526367	1.681676
0.526465	1.683001
0.526562	1.684379
0.526660	1.685603
0.526758	1.686322
0.526855	1.686909
0.526953	1.687853
0.527051	1.689682
0.527148	1.691197
0.527246	1.689854
0.527344	1.685617
0.527441	1.690019
0.527539	1.707425
0.527637	1.704228
0.527734	1.704235
0.527832	1.713177
0.527930	1.709143
0.528027	1.678758
0.528125	1.698262
0.528223	1.694353
0.528320	1.689269
0.528418	1.686874
0.528516	1.692704
0.528613	1.685292
0.528711	1.678819
0.528809	1.675858
0.528906	1.682491
0.529004	1.677873
0.529102	1.665340
0.529199	1.666108
0.529297	1.665225
0.529395	1.665126
0.529492	1.664227
0.529590	1.664210
0.529687	1.663894
0.529785	1.664140
0.529883	1.664184
0.529980	1.664468
0.530078	1.664279
0.530176	1.664369
0.530273	1.664057
0.530371	1.664094
0.530469	1.663738
0.530566	1.663679
0.530664	1.663371
0.530762	1.663430
0.530859	1.663403
0.530957	1.663510
0.531055	1.663651
0.531152	1.663990
0.531250	1.664218
0.531348	1.664778
0.531445	1.665354
0.531543	1.666151
0.531641	1.666830
0.531738	1.667681
0.531836	1.668566
0.531934	1.669436
0.532031	1.670481
0.532129	1.671359
0.532227	1.672355
0.532324	1.673325
0.532422	1.674196
0.532520	1.674962
0.532617	1.675608
0.532715	1.676085
0.532812	1.676361
0.532910	1.676566
0.533008	1.676682
0.533105	1.676733
0.533203	1.676658
0.533301	1.676670
0.533398	1.676614
0.533496	1.676607
0.533594	1.676641
0.533691	1.676886
0.533789	1.677199
0.533887	1.677749
0.533984	1.678578
0.534082	1.679666
0.534180	1.681080
0.534277	1.682554
0.534375	1.684326
0.534473	1.685752
0.534570	1.686631
0.534668	1.687281
0.534766	1.687982
0.534863	1.687407
0.534961	1.689906
0.535059	1.692574
0.535156	1.692946
0.535254	1.694106
0.535352	1.694494
0.535449	1.694029
0.535547	1.693431
0.535645	1.692466
0.535742	1.691311
0.535840	1.690268
0.535937	1.689490
0.536035	1.688948
0.536133	1.688732
0.536230	1.688651
0.536328	1.688774
0.536426	1.689118
0.536523	1.689531
0.536621	1.690160
0.536719	1.690225
0.536816	1.689846
0.536914	1.689769
0.537012	1.689791
0.537109	1.689731
0.537207	1.689444
0.537305	1.688791
0.537402	1.688113
0.537500	1.687621
0.537598	1.687513
0.537695	1.687971
0.537793	1.688808
0.537891	1.689912
0.537988	1.690817
0.538086	1.691308
0.538184	1.691460
0.538281	1.691077
0.538379	1.690599
0.538477	1.690034
0.538574	1.689797
0.538672	1.689412
0.538770	1.688909
0.538867	1.688102
0.538965	1.687156
0.539062	1.686199
0.539160	1.685426
0.539258	1.684515
0.539355	1.683916
0.539453	1.683474
0.539551	1.684558
0.539648	1.684398
0.539746	1.685220
0.539844	1.684951
0.539941	1.685589
0.540039	1.682812
0.540137	1.682003
0.540234	1.677844
0.540332	1.684877
0.540430	1.687241
0.540527	1.679316
0.540625	1.677984
0.540723	1.679008
0.540820	1.680378
0.540918	1.683079
0.541016	1.681448
0.541113	1.673258
0.541211	1.682381
0.541309	1.680125
0.541406	1.672203
0.541504	1.671457
0.541602	1.671725
0.541699	1.669162
0.541797	1.668556
0.541895	1.668677
0.541992	1.669902
0.542090	1.671508
0.542187	1.674586
0.542285	1.679485
0.542383	1.686989
0.542480	1.691460
0.542578	1.680126
0.542676	1.675989
0.542773	1.671889
0.542871	1.651465
0.542969	1.635618
0.543066	1.626651
0.543164	1.638150
0.543262	1.637134
0.543359	1.636276
0.543457	1.651875
0.543555	1.667203
0.543652	1.673887
0.543750	1.665936
0.543848	1.663103
0.543945	1.662100
0.544043	1.662289
0.544141	1.661658
0.544238	1.662666
0.544336	1.662711
0.544434	1.666358
0.544531	1.666169
0.544629	1.665604
0.544727	1.669514
0.544824	1.662118
0.544922	1.667002
0.545020	1.667611
0.545117	1.670270
0.545215	1.670918
0.545312	1.672400
0.545410	1.671658
0.545508	1.670996
0.545605	1.670005
0.545703	1.669886
0.545801	1.669625
0.545898	1.669798
0.545996	1.669655
0.546094	1.669829
0.546191	1.669767
0.546289	1.669877
0.546387	1.669871
0.546484	1.670058
0.546582	1.670081
0.546680	1.670285
0.546777	1.670515
0.546875	1.670636
0.546973	1.670873
0.547070	1.671065
0.547168	1.671228
0.547266	1.671329
0.547363	1.671446
0.547461	1.671781
0.547559	1.672236
0.547656	1.672702
0.547754	1.673133
0.547852	1.673483
0.547949	1.673892
0.548047	1.674194
0.548145	1.674564
0.548242	1.674798
0.548340	1.675076
0.548437	1.675520
0.548535	1.675892
0.548633	1.676255
0.548730	1.676591
0.548828	1.676933
0.548926	1.677193
0.549023	1.677481
0.549121	1.677724
0.549219	1.678174
0.549316	1.678515
0.549414	1.679131
0.549512	1.679632
0.549609	1.680409
0.549707	1.681126
0.549805	1.681986
0.549902	1.682984
0.550000	1.684126
0.550098	1.685267
0.550195	1.686474
0.550293	1.687792
0.550391	1.689384
0.550488	1.691024
0.550586	1.693109
0.550684	1.695256
0.550781	1.697943
0.550879	1.698427
0.550977	1.695670
0.551074	1.692487
0.551172	1.682422
0.551270	1.681757
0.551367	1.697954
0.551465	1.703752
0.551562	1.704535
0.551660	1.701778
0.551758	1.702639
0.551855	1.698079
0.551953	1.693088
0.552051	1.694986
0.552148	1.696305
0.552246	1.697870
0.552344	1.698998
0.552441	1.700160
0.552539	1.700253
0.552637	1.699979
0.552734	1.697991
0.552832	1.694257
0.552930	1.690227
0.553027	1.686809
0.553125	1.683503
0.553223	1.680711
0.553320	1.678208
0.553418	1.676303
0.553516	1.674645
0.553613	1.673294
0.553711	1.671942
0.553809	1.670670
0.553906	1.669596
0.554004	1.668715
0.554102	1.667995
0.554199	1.667456
0.554297	1.667162
0.554395	1.666836
0.554492	1.666643
0.554590	1.666364
0.554687	1.666118
0.554785	1.665748
0.554883	1.665268
0.554980	1.664624
0.555078	1.663946
0.555176	1.663264
0.555273	1.662548
0.555371	1.662031
0.555469	1.661558
0.555566	1.661099
0.555664	1.660822
0.555762	1.660624
0.555859	1.660462
0.555957	1.660311
0.556055	1.660250
0.556152	1.660250
0.556250	1.660426
0.556348	1.660750
0.556445	1.661285
0.556543	1.661739
0.556641	1.662196
0.556738	1.662455
0.556836	1.662483
0.556934	1.662408
0.557031	1.662563
0.557129	1.662855
0.557227	1.663362
0.557324	1.664014
0.557422	1.665030
0.557520	1.665921
0.557617	1.666977
0.557715	1.667643
0.557812	1.668333
0.557910	1.668366
0.558008	1.669063
0.558105	1.668951
0.558203	1.670517
0.558301	1.672190
0.558398	1.674790
0.558496	1.675353
0.558594	1.676173
0.558691	1.674487
0.558789	1.675973
0.558887	1.673238
0.558984	1.696623
0.559082	1.697260
0.559180	1.705770
0.559277	1.712112
0.559375	1.698225
0.559473	1.691847
0.559570	1.701062
0.559668	1.708181
0.559766	1.709281
0.559863	1.690726
0.559961	1.682823
0.560059	1.683651
0.560156	1.686170
0.560254	1.691000
0.560352	1.693271
0.560449	1.694823
0.560547	1.702196
0.560645	1.703770
0.560742	1.676481
0.560840	1.682789
0.560937	1.719902
0.561035	1.718706
0.561133	1.708995
0.561230	1.730192
0.561328	1.720359
0.561426	1.729595
0.561523	1.737427
0.561621	1.737849
0.561719	1.713494
0.561816	1.714479
0.561914	1.716305
0.562012	1.708688
0.562109	1.689209
0.562207	1.664358
0.562305	1.616687
0.562402	1.596516
0.562500	1.624515
0.562598	1.666284
0.562695	1.661266
0.562793	1.673213
0.562891	1.688537
0.562988	1.697350
0.563086	1.688296
0.563184	1.672760
0.563281	1.691112
0.563379	1.691053
0.563477	1.683814
0.563574	1.661783
0.563672	1.643386
0.563770	1.630069
0.563867	1.636985
0.563965	1.664386
0.564062	1.641771
0.564160	1.620519
0.564258	1.619809
0.564355	1.619901
0.564453	1.631340
0.564551	1.642291
0.564648	1.643124
0.564746	1.624456
0.564844	1.614583
0.564941	1.625705
0.565039	1.631821
0.565137	1.626074
0.565234	1.630465
0.565332	1.622563
0.565430	1.621511
0.565527	1.636846
0.565625	1.635834
0.565723	1.652566
0.565820	1.649339
0.565918	1.663456
0.566016	1.655778
0.566113	1.648974
0.566211	1.646757
0.566309	1.655316
0.566406	1.671543
0.566504	1.670058
0.566602	1.678759
0.566699	1.676753
0.566797	1.694322
0.566895	1.691236
0.566992	1.678213
0.567090	1.674166
0.567187	1.668743
0.567285	1.663852
0.567383	1.661061
0.567480	1.658729
0.567578	1.656914
0.567676	1.655351
0.567773	1.653962
0.567871	1.652805
0.567969	1.652213
0.568066	1.651978
0.568164	1.652154
0.568262	1.652804
0.568359	1.653901
0.568457	1.655439
0.568555	1.657489
0.568652	1.660158
0.568750	1.663453
0.568848	1.667152
0.568945	1.671336
0.569043	1.674053
0.569141	1.671825
0.569238	1.664606
0.569336	1.664535
0.569434	1.668905
0.569531	1.670497
0.569629	1.670464
0.569727	1.669653
0.569824	1.668876
0.569922	1.668264
0.570020	1.667916
0.570117	1.667785
0.570215	1.667906
0.570312	1.668294
0.570410	1.668712
0.570508	1.669329
0.570605	1.670086
0.570703	1.670753
0.570801	1.671558
0.570898	1.672522
0.570996	1.673405
0.571094	1.674477
0.571191	1.675247
0.571289	1.676295
0.571387	1.677004
0.571484	1.678152
0.571582	1.678853
0.571680	1.680129
0.571777	1.680826
0.571875	1.682302
0.571973	1.681706
0.572070	1.679742
0.572168	1.676404
0.572266	1.671727
0.572363	1.678783
0.572461	1.680585
0.572559	1.680723
0.572656	1.680029
0.572754	1.676918
0.572852	1.673572
0.572949	1.673180
0.573047	1.673051
0.573145	1.674012
0.573242	1.674041
0.573340	1.675050
0.573437	1.675107
0.573535	1.676564
0.573633	1.676835
0.573730	1.679224
0.573828	1.680007
0.573926	1.686086
0.574023	1.691270
0.574121	1.707777
0.574219	1.708554
0.574316	1.700700
0.574414	1.691097
0.574512	1.673109
0.574609	1.655362
0.574707	1.649779
0.574805	1.638509
0.574902	1.631774
0.575000	1.634983
0.575098	1.639470
0.575195	1.629465
0.575293	1.639104
0.575391	1.654508
0.575488	1.677456
0.575586	1.693253
0.575684	1.682051
0.575781	1.681615
0.575879	1.678962
0.575977	1.679414
0.576074	1.676887
0.576172	1.676419
0.576270	1.674575
0.576367	1.674866
0.576465	1.674426
0.576562	1.675409
0.576660	1.676033
0.576758	1.677610
0.576855	1.678797
0.576953	1.680544
0.577051	1.682127
0.577148	1.684024
0.577246	1.685728
0.577344	1.687418
0.577441	1.688678
0.577539	1.689614
0.577637	1.689998
0.577734	1.690176
0.577832	1.689671
0.577930	1.689062
0.578027	1.688051
0.578125	1.687521
0.578223	1.687457
0.578320	1.687953
0.578418	1.685529
0.578516	1.691521
0.578613	1.694920
0.578711	1.695339
0.578809	1.695745
0.578906	1.692378
0.579004	1.693237
0.579102	1.692957
0.579199	1.693258
0.579297	1.690898
0.579395	1.689236
0.579492	1.686394
0.579590	1.683831
0.579687	1.681422
0.579785	1.681766
0.579883	1.681828
0.579980	1.683980
0.580078	1.685857
0.580176	1.692205
0.580273	1.693188
0.580371	1.690744
0.580469	1.670007
0.580566	1.675870
0.580664	1.690893
0.580762	1.711226
0.580859	1.710150
0.580957	1.700614
0.581055	1.703040
0.581152	1.699613
0.581250	1.696332
0.581348	1.680395
0.581445	1.687873
0.581543	1.697152
0.581641	1.691348
0.581738	1.690485
0.581836	1.687920
0.581934	1.685977
0.582031	1.674080
0.582129	1.664351
0.582227	1.661338
0.582324	1.615067
0.582422	1.632333
0.582520	1.653039
0.582617	1.647213
0.582715	1.671747
0.582812	1.650773
0.582910	1.658816
0.583008	1.643559
0.583105	1.645178
0.583203	1.669393
0.583301	1.670223
0.583398	1.686904
0.583496	1.689387
0.583594	1.678069
0.583691	1.672212
0.583789	1.668762
0.583887	1.670382
0.583984	1.674086
0.584082	1.686609
0.584180	1.697853
0.584277	1.701375
0.584375	1.677568
0.584473	1.670198
0.584570	1.670526
0.584668	1.666159
0.584766	1.664353
0.584863	1.662507
0.584961	1.662282
0.585059	1.661565
0.585156	1.660220
0.585254	1.655461
0.585352	1.647314
0.585449	1.626683
0.585547	1.604024
0.585645	1.615560
0.585742	1.670725
0.585840	1.676248
0.585937	1.642563
0.586035	1.664714
0.586133	1.691799
0.586230	1.677508
0.586328	1.648470
0.586426	1.653325
0.586523	1.681150
0.586621	1.642268
0.586719	1.628389
0.586816	1.639298
0.586914	1.617520
0.587012	1.614898
0.587109	1.634284
0.587207	1.646987
0.587305	1.648932
0.587402	1.638069
0.587500	1.645567
0.587598	1.641597
0.587695	1.626248
0.587793	1.638635
0.587891	1.648683
0.587988	1.655615
0.588086	1.654613
0.588184	1.657633
0.588281	1.654375
0.588379	1.655226
0.588477	1.656769
0.588574	1.658566
0.588672	1.659017
0.588770	1.659602
0.588867	1.659703
0.588965	1.660368
0.589062	1.660460
0.589160	1.659712
0.589258	1.658202
0.589355	1.657765
0.589453	1.658298
0.589551	1.659101
0.589648	1.659666
0.589746	1.659845
0.589844	1.660093
0.589941	1.660288
0.590039	1.660418
0.590137	1.660513
0.590234	1.660717
0.590332	1.661201
0.590430	1.661528
0.590527	1.662078
0.590625	1.662614
0.590723	1.663257
0.590820	1.663729
0.590918	1.664397
0.591016	1.664906
0.591113	1.665476
0.591211	1.666104
0.591309	1.666705
0.591406	1.667333
0.591504	1.668008
0.591602	1.668538
0.591699	1.669127
0.591797	1.669647
0.591895	1.670144
0.591992	1.670357
0.592090	1.670540
0.592187	1.670612
0.592285	1.670636
0.592383	1.670511
0.592480	1.670282
0.592578	1.670027
0.592676	1.669689
0.592773	1.669396
0.592871	1.669102
0.592969	1.668870
0.593066	1.668753
0.593164	1.668828
0.593262	1.669095
0.593359	1.669534
0.593457	1.670295
0.593555	1.671525
0.593652	1.673183
0.593750	1.675452
0.593848	1.678487
0.593945	1.683000
0.594043	1.684358
0.594141	1.685731
0.594238	1.691333
0.594336	1.692308
0.594434	1.688119
0.594531	1.683303
0.594629	1.681798
0.594727	1.670340
0.594824	1.657956
0.594922	1.644722
0.595020	1.637050
0.595117	1.643137
0.595215	1.644154
0.595312	1.617821
0.595410	1.590185
0.595508	1.613622
0.595605	1.624982
0.595703	1.647745
0.595801	1.654449
0.595898	1.644273
0.595996	1.638923
0.596094	1.614555
0.596191	1.592745
0.596289	1.591185
0.596387	1.612079
0.596484	1.639317
0.596582	1.655047
0.596680	1.662566
0.596777	1.663901
0.596875	1.664709
0.596973	1.674254
0.597070	1.682947
0.597168	1.695491
0.597266	1.718642
0.597363	1.717239
0.597461	1.707104
0.597559	1.708843
0.597656	1.714172
0.597754	1.718387
0.597852	1.716106
0.597949	1.711209
0.598047	1.708730
0.598145	1.704548
0.598242	1.705948
0.598340	1.704289
0.598437	1.714608
0.598535	1.710767
0.598633	1.715642
0.598730	1.700627
0.598828	1.675950
0.598926	1.680280
0.599023	1.699203
0.599121	1.694292
0.599219	1.657609
0.599316	1.654834
0.599414	1.655491
0.599512	1.668754
0.599609	1.669266
0.599707	1.667995
0.599805	1.679165
0.599902	1.681643
0.600000	1.687542
0.600098	1.679658
0.600195	1.670750
0.600293	1.664779
0.600391	1.656816
0.600488	1.636237
0.600586	1.612747
0.600684	1.610203
0.600781	1.607755
0.600879	1.581107
0.600977	1.604243
0.601074	1.651562
0.601172	1.657697
0.601270	1.689194
0.601367	1.671811
0.601465	1.654773
0.601562	1.665309
0.601660	1.669476
0.601758	1.674118
0.601855	1.680824
0.601953	1.684970
0.602051	1.691453
0.602148	1.697063
0.602246	1.712057
0.602344	1.736701
0.602441	1.735212
0.602539	1.717602
0.602637	1.696343
0.602734	1.689539
0.602832	1.690486
0.602930	1.696052
0.603027	1.704702
0.603125	1.712651
0.603223	1.716396
0.603320	1.683986
0.603418	1.659992
0.603516	1.671110
0.603613	1.665030
0.603711	1.665025
0.603809	1.661801
0.603906	1.662478
0.604004	1.661367
0.604102	1.662923
0.604199	1.663427
0.604297	1.665764
0.604395	1.667299
0.604492	1.669858
0.604590	1.672007
0.604687	1.675082
0.604785	1.677702
0.604883	1.680245
0.604980	1.682326
0.605078	1.684617
0.605176	1.686270
0.605273	1.686080
0.605371	1.683763
0.605469	1.680861
0.605566	1.678113
0.605664	1.676225
0.605762	1.675537
0.605859	1.675782
0.605957	1.676567
0.606055	1.677554
0.606152	1.679218
0.606250	1.681026
0.606348	1.683575
0.606445	1.685566
0.606543	1.687537
0.606641	1.688116
0.606738	1.689313
0.606836	1.689420
0.606934	1.691596
0.607031	1.691125
0.607129	1.692116
0.607227	1.697163
0.607324	1.698503
0.607422	1.705395
0.607520	1.682729
0.607617	1.652023
0.607715	1.661781
0.607812	1.674017
0.607910	1.677527
0.608008	1.677535
0.608105	1.668582
0.608203	1.691970
0.608301	1.689475
0.608398	1.690116
0.608496	1.688552
0.608594	1.689237
0.608691	1.686051
0.608789	1.684904
0.608887	1.682953
0.608984	1.683582
0.609082	1.682709
0.609180	1.684277
0.609277	1.683554
0.609375	1.677638
0.609473	1.675923
0.609570	1.674556
0.609668	1.662221
0.609766	1.650365
0.609863	1.662168
0.609961	1.673429
0.610059	1.659791
0.610156	1.639652
0.610254	1.652752
0.610352	1.673971
0.610449	1.694836
0.610547	1.693317
0.610645	1.695599
0.610742	1.695847
0.610840	1.699322
0.610937	1.690442
0.611035	1.685518
0.611133	1.676996
0.611230	1.676196
0.611328	1.658540
0.611426	1.626419
0.611523	1.635472
0.611621	1.664746
0.611719	1.629106
0.611816	1.621938
0.611914	1.618348
0.612012	1.583596
0.612109	1.585607
0.612207	1.608384
0.612305	1.590567
0.612402	1.648263
0.612500	1.670944
0.612598	1.666914
0.612695	1.680802
0.612793	1.683424
0.612891	1.689721
0.612988	1.689860
0.613086	1.693382
0.613184	1.693982
0.613281	1.696648
0.613379	1.693651
0.613477	1.691982
0.613574	1.686785
0.613672	1.683991
0.613770	1.638640
0.613867	1.642385
0.613965	1.658215
0.614062	1.659143
0.614160	1.669924
0.614258	1.697540
0.614355	1.691697
0.614453	1.664139
0.614551	1.652243
0.614648	1.640403
0.614746	1.632701
0.614844	1.644733
0.614941	1.679918
0.615039	1.688788
0.615137	1.687110
0.615234	1.675932
0.615332	1.685748
0.615430	1.691868
0.615527	1.681500
0.615625	1.682731
0.615723	1.694361
0.615820	1.694195
0.615918	1.692838
0.616016	1.668772
0.616113	1.663249
0.616211	1.666893
0.616309	1.680782
0.616406	1.675622
0.616504	1.682983
0.616602	1.688968
0.616699	1.673433
0.616797	1.681078
0.616895	1.672079
0.616992	1.641328
0.617090	1.610341
0.617187	1.662992
0.617285	1.666195
0.617383	1.669800
0.617480	1.671065
0.617578	1.679749
0.617676	1.674402
0.617773	1.662113
0.617871	1.654206
0.617969	1.653331
0.618066	1.646408
0.618164	1.652042
0.618262	1.647119
0.618359	1.627860
0.618457	1.653082
0.618555	1.650972
0.618652	1.622159
0.618750	1.589797
0.618848	1.556262
0.618945	1.579671
0.619043	1.603618
0.619141	1.601324
0.619238	1.607012
0.619336	1.619391
0.619434	1.631989
0.619531	1.618761
0.619629	1.613278
0.619727	1.617090
0.619824	1.623842
0.619922	1.627621
0.620020	1.632014
0.620117	1.634860
0.620215	1.639141
0.620312	1.642363
0.620410	1.647116
0.620508	1.651025
0.620605	1.657069
0.620703	1.660767
0.620801	1.668865
0.620898	1.676109
0.620996	1.682754
0.621094	1.686012
0.621191	1.682938
0.621289	1.696559
0.621387	1.678134
0.621484	1.667416
0.621582	1.665257
0.621680	1.675404
0.621777	1.672691
0.621875	1.675398
0.621973	1.677266
0.622070	1.676925
0.622168	1.674530
0.622266	1.669194
0.622363	1.652795
0.622461	1.667555
0.622559	1.698243
0.622656	1.698015
0.622754	1.690420
0.622852	1.696268
0.622949	1.698915
0.623047	1.694610
0.623145	1.691584
0.623242	1.691872
0.623340	1.687158
0.623437	1.681239
0.623535	1.680115
0.623633	1.665464
0.623730	1.664018
0.623828	1.676857
0.623926	1.683341
0.624023	1.685878
0.624121	1.693390
0.624219	1.696016
0.624316	1.684155
0.624414	1.712363
0.624512	1.718121
0.624609	1.709881
0.624707	1.711379
0.624805	1.704457
0.624902	1.707762
0.625000	1.713338
0.625098	1.694547
0.625195	1.687302
0.625293	1.694833
0.625391	1.698585
0.625488	1.699090
0.625586	1.705026
0.625684	1.707794
0.625781	1.689450
0.625879	1.691740
0.625977	1.692370
0.626074	1.692042
0.626172	1.690338
0.626270	1.691319
0.626367	1.690398
0.626465	1.691155
0.626562	1.689920
0.626660	1.688960
0.626758	1.688027
0.626855	1.687723
0.626953	1.688000
0.627051	1.688414
0.627148	1.688049
0.627246	1.686798
0.627344	1.685895
0.627441	1.684053
0.627539	1.683880
0.627637	1.684251
0.627734	1.689547
0.627832	1.691326
0.627930	1.678321
0.628027	1.676139
0.628125	1.676495
0.628223	1.668607
0.628320	1.657738
0.628418	1.637219
0.628516	1.658221
0.628613	1.681691
0.628711	1.648458
0.628809	1.603891
0.628906	1.606632
0.629004	1.659457
0.629102	1.689149
0.629199	1.690464
0.629297	1.677977
0.629395	1.665490
0.629492	1.661472
0.629590	1.646294
0.629687	1.654760
0.629785	1.671949
0.629883	1.677679
0.629980	1.681945
0.630078	1.682299
0.630176	1.682607
0.630273	1.688445
0.630371	1.684684
0.630469	1.680985
0.630566	1.681832
0.630664	1.681958
0.630762	1.683606
0.630859	1.683600
0.630957	1.684461
0.631055	1.685363
0.631152	1.691102
0.631250	1.670662
0.631348	1.696235
0.631445	1.691849
0.631543	1.679085
0.631641	1.677644
0.631738	1.673449
0.631836	1.677361
0.631934	1.677756
0.632031	1.681022
0.632129	1.674055
0.632227	1.665020
0.632324	1.659695
0.632422	1.655264
0.632520	1.651794
0.632617	1.650194
0.632715	1.648943
0.632812	1.648541
0.632910	1.648436
0.633008	1.648788
0.633105	1.649196
0.633203	1.649766
0.633301	1.650266
0.633398	1.650856
0.633496	1.651386
0.633594	1.651975
0.633691	1.652601
0.633789	1.653263
0.633887	1.654050
0.633984	1.654804
0.634082	1.655687
0.634180	1.656553
0.634277	1.657661
0.634375	1.658818
0.634473	1.660144
0.634570	1.661801
0.634668	1.663741
0.634766	1.665872
0.634863	1.668671
0.634961	1.671336
0.635059	1.673775
0.635156	1.674940
0.635254	1.676593
0.635352	1.677826
0.635449	1.679385
0.635547	1.679295
0.635645	1.679132
0.635742	1.677898
0.635840	1.678195
0.635937	1.677382
0.636035	1.679484
0.636133	1.680632
0.636230	1.687982
0.636328	1.691137
0.636426	1.705584
0.636523	1.700299
0.636621	1.681251
0.636719	1.670624
0.636816	1.672610
0.636914	1.677607
0.637012	1.659411
0.637109	1.676377
0.637207	1.688808
0.637305	1.686421
0.637402	1.689095
0.637500	1.668185
0.637598	1.666583
0.637695	1.698423
0.637793	1.698213
0.637891	1.688337
0.637988	1.675813
0.638086	1.677060
0.638184	1.676906
0.638281	1.697810
0.638379	1.708545
0.638477	1.697093
0.638574	1.674098
0.638672	1.667360
0.638770	1.639387
0.638867	1.535900
0.638965	1.555271
0.639062	1.547154
0.639160	1.580310
0.639258	1.593615
0.639355	1.593565
0.639453	1.572386
0.639551	1.548325
0.639648	1.581103
0.639746	1.576092
0.639844	1.586233
0.639941	1.584924
0.640039	1.578999
0.640137	1.610936
0.640234	1.621221
0.640332	1.629116
0.640430	1.631131
0.640527	1.610050
0.640625	1.587768
0.640723	1.582620
0.640820	1.570887
0.640918	1.570502
0.641016	1.600545
0.641113	1.601665
0.641211	1.594520
0.641309	1.636818
0.641406	1.665531
0.641504	1.655497
0.641602	1.654619
0.641699	1.651572
0.641797	1.651524
0.641895	1.649428
0.641992	1.649817
0.642090	1.648303
0.642187	1.648222
0.642285	1.648219
0.642383	1.649804
0.642480	1.651031
0.642578	1.652939
0.642676	1.654294
0.642773	1.656094
0.642871	1.658268
0.642969	1.660947
0.643066	1.662697
0.643164	1.661766
0.643262	1.655641
0.643359	1.652170
0.643457	1.647651
0.643555	1.661336
0.643652	1.670468
0.643750	1.673191
0.643848	1.678033
0.643945	1.670318
0.644043	1.682983
0.644141	1.703475
0.644238	1.702868
0.644336	1.703049
0.644434	1.691151
0.644531	1.688749
0.644629	1.679342
0.644727	1.676137
0.644824	1.672460
0.644922	1.666465
0.645020	1.669260
0.645117	1.660003
0.645215	1.638356
0.645312	1.635195
0.645410	1.634335
0.645508	1.639177
0.645605	1.646175
0.645703	1.653883
0.645801	1.681825
0.645898	1.670382
0.645996	1.664281
0.646094	1.660646
0.646191	1.649496
0.646289	1.645903
0.646387	1.636584
0.646484	1.588889
0.646582	1.590893
0.646680	1.656570
0.646777	1.652758
0.646875	1.660563
0.646973	1.662545
0.647070	1.658484
0.647168	1.653411
0.647266	1.642294
0.647363	1.646491
0.647461	1.646173
0.647559	1.644588
0.647656	1.654818
0.647754	1.664961
0.647852	1.658859
0.647949	1.657085
0.648047	1.656685
0.648145	1.660168
0.648242	1.671311
0.648340	1.674719
0.648437	1.672473
0.648535	1.682268
0.648633	1.689649
0.648730	1.687599
0.648828	1.691734
0.648926	1.683507
0.649023	1.684257
0.649121	1.673718
0.649219	1.673951
0.649316	1.679922
0.649414	1.657016
0.649512	1.629524
0.649609	1.624366
0.649707	1.661867
0.649805	1.656210
0.649902	1.645103
0.650000	1.670305
0.650098	1.684666
0.650195	1.670705
0.650293	1.669308
0.650391	1.675515
0.650488	1.676032
0.650586	1.660071
0.650684	1.648949
0.650781	1.673399
0.650879	1.689989
0.650977	1.689131
0.651074	1.691910
0.651172	1.691526
0.651270	1.692263
0.651367	1.690300
0.651465	1.689631
0.651562	1.688237
0.651660	1.688079
0.651758	1.687529
0.651855	1.687088
0.651953	1.684988
0.652051	1.683744
0.652148	1.682463
0.652246	1.681195
0.652344	1.679406
0.652441	1.677768
0.652539	1.675923
0.652637	1.674335
0.652734	1.672738
0.652832	1.671771
0.652930	1.670884
0.653027	1.670211
0.653125	1.669631
0.653223	1.669197
0.653320	1.668748
0.653418	1.668338
0.653516	1.668119
0.653613	1.667994
0.653711	1.668094
0.653809	1.668543
0.653906	1.669488
0.654004	1.670554
0.654102	1.672161
0.654199	1.673978
0.654297	1.676009
0.654395	1.678254
0.654492	1.680155
0.654590	1.681958
0.654687	1.683461
0.654785	1.684741
0.654883	1.686005
0.654980	1.687313
0.655078	1.688659
0.655176	1.690006
0.655273	1.691204
0.655371	1.691820
0.655469	1.691955
0.655566	1.691876
0.655664	1.692844
0.655762	1.694175
0.655859	1.695613
0.655957	1.696974
0.656055	1.701282
0.656152	1.703168
0.656250	1.700290
0.656348	1.687847
0.656445	1.680377
0.656543	1.688335
0.656641	1.687074
0.656738	1.685610
0.656836	1.684066
0.656934	1.683349
0.657031	1.682839
0.657129	1.683160
0.657227	1.683346
0.657324	1.684151
0.657422	1.684788
0.657520	1.685912
0.657617	1.686706
0.657715	1.688342
0.657812	1.689611
0.657910	1.692962
0.658008	1.695112
0.658105	1.698204
0.658203	1.700933
0.658301	1.698458
0.658398	1.698829
0.658496	1.700274
0.658594	1.708214
0.658691	1.706806
0.658789	1.685968
0.658887	1.666636
0.658984	1.660914
0.659082	1.653022
0.659180	1.648064
0.659277	1.650133
0.659375	1.670530
0.659473	1.701276
0.659570	1.683184
0.659668	1.681350
0.659766	1.686385
0.659863	1.688180
0.659961	1.688535
0.660059	1.680720
0.660156	1.687468
0.660254	1.691906
0.660352	1.659882
0.660449	1.651116
0.660547	1.681704
0.660645	1.665479
0.660742	1.665656
0.660840	1.645974
0.660937	1.633574
0.661035	1.641875
0.661133	1.645697
0.661230	1.610823
0.661328	1.581992
0.661426	1.598086
0.661523	1.605264
0.661621	1.621338
0.661719	1.608943
0.661816	1.587452
0.661914	1.564938
0.662012	1.536924
0.662109	1.553682
0.662207	1.576689
0.662305	1.575589
0.662402	1.599728
0.662500	1.623748
0.662598	1.609143
0.662695	1.613284
0.662793	1.624814
0.662891	1.636084
0.662988	1.637583
0.663086	1.629098
0.663184	1.621111
0.663281	1.606502
0.663379	1.584591
0.663477	1.575899
0.663574	1.556693
0.663672	1.592774
0.663770	1.649385
0.663867	1.652736
0.663965	1.675351
0.664062	1.667818
0.664160	1.658850
0.664258	1.656879
0.664355	1.666699
0.664453	1.657255
0.664551	1.648911
0.664648	1.655549
0.664746	1.657688
0.664844	1.664738
0.664941	1.673848
0.665039	1.682744
0.665137	1.691550
0.665234	1.693737
0.665332	1.675694
0.665430	1.666569
0.665527	1.662769
0.665625	1.660513
0.665723	1.658817
0.665820	1.657991
0.665918	1.657440
0.666016	1.657331
0.666113	1.657400
0.666211	1.657679
0.666309	1.658027
0.666406	1.658658
0.666504	1.659195
0.666602	1.660002
0.666699	1.660833
0.666797	1.661828
0.666895	1.662708
0.666992	1.663786
0.667090	1.664826
0.667187	1.665868
0.667285	1.667027
0.667383	1.668022
0.667480	1.669091
0.667578	1.669884
0.667676	1.670771
0.667773	1.671569
0.667871	1.672486
0.667969	1.673712
0.668066	1.675071
0.668164	1.676697
0.668262	1.678554
0.668359	1.680826
0.668457	1.683304
0.668555	1.689940
0.668652	1.699506
0.668750	1.682053
0.668848	1.680309
0.668945	1.689042
0.669043	1.690958
0.669141	1.689383
0.669238	1.685508
0.669336	1.683819
0.669434	1.683039
0.669531	1.683896
0.669629	1.685231
0.669727	1.686834
0.669824	1.688216
0.669922	1.689736
0.670020	1.691034
0.670117	1.692853
0.670215	1.694333
0.670312	1.695342
0.670410	1.695262
0.670508	1.695342
0.670605	1.696089
0.670703	1.697463
0.670801	1.699435
0.670898	1.701569
0.670996	1.703375
0.671094	1.704495
0.671191	1.704865
0.671289	1.703778
0.671387	1.703220
0.671484	1.702739
0.671582	1.703731
0.671680	1.704844
0.671777	1.707211
0.671875	1.708820
0.671973	1.711127
0.672070	1.709489
0.672168	1.714096
0.672266	1.703262
0.672363	1.693907
0.672461	1.675855
0.672559	1.657216
0.672656	1.668252
0.672754	1.664742
0.672852	1.676992
0.672949	1.651482
0.673047	1.642468
0.673145	1.680877
0.673242	1.689124
0.673340	1.693177
0.673437	1.686320
0.673535	1.682278
0.673633	1.691808
0.673730	1.698463
0.673828	1.690316
0.673926	1.691141
0.674023	1.687623
0.674121	1.686022
0.674219	1.681775
0.674316	1.695207
0.674414	1.711181
0.674512	1.686142
0.674609	1.646090
0.674707	1.641904
0.674805	1.661555
0.674902	1.651377
0.675000	1.636744
0.675098	1.623316
0.675195	1.647662
0.675293	1.641973
0.675391	1.606945
0.675488	1.608325
0.675586	1.588345
0.675684	1.567480
0.675781	1.617791
0.675879	1.663819
0.675977	1.654414
0.676074	1.655905
0.676172	1.682091
0.676270	1.678210
0.676367	1.681322
0.676465	1.672217
0.676562	1.669551
0.676660	1.663269
0.676758	1.660703
0.676855	1.656574
0.676953	1.655851
0.677051	1.653915
0.677148	1.653829
0.677246	1.652714
0.677344	1.652584
0.677441	1.651712
0.677539	1.651553
0.677637	1.650874
0.677734	1.650706
0.677832	1.650243
0.677930	1.650053
0.678027	1.649748
0.678125	1.649663
0.678223	1.649483
0.678320	1.649462
0.678418	1.649392
0.678516	1.649540
0.678613	1.649685
0.678711	1.649896
0.678809	1.650338
0.678906	1.650780
0.679004	1.651407
0.679102	1.651950
0.679199	1.652811
0.679297	1.653601
0.679395	1.654481
0.679492	1.655340
0.679590	1.656154
0.679687	1.656908
0.679785	1.657655
0.679883	1.658697
0.679980	1.659439
0.680078	1.660371
0.680176	1.661140
0.680273	1.662240
0.680371	1.663183
0.680469	1.664412
0.680566	1.665673
0.680664	1.667110
0.680762	1.668499
0.680859	1.670316
0.680957	1.671890
0.681055	1.673797
0.681152	1.675406
0.681250	1.677420
0.681348	1.678866
0.681445	1.681203
0.681543	1.682700
0.681641	1.687151
0.681738	1.688121
0.681836	1.695479
0.681934	1.704757
0.682031	1.690113
0.682129	1.698417
0.682227	1.704786
0.682324	1.715699
0.682422	1.715916
0.682520	1.707614
0.682617	1.713144
0.682715	1.721076
0.682812	1.699740
0.682910	1.693687
0.683008	1.692619
0.683105	1.690444
0.683203	1.689573
0.683301	1.689103
0.683398	1.689271
0.683496	1.689021
0.683594	1.689209
0.683691	1.689281
0.683789	1.690025
0.683887	1.690842
0.683984	1.692374
0.684082	1.694128
0.684180	1.697385
0.684277	1.701947
0.684375	1.701095
0.684473	1.700092
0.684570	1.701309
0.684668	1.701830
0.684766	1.706381
0.684863	1.709412
0.684961	1.703919
0.685059	1.705767
0.685156	1.706919
0.685254	1.703940
0.685352	1.698223
0.685449	1.703438
0.685547	1.711688
0.685645	1.710996
0.685742	1.709615
0.685840	1.709349
0.685937	1.709613
0.686035	1.709599
0.686133	1.706514
0.686230	1.703635
0.686328	1.701411
0.686426	1.698196
0.686523	1.693941
0.686621	1.690194
0.686719	1.687765
0.686816	1.685659
0.686914	1.683503
0.687012	1.681488
0.687109	1.679439
0.687207	1.677596
0.687305	1.675732
0.687402	1.674419
0.687500	1.672961
0.687598	1.672338
0.687695	1.671904
0.687793	1.674152
0.687891	1.675749
0.687988	1.675742
0.688086	1.676817
0.688184	1.678975
0.688281	1.678296
0.688379	1.675763
0.688477	1.670498
0.688574	1.673316
0.688672	1.668704
0.688770	1.672110
0.688867	1.654694
0.688965	1.647862
0.689062	1.659110
0.689160	1.657689
0.689258	1.672001
0.689355	1.666840
0.689453	1.661109
0.689551	1.658365
0.689648	1.659666
0.689746	1.660471
0.689844	1.663006
0.689941	1.664872
0.690039	1.668023
0.690137	1.669970
0.690234	1.670626
0.690332	1.671432
0.690430	1.672729
0.690527	1.673468
0.690625	1.674245
0.690723	1.674736
0.690820	1.674528
0.690918	1.675699
0.691016	1.679070
0.691113	1.681545
0.691211	1.686023
0.691309	1.685210
0.691406	1.668497
0.691504	1.674285
0.691602	1.676328
0.691699	1.674780
0.691797	1.674287
0.691895	1.673611
0.691992	1.673889
0.692090	1.673932
0.692187	1.674299
0.692285	1.674593
0.692383	1.675191
0.692480	1.675190
0.692578	1.675332
0.692676	1.674537
0.692773	1.674313
0.692871	1.673145
0.692969	1.673243
0.693066	1.673029
0.693164	1.675298
0.693262	1.669473
0.693359	1.669692
0.693457	1.674609
0.693555	1.675846
0.693652	1.672834
0.693750	1.667457
0.693848	1.667101
0.693945	1.666544
0.694043	1.666774
0.694141	1.666381
0.694238	1.666287
0.694336	1.665535
0.694434	1.665076
0.694531	1.664598
0.694629	1.664621
0.694727	1.664617
0.694824	1.664890
0.694922	1.665163
0.695020	1.665687
0.695117	1.666174
0.695215	1.666842
0.695312	1.667300
0.695410	1.667973
0.695508	1.668498
0.695605	1.669065
0.695703	1.669675
0.695801	1.670387
0.695898	1.671025
0.695996	1.671822
0.696094	1.672586
0.696191	1.673774
0.696289	1.674997
0.696387	1.676982
0.696484	1.678859
0.696582	1.681389
0.696680	1.683579
0.696777	1.686169
0.696875	1.687407
0.696973	1.688076
0.697070	1.683809
0.697168	1.682745
0.697266	1.685197
0.697363	1.690065
0.697461	1.688404
0.697559	1.689107
0.697656	1.689461
0.697754	1.692269
0.697852	1.692040
0.697949	1.697300
0.698047	1.694346
0.698145	1.653586
0.698242	1.666462
0.698340	1.671306
0.698437	1.681919
0.698535	1.675811
0.698633	1.673685
0.698730	1.674204
0.698828	1.677762
0.698926	1.681890
0.699023	1.686369
0.699121	1.696038
0.699219	1.693145
0.699316	1.688994
0.699414	1.698630
0.699512	1.699861
0.699609	1.700563
0.699707	1.697018
0.699805	1.693538
0.699902	1.689397
0.700000	1.685599
0.700098	1.683077
0.700195	1.680716
0.700293	1.680616
0.700391	1.679590
0.700488	1.684112
0.700586	1.683817
0.700684	1.692307
0.700781	1.683864
0.700879	1.671264
0.700977	1.669827
0.701074	1.646070
0.701172	1.636605
0.701270	1.638003
0.701367	1.624089
0.701465	1.615856
0.701562	1.631558
0.701660	1.605942
0.701758	1.573036
0.701855	1.590160
0.701953	1.619998
0.702051	1.631113
0.702148	1.641770
0.702246	1.647802
0.702344	1.641941
0.702441	1.650463
0.702539	1.654730
0.702637	1.656789
0.702734	1.656732
0.702832	1.656315
0.702930	1.655352
0.703027	1.654829
0.703125	1.654408
0.703223	1.654594
0.703320	1.654710
0.703418	1.655130
0.703516	1.655465
0.703613	1.656059
0.703711	1.656591
0.703809	1.657215
0.703906	1.657592
0.704004	1.658084
0.704102	1.658482
0.704199	1.658904
0.704297	1.659346
0.704395	1.659702
0.704492	1.660180
0.704590	1.660731
0.704687	1.661352
0.704785	1.661903
0.704883	1.662646
0.704980	1.663242
0.705078	1.664059
0.705176	1.664719
0.705273	1.665696
0.705371	1.666570
0.705469	1.667637
0.705566	1.668156
0.705664	1.668880
0.705762	1.670038
0.705859	1.671451
0.705957	1.672287
0.706055	1.673821
0.706152	1.674928
0.706250	1.677236
0.706348	1.679132
0.706445	1.682735
0.706543	1.685320
0.706641	1.690450
0.706738	1.683265
0.706836	1.681822
0.706934	1.690204
0.707031	1.690078
0.707129	1.690416
0.707227	1.688393
0.707324	1.687442
0.707422	1.685867
0.707520	1.685375
0.707617	1.684389
0.707715	1.684376
0.707812	1.683727
0.707910	1.683743
0.708008	1.683349
0.708105	1.683979
0.708203	1.684167
0.708301	1.686525
0.708398	1.688854
0.708496	1.685930
0.708594	1.686686
0.708691	1.687250
0.708789	1.687877
0.708887	1.688296
0.708984	1.689184
0.709082	1.690325
0.709180	1.691307
0.709277	1.691798
0.709375	1.692044
0.709473	1.692035
0.709570	1.691812
0.709668	1.691412
0.709766	1.691269
0.709863	1.691212
0.709961	1.691123
0.710059	1.691230
0.710156	1.690571
0.710254	1.689306
0.710352	1.687969
0.710449	1.686734
0.710547	1.685672
0.710645	1.684129
0.710742	1.682403
0.710840	1.680791
0.710937	1.679369
0.711035	1.677933
0.711133	1.676627
0.711230	1.675126
0.711328	1.673881
0.711426	1.672712
0.711523	1.671579
0.711621	1.670637
0.711719	1.669775
0.711816	1.669008
0.711914	1.668537
0.712012	1.668197
0.712109	1.667946
0.712207	1.667905
0.712305	1.667876
0.712402	1.667933
0.712500	1.668144
0.712598	1.668324
0.712695	1.668671
0.712793	1.669006
0.712891	1.669428
0.712988	1.670063
0.713086	1.670627
0.713184	1.671397
0.713281	1.672204
0.713379	1.673256
0.713477	1.674091
0.713574	1.675288
0.713672	1.676248
0.713770	1.677861
0.713867	1.678993
0.713965	1.679975
0.714062	1.677634
0.714160	1.676109
0.714258	1.673560
0.714355	1.671973
0.714453	1.668926
0.714551	1.667248
0.714648	1.663414
0.714746	1.651981
0.714844	1.621957
0.714941	1.634744
0.715039	1.632895
0.715137	1.615368
0.715234	1.587076
0.715332	1.569883
0.715430	1.619275
0.715527	1.659970
0.715625	1.683899
0.715723	1.687877
0.715820	1.693351
0.715918	1.696509
0.716016	1.678460
0.716113	1.652428
0.716211	1.644089
0.716309	1.631754
0.716406	1.616389
0.716504	1.623755
0.716602	1.662873
0.716699	1.632024
0.716797	1.603609
0.716895	1.640303
0.716992	1.639363
0.717090	1.657802
0.717187	1.659807
0.717285	1.664383
0.717383	1.664147
0.717480	1.667679
0.717578	1.668072
0.717676	1.670796
0.717773	1.671107
0.717871	1.673075
0.717969	1.673619
0.718066	1.675663
0.718164	1.676859
0.718262	1.679218
0.718359	1.680724
0.718457	1.682643
0.718555	1.683081
0.718652	1.682933
0.718750	1.681510
0.718848	1.679946
0.718945	1.678103
0.719043	1.676643
0.719141	1.675191
0.719238	1.674059
0.719336	1.673112
0.719434	1.672468
0.719531	1.671848
0.719629	1.671607
0.719727	1.671496
0.719824	1.671776
0.719922	1.672421
0.720020	1.673252
0.720117	1.674383
0.720215	1.675823
0.720312	1.677644
0.720410	1.679536
0.720508	1.681608
0.720605	1.683560
0.720703	1.685356
0.720801	1.686527
0.720898	1.687310
0.720996	1.687477
0.721094	1.686858
0.721191	1.686111
0.721289	1.685967
0.721387	1.686225
0.721484	1.686643
0.721582	1.686837
0.721680	1.687020
0.721777	1.687440
0.721875	1.688052
0.721973	1.688827
0.722070	1.689272
0.722168	1.689577
0.722266	1.689439
0.722363	1.688992
0.722461	1.688297
0.722559	1.687420
0.722656	1.686502
0.722754	1.685274
0.722852	1.684146
0.722949	1.682959
0.723047	1.681870
0.723145	1.680978
0.723242	1.680141
0.723340	1.679564
0.723437	1.679091
0.723535	1.678760
0.723633	1.678494
0.723730	1.678235
0.723828	1.678054
0.723926	1.677897
0.724023	1.677783
0.724121	1.677644
0.724219	1.677583
0.724316	1.677549
0.724414	1.677541
0.724512	1.677542
0.724609	1.677491
0.724707	1.677582
0.724805	1.677642
0.724902	1.677821
0.725000	1.677840
0.725098	1.678151
0.725195	1.678370
0.725293	1.678767
0.725391	1.679170
0.725488	1.679672
0.725586	1.680234
0.725684	1.681109
0.725781	1.681910
0.725879	1.683009
0.725977	1.684184
0.726074	1.685863
0.726172	1.687373
0.726270	1.689697
0.726367	1.691434
0.726465	1.693594
0.726562	1.694441
0.726660	1.695454
0.726758	1.693257
0.726855	1.690923
0.726953	1.689221
0.727051	1.690738
0.727148	1.690305
0.727246	1.692783
0.727344	1.687371
0.727441	1.699641
0.727539	1.707701
0.727637	1.700918
0.727734	1.683005
0.727832	1.680060
0.727930	1.684066
0.728027	1.683283
0.728125	1.683420
0.728223	1.679694
0.728320	1.682897
0.728418	1.693244
0.728516	1.667291
0.728613	1.670496
0.728711	1.645016
0.728809	1.612223
0.728906	1.606060
0.729004	1.622343
0.729102	1.628816
0.729199	1.613079
0.729297	1.592772
0.729395	1.586510
0.729492	1.577675
0.729590	1.558303
0.729687	1.552969
0.729785	1.604543
0.729883	1.624575
0.729980	1.597233
0.730078	1.615171
0.730176	1.598595
0.730273	1.579002
0.730371	1.581906
0.730469	1.613693
0.730566	1.625481
0.730664	1.613145
0.730762	1.600880
0.730859	1.610876
0.730957	1.610496
0.731055	1.599538
0.731152	1.621780
0.731250	1.652010
0.731348	1.645129
0.731445	1.655598
0.731543	1.656664
0.731641	1.659654
0.731738	1.657675
0.731836	1.656841
0.731934	1.655548
0.732031	1.655333
0.732129	1.655305
0.732227	1.656964
0.732324	1.658038
0.732422	1.659472
0.732520	1.660366
0.732617	1.661999
0.732715	1.663532
0.732812	1.664108
0.732910	1.664789
0.733008	1.667440
0.733105	1.668638
0.733203	1.667863
0.733301	1.667843
0.733398	1.664842
0.733496	1.662884
0.733594	1.657046
0.733691	1.645623
0.733789	1.644378
0.733887	1.649426
0.733984	1.645420
0.734082	1.642832
0.734180	1.644304
0.734277	1.662653
0.734375	1.673413
0.734473	1.666411
0.734570	1.666188
0.734668	1.667494
0.734766	1.669561
0.734863	1.670850
0.734961	1.672507
0.735059	1.673607
0.735156	1.675370
0.735254	1.676554
0.735352	1.677609
0.735449	1.677781
0.735547	1.677723
0.735645	1.677209
0.735742	1.676916
0.735840	1.676607
0.735937	1.676576
0.736035	1.676351
0.736133	1.676079
0.736230	1.675764
0.736328	1.675209
0.736426	1.674601
0.736523	1.673967
0.736621	1.673201
0.736719	1.672610
0.736816	1.672098
0.736914	1.671726
0.737012	1.671507
0.737109	1.671390
0.737207	1.671459
0.737305	1.671617
0.737402	1.671766
0.737500	1.671970
0.737598	1.672050
0.737695	1.672044
0.737793	1.672114
0.737891	1.672073
0.737988	1.672180
0.738086	1.672273
0.738184	1.672456
0.738281	1.672670
0.738379	1.673023
0.738477	1.673327
0.738574	1.673858
0.738672	1.674360
0.738770	1.675136
0.738867	1.675983
0.738965	1.676989
0.739062	1.678068
0.739160	1.679324
0.739258	1.680642
0.739355	1.681875
0.739453	1.683247
0.739551	1.684615
0.739648	1.686236
0.739746	1.687988
0.739844	1.690029
0.739941	1.692160
0.740039	1.694514
0.740137	1.696797
0.740234	1.699278
0.740332	1.701929
0.740430	1.704733
0.740527	1.704758
0.740625	1.704336
0.740723	1.707309
0.740820	1.713586
0.740918	1.721658
0.741016	1.718576
0.741113	1.715016
0.741211	1.713296
0.741309	1.699163
0.741406	1.686757
0.741504	1.686799
0.741602	1.678884
0.741699	1.686688
0.741797	1.673435
0.741895	1.684110
0.741992	1.696185
0.742090	1.700978
0.742187	1.686594
0.742285	1.685142
0.742383	1.688350
0.742480	1.677103
0.742578	1.632658
0.742676	1.636039
0.742773	1.629864
0.742871	1.593695
0.742969	1.586077
0.743066	1.611222
0.743164	1.643159
0.743262	1.646704
0.743359	1.655297
0.743457	1.670990
0.743555	1.669890
0.743652	1.658487
0.743750	1.664819
0.743848	1.667169
0.743945	1.667467
0.744043	1.667893
0.744141	1.668255
0.744238	1.668574
0.744336	1.669172
0.744434	1.670035
0.744531	1.670887
0.744629	1.671373
0.744727	1.670617
0.744824	1.667596
0.744922	1.662781
0.745020	1.663695
0.745117	1.666198
0.745215	1.665496
0.745312	1.666480
0.745410	1.669058
0.745508	1.666501
0.745605	1.666963
0.745703	1.664042
0.745801	1.657944
0.745898	1.655072
0.745996	1.655291
0.746094	1.653540
0.746191	1.653678
0.746289	1.642180
0.746387	1.606386
0.746484	1.566140
0.746582	1.553142
0.746680	1.539982
0.746777	1.517477
0.746875	1.504212
0.746973	1.524655
0.747070	1.520981
0.747168	1.519010
0.747266	1.557316
0.747363	1.585359
0.747461	1.580427
0.747559	1.590261
0.747656	1.577864
0.747754	1.587441
0.747852	1.583829
0.747949	1.596195
0.748047	1.626066
0.748145	1.621772
0.748242	1.630391
0.748340	1.630144
0.748437	1.634728
0.748535	1.634784
0.748633	1.637317
0.748730	1.635806
0.748828	1.636254
0.748926	1.635070
0.749023	1.635966
0.749121	1.636115
0.749219	1.637692
0.749316	1.638658
0.749414	1.640376
0.749512	1.641463
0.749609	1.643094
0.749707	1.644173
0.749805	1.645823
0.749902	1.647127
0.750000	1.648578
0.750098	1.649875
0.750195	1.651358
0.750293	1.652765
0.750391	1.654307
0.750488	1.655814
0.750586	1.657428
0.750684	1.659091
0.750781	1.660824
0.750879	1.662542
0.750977	1.664142
0.751074	1.665893
0.751172	1.667574
0.751270	1.669162
0.751367	1.670774
0.751465	1.672289
0.751562	1.673646
0.751660	1.674791
0.751758	1.675707
0.751855	1.676310
0.751953	1.676577
0.752051	1.676725
0.752148	1.676749
0.752246	1.676708
0.752344	1.676704
0.752441	1.676858
0.752539	1.677216
0.752637	1.677726
0.752734	1.678408
0.752832	1.679354
0.752930	1.680478
0.753027	1.681899
0.753125	1.683630
0.753223	1.685777
0.753320	1.688529
0.753418	1.692201
0.753516	1.696807
0.753613	1.700369
0.753711	1.702604
0.753809	1.704258
0.753906	1.705763
0.754004	1.707697
0.754102	1.710225
0.754199	1.712809
0.754297	1.715874
0.754395	1.712067
0.754492	1.709480
0.754590	1.706883
0.754687	1.703715
0.754785	1.701513
0.754883	1.699981
0.754980	1.697398
0.755078	1.693585
0.755176	1.690297
0.755273	1.687039
0.755371	1.684564
0.755469	1.682466
0.755566	1.681491
0.755664	1.680916
0.755762	1.681140
0.755859	1.681580
0.755957	1.682582
0.756055	1.683539
0.756152	1.683949
0.756250	1.682950
0.756348	1.682394
0.756445	1.682006
0.756543	1.682492
0.756641	1.683133
0.756738	1.686089
0.756836	1.690828
0.756934	1.704008
0.757031	1.711373
0.757129	1.701858
0.757227	1.697487
0.757324	1.694575
0.757422	1.689964
0.757520	1.687593
0.757617	1.685930
0.757715	1.684420
0.757812	1.683521
0.757910	1.682533
0.758008	1.681887
0.758105	1.681051
0.758203	1.680157
0.758301	1.679187
0.758398	1.678257
0.758496	1.677392
0.758594	1.676459
0.758691	1.675602
0.758789	1.674990
0.758887	1.674491
0.758984	1.674208
0.759082	1.674265
0.759180	1.674341
0.759277	1.674605
0.759375	1.675061
0.759473	1.675440
0.759570	1.675933
0.759668	1.676367
0.759766	1.676913
0.759863	1.677611
0.759961	1.678268
0.760059	1.679738
0.760156	1.681450
0.760254	1.683008
0.760352	1.684839
0.760449	1.686769
0.760547	1.688825
0.760645	1.691546
0.760742	1.694472
0.760840	1.697406
0.760937	1.699144
0.761035	1.700027
0.761133	1.700562
0.761230	1.701268
0.761328	1.701604
0.761426	1.701680
0.761523	1.700423
0.761621	1.699056
0.761719	1.697589
0.761816	1.697832
0.761914	1.697699
0.762012	1.698426
0.762109	1.697626
0.762207	1.699919
0.762305	1.701060
0.762402	1.693205
0.762500	1.677227
0.762598	1.699550
0.762695	1.721404
0.762793	1.720997
0.762891	1.699290
0.762988	1.700489
0.763086	1.700099
0.763184	1.691101
0.763281	1.701415
0.763379	1.683072
0.763477	1.697839
0.763574	1.696136
0.763672	1.691770
0.763770	1.654044
0.763867	1.650055
0.763965	1.670539
0.764062	1.689823
0.764160	1.698850
0.764258	1.711604
0.764355	1.703465
0.764453	1.675968
0.764551	1.657157
0.764648	1.636286
0.764746	1.633714
0.764844	1.618143
0.764941	1.638617
0.765039	1.674009
0.765137	1.681699
0.765234	1.684919
0.765332	1.686770
0.765430	1.684306
0.765527	1.681223
0.765625	1.677160
0.765723	1.676411
0.765820	1.676635
0.765918	1.677527
0.766016	1.678554
0.766113	1.680030
0.766211	1.681321
0.766309	1.682721
0.766406	1.683553
0.766504	1.684374
0.766602	1.684724
0.766699	1.684464
0.766797	1.682636
0.766895	1.680398
0.766992	1.677536
0.767090	1.676010
0.767187	1.674960
0.767285	1.675215
0.767383	1.674941
0.767480	1.676071
0.767578	1.676216
0.767676	1.677588
0.767773	1.676970
0.767871	1.681070
0.767969	1.674611
0.768066	1.671229
0.768164	1.672710
0.768262	1.638415
0.768359	1.663203
0.768457	1.639281
0.768555	1.641511
0.768652	1.668546
0.768750	1.671204
0.768848	1.673770
0.768945	1.678150
0.769043	1.684341
0.769141	1.688470
0.769238	1.691186
0.769336	1.681088
0.769434	1.659993
0.769531	1.691884
0.769629	1.681544
0.769727	1.654759
0.769824	1.648068
0.769922	1.646626
0.770020	1.643499
0.770117	1.610976
0.770215	1.617204
0.770312	1.655789
0.770410	1.662459
0.770508	1.653345
0.770605	1.659270
0.770703	1.668696
0.770801	1.679977
0.770898	1.684593
0.770996	1.676618
0.771094	1.673114
0.771191	1.674368
0.771289	1.677378
0.771387	1.674817
0.771484	1.678800
0.771582	1.684770
0.771680	1.682413
0.771777	1.674885
0.771875	1.658371
0.771973	1.649711
0.772070	1.671932
0.772168	1.667982
0.772266	1.651050
0.772363	1.642659
0.772461	1.644504
0.772559	1.671661
0.772656	1.676038
0.772754	1.678000
0.772852	1.679888
0.772949	1.689588
0.773047	1.687014
0.773145	1.673697
0.773242	1.669268
0.773340	1.668122
0.773437	1.667782
0.773535	1.668225
0.773633	1.669141
0.773730	1.669878
0.773828	1.669531
0.773926	1.668299
0.774023	1.666326
0.774121	1.664346
0.774219	1.663037
0.774316	1.662398
0.774414	1.662512
0.774512	1.663253
0.774609	1.664469
0.774707	1.666095
0.774805	1.668036
0.774902	1.670169
0.775000	1.672325
0.775098	1.674363
0.775195	1.676320
0.775293	1.678033
0.775391	1.679592
0.775488	1.680743
0.775586	1.681495
0.775684	1.681803
0.775781	1.682008
0.775879	1.682331
0.775977	1.682748
0.776074	1.683306
0.776172	1.683924
0.776270	1.684285
0.776367	1.685043
0.776465	1.686021
0.776562	1.687200
0.776660	1.687612
0.776758	1.687645
0.776855	1.687795
0.776953	1.687549
0.777051	1.687316
0.777148	1.686969
0.777246	1.687023
0.777344	1.687074
0.777441	1.687426
0.777539	1.687823
0.777637	1.688347
0.777734	1.688542
0.777832	1.688595
0.777930	1.688370
0.778027	1.688202
0.778125	1.688130
0.778223	1.689083
0.778320	1.690302
0.778418	1.692869
0.778516	1.695565
0.778613	1.698135
0.778711	1.701630
0.778809	1.704473
0.778906	1.700632
0.779004	1.697297
0.779102	1.702316
0.779199	1.681151
0.779297	1.681060
0.779395	1.687041
0.779492	1.695210
0.779590	1.713725
0.779687	1.695617
0.779785	1.677872
0.779883	1.678076
0.779980	1.676810
0.780078	1.678011
0.780176	1.677939
0.780273	1.680151
0.780371	1.681928
0.780469	1.684882
0.780566	1.686886
0.780664	1.688871
0.780762	1.689786
0.780859	1.691178
0.780957	1.692307
0.781055	1.693562
0.781152	1.694591
0.781250	1.695869
0.781348	1.696789
0.781445	1.698112
0.781543	1.699148
0.781641	1.700350
0.781738	1.701307
0.781836	1.701817
0.781934	1.701903
0.782031	1.701876
0.782129	1.701686
0.782227	1.701451
0.782324	1.701307
0.782422	1.701317
0.782520	1.701851
0.782617	1.702749
0.782715	1.703422
0.782812	1.704311
0.782910	1.705636
0.783008	1.707518
0.783105	1.709281
0.783203	1.710685
0.783301	1.711167
0.783398	1.711514
0.783496	1.711399
0.783594	1.711170
0.783691	1.711865
0.783789	1.711195
0.783887	1.706709
0.783984	1.699530
0.784082	1.699435
0.784180	1.697968
0.784277	1.696280
0.784375	1.694222
0.784473	1.692673
0.784570	1.691231
0.784668	1.690309
0.784766	1.689403
0.784863	1.688377
0.784961	1.687133
0.785059	1.685718
0.785156	1.684162
0.785254	1.682724
0.785352	1.681422
0.785449	1.680755
0.785547	1.680561
0.785645	1.681474
0.785742	1.683848
0.785840	1.687164
0.785937	1.687161
0.786035	1.688683
0.786133	1.675462
0.786230	1.647702
0.786328	1.644422
0.786426	1.661548
0.786523	1.683805
0.786621	1.690111
0.786719	1.690853
0.786816	1.691866
0.786914	1.699454
0.787012	1.705957
0.787109	1.697393
0.787207	1.689627
0.787305	1.690447
0.787402	1.684686
0.787500	1.681424
0.787598	1.645690
0.787695	1.660190
0.787793	1.713017
0.787891	1.678836
0.787988	1.663374
0.788086	1.658092
0.788184	1.664153
0.788281	1.682127
0.788379	1.698028
0.788477	1.700048
0.788574	1.700452
0.788672	1.694323
0.788770	1.677864
0.788867	1.662644
0.788965	1.680037
0.789062	1.696673
0.789160	1.681659
0.789258	1.688328
0.789355	1.681765
0.789453	1.684271
0.789551	1.704562
0.789648	1.711624
0.789746	1.706153
0.789844	1.704921
0.789941	1.706327
0.790039	1.697085
0.790137	1.700232
0.790234	1.690221
0.790332	1.681161
0.790430	1.697460
0.790527	1.687580
0.790625	1.679990
0.790723	1.684215
0.790820	1.675924
0.790918	1.669103
0.791016	1.654950
0.791113	1.670955
0.791211	1.680027
0.791309	1.694034
0.791406	1.693046
0.791504	1.674763
0.791602	1.652484
0.791699	1.624850
0.791797	1.608603
0.791895	1.598616
0.791992	1.598114
0.792090	1.578991
0.792187	1.574513
0.792285	1.577785
0.792383	1.551527
0.792480	1.503003
0.792578	1.497163
0.792676	1.534698
0.792773	1.555659
0.792871	1.538639
0.792969	1.525537
0.793066	1.530645
0.793164	1.551700
0.793262	1.555262
0.793359	1.551900
0.793457	1.562745
0.793555	1.560265
0.793652	1.614871
0.793750	1.657976
0.793848	1.664016
0.793945	1.666142
0.794043	1.661749
0.794141	1.670705
0.794238	1.617238
0.794336	1.625196
0.794434	1.672549
0.794531	1.664219
0.794629	1.669686
0.794727	1.671727
0.794824	1.681920
0.794922	1.685627
0.795020	1.686924
0.795117	1.682070
0.795215	1.681344
0.795312	1.682297
0.795410	1.686404
0.795508	1.693145
0.795605	1.691811
0.795703	1.689090
0.795801	1.694126
0.795898	1.696050
0.795996	1.698685
0.796094	1.696855
0.796191	1.694029
0.796289	1.691831
0.796387	1.693866
0.796484	1.693705
0.796582	1.692040
0.796680	1.690191
0.796777	1.694891
0.796875	1.687310
0.796973	1.672214
0.797070	1.666935
0.797168	1.661893
0.797266	1.660193
0.797363	1.657595
0.797461	1.654390
0.797559	1.651325
0.797656	1.649876
0.797754	1.648426
0.797852	1.650372
0.797949	1.653539
0.798047	1.656233
0.798145	1.659041
0.798242	1.661490
0.798340	1.663905
0.798437	1.664493
0.798535	1.664353
0.798633	1.662184
0.798730	1.653779
0.798828	1.650731
0.798926	1.660474
0.799023	1.661021
0.799121	1.655992
0.799219	1.653199
0.799316	1.653718
0.799414	1.636828
0.799512	1.628095
0.799609	1.611467
0.799707	1.561910
0.799805	1.605560
0.799902	1.649531
0.800000	1.673734
0.800098	1.675295
0.800195	1.646543
0.800293	1.640148
0.800391	1.625551
0.800488	1.645573
0.800586	1.645830
0.800684	1.641721
0.800781	1.602515
0.800879	1.616122
0.800977	1.636931
0.801074	1.632255
0.801172	1.635921
0.801270	1.635962
0.801367	1.634520
0.801465	1.629570
0.801562	1.624273
0.801660	1.570032
0.801758	1.584265
0.801855	1.628598
0.801953	1.652445
0.802051	1.644485
0.802148	1.613730
0.802246	1.607206
0.802344	1.621295
0.802441	1.648859
0.802539	1.661732
0.802637	1.675496
0.802734	1.690131
0.802832	1.671547
0.802930	1.660756
0.803027	1.648686
0.803125	1.645910
0.803223	1.645252
0.803320	1.645440
0.803418	1.645119
0.803516	1.645147
0.803613	1.644487
0.803711	1.643994
0.803809	1.643092
0.803906	1.642512
0.804004	1.641754
0.804102	1.641307
0.804199	1.640780
0.804297	1.640549
0.804395	1.640437
0.804492	1.640464
0.804590	1.640559
0.804687	1.640788
0.804785	1.641049
0.804883	1.641443
0.804980	1.641850
0.805078	1.642327
0.805176	1.642884
0.805273	1.643484
0.805371	1.644121
0.805469	1.644888
0.805566	1.645713
0.805664	1.646651
0.805762	1.647642
0.805859	1.648904
0.805957	1.650173
0.806055	1.651555
0.806152	1.653009
0.806250	1.654461
0.806348	1.655986
0.806445	1.657343
0.806543	1.658808
0.806641	1.660283
0.806738	1.661604
0.806836	1.663148
0.806934	1.664659
0.807031	1.666210
0.807129	1.667803
0.807227	1.669448
0.807324	1.671121
0.807422	1.672607
0.807520	1.673621
0.807617	1.674172
0.807715	1.673764
0.807812	1.673044
0.807910	1.672931
0.808008	1.673234
0.808105	1.673819
0.808203	1.674632
0.808301	1.675500
0.808398	1.676704
0.808496	1.677746
0.808594	1.679118
0.808691	1.680466
0.808789	1.681904
0.808887	1.683519
0.808984	1.685211
0.809082	1.686652
0.809180	1.688228
0.809277	1.689408
0.809375	1.690929
0.809473	1.692155
0.809570	1.694164
0.809668	1.695668
0.809766	1.698344
0.809863	1.700083
0.809961	1.703439
0.810059	1.705907
0.810156	1.711952
0.810254	1.714939
0.810352	1.715047
0.810449	1.720948
0.810547	1.719049
0.810645	1.715231
0.810742	1.695739
0.810840	1.683374
0.810937	1.688870
0.811035	1.711005
0.811133	1.700817
0.811230	1.698567
0.811328	1.708060
0.811426	1.709705
0.811523	1.704744
0.811621	1.701989
0.811719	1.700113
0.811816	1.700970
0.811914	1.702313
0.812012	1.702231
0.812109	1.702937
0.812207	1.705157
0.812305	1.709904
0.812402	1.708629
0.812500	1.691111
0.812598	1.699394
0.812695	1.701648
0.812793	1.698333
0.812891	1.698676
0.812988	1.699235
0.813086	1.697968
0.813184	1.696287
0.813281	1.694668
0.813379	1.692865
0.813477	1.691398
0.813574	1.689896
0.813672	1.688481
0.813770	1.687002
0.813867	1.685729
0.813965	1.684479
0.814062	1.683551
0.814160	1.682891
0.814258	1.682546
0.814355	1.681975
0.814453	1.681755
0.814551	1.681880
0.814648	1.682313
0.814746	1.683255
0.814844	1.683950
0.814941	1.684764
0.815039	1.684456
0.815137	1.684204
0.815234	1.685386
0.815332	1.686542
0.815430	1.687314
0.815527	1.687479
0.815625	1.685871
0.815723	1.685099
0.815820	1.683435
0.815918	1.680488
0.816016	1.676734
0.816113	1.673264
0.816211	1.670885
0.816309	1.669485
0.816406	1.668638
0.816504	1.668193
0.816602	1.667644
0.816699	1.667112
0.816797	1.666434
0.816895	1.665704
0.816992	1.665190
0.817090	1.664721
0.817187	1.664420
0.817285	1.664413
0.817383	1.664261
0.817480	1.664604
0.817578	1.664884
0.817676	1.665152
0.817773	1.665158
0.817871	1.665131
0.817969	1.664930
0.818066	1.664465
0.818164	1.663976
0.818262	1.663162
0.818359	1.662045
0.818457	1.661039
0.818555	1.660454
0.818652	1.659902
0.818750	1.659402
0.818848	1.659140
0.818945	1.659043
0.819043	1.659381
0.819141	1.659982
0.819238	1.660257
0.819336	1.660192
0.819434	1.659943
0.819531	1.658972
0.819629	1.657725
0.819727	1.656565
0.819824	1.655566
0.819922	1.654433
0.820020	1.653624
0.820117	1.652802
0.820215	1.652242
0.820312	1.651853
0.820410	1.651634
0.820508	1.651695
0.820605	1.651903
0.820703	1.652292
0.820801	1.652817
0.820898	1.653339
0.820996	1.654155
0.821094	1.654964
0.821191	1.655866
0.821289	1.656871
0.821387	1.658012
0.821484	1.659320
0.821582	1.660668
0.821680	1.662264
0.821777	1.663873
0.821875	1.665635
0.821973	1.667570
0.822070	1.669661
0.822168	1.671554
0.822266	1.673585
0.822363	1.674745
0.822461	1.674606
0.822559	1.674206
0.822656	1.673677
0.822754	1.673029
0.822852	1.672488
0.822949	1.672632
0.823047	1.673683
0.823145	1.675281
0.823242	1.677162
0.823340	1.679231
0.823437	1.681361
0.823535	1.683322
0.823633	1.684663
0.823730	1.685600
0.823828	1.686291
0.823926	1.687430
0.824023	1.688841
0.824121	1.690564
0.824219	1.691812
0.824316	1.693895
0.824414	1.695111
0.824512	1.699234
0.824609	1.705766
0.824707	1.716254
0.824805	1.730131
0.824902	1.727455
0.825000	1.720051
0.825098	1.732507
0.825195	1.720919
0.825293	1.706769
0.825391	1.701017
0.825488	1.696429
0.825586	1.696023
0.825684	1.696141
0.825781	1.696279
0.825879	1.695679
0.825977	1.694903
0.826074	1.693938
0.826172	1.693099
0.826270	1.692322
0.826367	1.691577
0.826465	1.691390
0.826562	1.691239
0.826660	1.691916
0.826758	1.692472
0.826855	1.694187
0.826953	1.695349
0.827051	1.698472
0.827148	1.700098
0.827246	1.705735
0.827344	1.703386
0.827441	1.694167
0.827539	1.698582
0.827637	1.703139
0.827734	1.706251
0.827832	1.680487
0.827930	1.680881
0.828027	1.680071
0.828125	1.646769
0.828223	1.667491
0.828320	1.701638
0.828418	1.668203
0.828516	1.683485
0.828613	1.697237
0.828711	1.695894
0.828809	1.696477
0.828906	1.695440
0.829004	1.697974
0.829102	1.696491
0.829199	1.698329
0.829297	1.702036
0.829395	1.708242
0.829492	1.712206
0.829590	1.704807
0.829687	1.668131
0.829785	1.697725
0.829883	1.737457
0.829980	1.718540
0.830078	1.704767
0.830176	1.690264
0.830273	1.678725
0.830371	1.664737
0.830469	1.679969
0.830566	1.682375
0.830664	1.639255
0.830762	1.627103
0.830859	1.656854
0.830957	1.676619
0.831055	1.675498
0.831152	1.672068
0.831250	1.669567
0.831348	1.667403
0.831445	1.666766
0.831543	1.667545
0.831641	1.667962
0.831738	1.665379
0.831836	1.662577
0.831934	1.661163
0.832031	1.661984
0.832129	1.662480
0.832227	1.665479
0.832324	1.662045
0.832422	1.657853
0.832520	1.659345
0.832617	1.659110
0.832715	1.657436
0.832812	1.655759
0.832910	1.653584
0.833008	1.648387
0.833105	1.650233
0.833203	1.650759
0.833301	1.652780
0.833398	1.655605
0.833496	1.659453
0.833594	1.658040
0.833691	1.663393
0.833789	1.659480
0.833887	1.661812
0.833984	1.662312
0.834082	1.661819
0.834180	1.662287
0.834277	1.663060
0.834375	1.663903
0.834473	1.663863
0.834570	1.663067
0.834668	1.662033
0.834766	1.661362
0.834863	1.661828
0.834961	1.663461
0.835059	1.666331
0.835156	1.670140
0.835254	1.672633
0.835352	1.670950
0.835449	1.667125
0.835547	1.664845
0.835645	1.661945
0.835742	1.658535
0.835840	1.655276
0.835937	1.652998
0.836035	1.651073
0.836133	1.649846
0.836230	1.648759
0.836328	1.647966
0.836426	1.647467
0.836523	1.647027
0.836621	1.646906
0.836719	1.646800
0.836816	1.646991
0.836914	1.647324
0.837012	1.647792
0.837109	1.648338
0.837207	1.649034
0.837305	1.649929
0.837402	1.650870
0.837500	1.651886
0.837598	1.653049
0.837695	1.654322
0.837793	1.655635
0.837891	1.657068
0.837988	1.658648
0.838086	1.660203
0.838184	1.661990
0.838281	1.663776
0.838379	1.665600
0.838477	1.667597
0.838574	1.669651
0.838672	1.671915
0.838770	1.674200
0.838867	1.676173
0.838965	1.678293
0.839062	1.680049
0.839160	1.681973
0.839258	1.683390
0.839355	1.684571
0.839453	1.685419
0.839551	1.686771
0.839648	1.688165
0.839746	1.690492
0.839844	1.690721
0.839941	1.690553
0.840039	1.689057
0.840137	1.690599
0.840234	1.686784
0.840332	1.682544
0.840430	1.683769
0.840527	1.683479
0.840625	1.683960
0.840723	1.684106
0.840820	1.684813
0.840918	1.685281
0.841016	1.685940
0.841113	1.686868
0.841211	1.688598
0.841309	1.692677
0.841406	1.698545
0.841504	1.703809
0.841602	1.709050
0.841699	1.706126
0.841797	1.703326
0.841895	1.699999
0.841992	1.695172
0.842090	1.690134
0.842187	1.687399
0.842285	1.685984
0.842383	1.685896
0.842480	1.685976
0.842578	1.685460
0.842676	1.684562
0.842773	1.683802
0.842871	1.683318
0.842969	1.683244
0.843066	1.683758
0.843164	1.684711
0.843262	1.686241
0.843359	1.687873
0.843457	1.690079
0.843555	1.691779
0.843652	1.694846
0.843750	1.696138
0.843848	1.697893
0.843945	1.697932
0.844043	1.699822
0.844141	1.698879
0.844238	1.689399
0.844336	1.696689
0.844434	1.691307
0.844531	1.700812
0.844629	1.718202
0.844727	1.715035
0.844824	1.685541
0.844922	1.684739
0.845020	1.676011
0.845117	1.685508
0.845215	1.678170
0.845312	1.676752
0.845410	1.678330
0.845508	1.659182
0.845605	1.655795
0.845703	1.637696
0.845801	1.635659
0.845898	1.639684
0.845996	1.639562
0.846094	1.628608
0.846191	1.650231
0.846289	1.665479
0.846387	1.670460
0.846484	1.672995
0.846582	1.674683
0.846680	1.676098
0.846777	1.678520
0.846875	1.675194
0.846973	1.673330
0.847070	1.670620
0.847168	1.666584
0.847266	1.665216
0.847363	1.663354
0.847461	1.661413
0.847559	1.658995
0.847656	1.656803
0.847754	1.654756
0.847852	1.653065
0.847949	1.651424
0.848047	1.650247
0.848145	1.648999
0.848242	1.647978
0.848340	1.646983
0.848437	1.646212
0.848535	1.645501
0.848633	1.644769
0.848730	1.644137
0.848828	1.643568
0.848926	1.643216
0.849023	1.642740
0.849121	1.642501
0.849219	1.642261
0.849316	1.642064
0.849414	1.641965
0.849512	1.641976
0.849609	1.642023
0.849707	1.642233
0.849805	1.642679
0.849902	1.643218
0.850000	1.643722
0.850098	1.644336
0.850195	1.645082
0.850293	1.645896
0.850391	1.646882
0.850488	1.647974
0.850586	1.649013
0.850684	1.650280
0.850781	1.651625
0.850879	1.652958
0.850977	1.654411
0.851074	1.655817
0.851172	1.657264
0.851270	1.658866
0.851367	1.660308
0.851465	1.661913
0.851562	1.663465
0.851660	1.665078
0.851758	1.666644
0.851855	1.668230
0.851953	1.669770
0.852051	1.671266
0.852148	1.672996
0.852246	1.674523
0.852344	1.676176
0.852441	1.677925
0.852539	1.679633
0.852637	1.681344
0.852734	1.683061
0.852832	1.685051
0.852930	1.687501
0.853027	1.690404
0.853125	1.693195
0.853223	1.693866
0.853320	1.691924
0.853418	1.690497
0.853516	1.690636
0.853613	1.691411
0.853711	1.692279
0.853809	1.693441
0.853906	1.695310
0.854004	1.697377
0.854102	1.698750
0.854199	1.699521
0.854297	1.700456
0.854395	1.701749
0.854492	1.703524
0.854590	1.703940
0.854687	1.703433
0.854785	1.702437
0.854883	1.702236
0.854980	1.703700
0.855078	1.706138
0.855176	1.708195
0.855273	1.705378
0.855371	1.700792
0.855469	1.696880
0.855566	1.694101
0.855664	1.693526
0.855762	1.693868
0.855859	1.694301
0.855957	1.694735
0.856055	1.695341
0.856152	1.696005
0.856250	1.696662
0.856348	1.696966
0.856445	1.696804
0.856543	1.695935
0.856641	1.694534
0.856738	1.693210
0.856836	1.692469
0.856934	1.692363
0.857031	1.693052
0.857129	1.693625
0.857227	1.694796
0.857324	1.693955
0.857422	1.691196
0.857520	1.690630
0.857617	1.688819
0.857715	1.687107
0.857812	1.685642
0.857910	1.684644
0.858008	1.684229
0.858105	1.684386
0.858203	1.685154
0.858301	1.686401
0.858398	1.688086
0.858496	1.689943
0.858594	1.691954
0.858691	1.694150
0.858789	1.690969
0.858887	1.683229
0.858984	1.682759
0.859082	1.675580
0.859180	1.673396
0.859277	1.664829
0.859375	1.658139
0.859473	1.659600
0.859570	1.666738
0.859668	1.669509
0.859766	1.671971
0.859863	1.673833
0.859961	1.672471
0.860059	1.674402
0.860156	1.674025
0.860254	1.674792
0.860352	1.674565
0.860449	1.674939
0.860547	1.674025
0.860645	1.673227
0.860742	1.671591
0.860840	1.670283
0.860937	1.668690
0.861035	1.667588
0.861133	1.666339
0.861230	1.665549
0.861328	1.664510
0.861426	1.663785
0.861523	1.662864
0.861621	1.662009
0.861719	1.661186
0.861816	1.660428
0.861914	1.659981
0.862012	1.659885
0.862109	1.660194
0.862207	1.660879
0.862305	1.661770
0.862402	1.662988
0.862500	1.663965
0.862598	1.664935
0.862695	1.665286
0.862793	1.665925
0.862891	1.666235
0.862988	1.667820
0.863086	1.669706
0.863184	1.669691
0.863281	1.669247
0.863379	1.658278
0.863477	1.664394
0.863574	1.667198
0.863672	1.667288
0.863770	1.668813
0.863867	1.670093
0.863965	1.670974
0.864062	1.670787
0.864160	1.670298
0.864258	1.670706
0.864355	1.671854
0.864453	1.673464
0.864551	1.675025
0.864648	1.677316
0.864746	1.680444
0.864844	1.691479
0.864941	1.699836
0.865039	1.693519
0.865137	1.691759
0.865234	1.684768
0.865332	1.679320
0.865430	1.677517
0.865527	1.675810
0.865625	1.675857
0.865723	1.675885
0.865820	1.677336
0.865918	1.679240
0.866016	1.682578
0.866113	1.685555
0.866211	1.685368
0.866309	1.680442
0.866406	1.675710
0.866504	1.673573
0.866602	1.673265
0.866699	1.671621
0.866797	1.669395
0.866895	1.667975
0.866992	1.666995
0.867090	1.666389
0.867187	1.666204
0.867285	1.666258
0.867383	1.666357
0.867480	1.666703
0.867578	1.667153
0.867676	1.667578
0.867773	1.668303
0.867871	1.669257
0.867969	1.670559
0.868066	1.672063
0.868164	1.673836
0.868262	1.675789
0.868359	1.677812
0.868457	1.679705
0.868555	1.681385
0.868652	1.682809
0.868750	1.683909
0.868848	1.685048
0.868945	1.686087
0.869043	1.686890
0.869141	1.688056
0.869238	1.689657
0.869336	1.691271
0.869434	1.693026
0.869531	1.693899
0.869629	1.694161
0.869727	1.694492
0.869824	1.694257
0.869922	1.693664
0.870020	1.693415
0.870117	1.693586
0.870215	1.694085
0.870312	1.694989
0.870410	1.696108
0.870508	1.698641
0.870605	1.700707
0.870703	1.701097
0.870801	1.699316
0.870898	1.700608
0.870996	1.703032
0.871094	1.701965
0.871191	1.702148
0.871289	1.697927
0.871387	1.691587
0.871484	1.688417
0.871582	1.687238
0.871680	1.686512
0.871777	1.686009
0.871875	1.685535
0.871973	1.685284
0.872070	1.684752
0.872168	1.684357
0.872266	1.684077
0.872363	1.683892
0.872461	1.683659
0.872559	1.683568
0.872656	1.683316
0.872754	1.682826
0.872852	1.682150
0.872949	1.681718
0.873047	1.681613
0.873145	1.681998
0.873242	1.682681
0.873340	1.683449
0.873437	1.683584
0.873535	1.683033
0.873633	1.682023
0.873730	1.680465
0.873828	1.678432
0.873926	1.676037
0.874023	1.674002
0.874121	1.672204
0.874219	1.671106
0.874316	1.670279
0.874414	1.669818
0.874512	1.669435
0.874609	1.669086
0.874707	1.668880
0.874805	1.668632
0.874902	1.668555
0.875000	1.668385
0.875098	1.668339
0.875195	1.668212
0.875293	1.668167
0.875391	1.668108
0.875488	1.667968
0.875586	1.667757
0.875684	1.667664
0.875781	1.667552
0.875879	1.667207
0.875977	1.667090
0.876074	1.666905
0.876172	1.666733
0.876270	1.666473
0.876367	1.666430
0.876465	1.666305
0.876562	1.666307
0.876660	1.666326
0.876758	1.666448
0.876855	1.666448
0.876953	1.666634
0.877051	1.666849
0.877148	1.667004
0.877246	1.667178
0.877344	1.667196
0.877441	1.667120
0.877539	1.666996
0.877637	1.666693
0.877734	1.666530
0.877832	1.666312
0.877930	1.666093
0.878027	1.665863
0.878125	1.665593
0.878223	1.665330
0.878320	1.665033
0.878418	1.664801
0.878516	1.664511
0.878613	1.664374
0.878711	1.664073
0.878809	1.663900
0.878906	1.663780
0.879004	1.663702
0.879102	1.663646
0.879199	1.663696
0.879297	1.663837
0.879395	1.664032
0.879492	1.664200
0.879590	1.664464
0.879687	1.664782
0.879785	1.665256
0.879883	1.665922
0.879980	1.666513
0.880078	1.667241
0.880176	1.668079
0.880273	1.668989
0.880371	1.670025
0.880469	1.671087
0.880566	1.672389
0.880664	1.673694
0.880762	1.675095
0.880859	1.676618
0.880957	1.678243
0.881055	1.679957
0.881152	1.681885
0.881250	1.683713
0.881348	1.685726
0.881445	1.687729
0.881543	1.689860
0.881641	1.692307
0.881738	1.694925
0.881836	1.697725
0.881934	1.700111
0.882031	1.701194
0.882129	1.701476
0.882227	1.702394
0.882324	1.704205
0.882422	1.706757
0.882520	1.708515
0.882617	1.709131
0.882715	1.708981
0.882812	1.707073
0.882910	1.705572
0.883008	1.705315
0.883105	1.704775
0.883203	1.704427
0.883301	1.704657
0.883398	1.706073
0.883496	1.707870
0.883594	1.706647
0.883691	1.702240
0.883789	1.700490
0.883887	1.697533
0.883984	1.693063
0.884082	1.691228
0.884180	1.689899
0.884277	1.689978
0.884375	1.690350
0.884473	1.691917
0.884570	1.693063
0.884668	1.695220
0.884766	1.697478
0.884863	1.702325
0.884961	1.708451
0.885059	1.717011
0.885156	1.704001
0.885254	1.686258
0.885352	1.696254
0.885449	1.694862
0.885547	1.687314
0.885645	1.676503
0.885742	1.679385
0.885840	1.683472
0.885937	1.681435
0.886035	1.680479
0.886133	1.679915
0.886230	1.679789
0.886328	1.680009
0.886426	1.680235
0.886523	1.680114
0.886621	1.679326
0.886719	1.678027
0.886816	1.676205
0.886914	1.674493
0.887012	1.673247
0.887109	1.672395
0.887207	1.671887
0.887305	1.671480
0.887402	1.671098
0.887500	1.670742
0.887598	1.670356
0.887695	1.669938
0.887793	1.669596
0.887891	1.669279
0.887988	1.669079
0.888086	1.668836
0.888184	1.668846
0.888281	1.668782
0.888379	1.669103
0.888477	1.669656
0.888574	1.670797
0.888672	1.671841
0.888770	1.673025
0.888867	1.674174
0.888965	1.675689
0.889062	1.677314
0.889160	1.680494
0.889258	1.684077
0.889355	1.688787
0.889453	1.690574
0.889551	1.689915
0.889648	1.690414
0.889746	1.693361
0.889844	1.694609
0.889941	1.695133
0.890039	1.694289
0.890137	1.697889
0.890234	1.694952
0.890332	1.696887
0.890430	1.685152
0.890527	1.686895
0.890625	1.687646
0.890723	1.683454
0.890820	1.670776
0.890918	1.662231
0.891016	1.682454
0.891113	1.670046
0.891211	1.651199
0.891309	1.659857
0.891406	1.659378
0.891504	1.652074
0.891602	1.669059
0.891699	1.685754
0.891797	1.690494
0.891895	1.668998
0.891992	1.661144
0.892090	1.651316
0.892187	1.649530
0.892285	1.648381
0.892383	1.632938
0.892480	1.637718
0.892578	1.636696
0.892676	1.621421
0.892773	1.616103
0.892871	1.621806
0.892969	1.620531
0.893066	1.619320
0.893164	1.637207
0.893262	1.644913
0.893359	1.660181
0.893457	1.658931
0.893555	1.645638
0.893652	1.658873
0.893750	1.667284
0.893848	1.672209
0.893945	1.675646
0.894043	1.672380
0.894141	1.664829
0.894238	1.659613
0.894336	1.658650
0.894434	1.659097
0.894531	1.659831
0.894629	1.660590
0.894727	1.661340
0.894824	1.662005
0.894922	1.662754
0.895020	1.663291
0.895117	1.663779
0.895215	1.664222
0.895312	1.664570
0.895410	1.664989
0.895508	1.665227
0.895605	1.665889
0.895703	1.666585
0.895801	1.667559
0.895898	1.668435
0.895996	1.669181
0.896094	1.669637
0.896191	1.669640
0.896289	1.668710
0.896387	1.667432
0.896484	1.666100
0.896582	1.664727
0.896680	1.663406
0.896777	1.661920
0.896875	1.660804
0.896973	1.659691
0.897070	1.658742
0.897168	1.657685
0.897266	1.656842
0.897363	1.656453
0.897461	1.656182
0.897559	1.655861
0.897656	1.655632
0.897754	1.655412
0.897852	1.655440
0.897949	1.655477
0.898047	1.655541
0.898145	1.655750
0.898242	1.655785
0.898340	1.655887
0.898437	1.656050
0.898535	1.656246
0.898633	1.656313
0.898730	1.656595
0.898828	1.656956
0.898926	1.657194
0.899023	1.657550
0.899121	1.658046
0.899219	1.658427
0.899316	1.658975
0.899414	1.659560
0.899512	1.660171
0.899609	1.660829
0.899707	1.661421
0.899805	1.662314
0.899902	1.663150
0.900000	1.663974
0.900098	1.664861
0.900195	1.665762
0.900293	1.666655
0.900391	1.667474
0.900488	1.668464
0.900586	1.669401
0.900684	1.670388
0.900781	1.671357
0.900879	1.672534
0.900977	1.673640
0.901074	1.675010
0.901172	1.676451
0.901270	1.677945
0.901367	1.679565
0.901465	1.681166
0.901562	1.682258
0.901660	1.682664
0.901758	1.682622
0.901855	1.682347
0.901953	1.682136
0.902051	1.682000
0.902148	1.682361
0.902246	1.683188
0.902344	1.684686
0.902441	1.686662
0.902539	1.689015
0.902637	1.691371
0.902734	1.693495
0.902832	1.695070
0.902930	1.695667
0.903027	1.695994
0.903125	1.696002
0.903223	1.695804
0.903320	1.696202
0.903418	1.697207
0.903516	1.698721
0.903613	1.700518
0.903711	1.701647
0.903809	1.701374
0.903906	1.700094
0.904004	1.698159
0.904102	1.696122
0.904199	1.694424
0.904297	1.692997
0.904395	1.691749
0.904492	1.690621
0.904590	1.689545
0.904687	1.688555
0.904785	1.687884
0.904883	1.687401
0.904980	1.687114
0.905078	1.687330
0.905176	1.687625
0.905273	1.688363
0.905371	1.689340
0.905469	1.690646
0.905566	1.692112
0.905664	1.693976
0.905762	1.695811
0.905859	1.697899
0.905957	1.699704
0.906055	1.701563
0.906152	1.702981
0.906250	1.704756
0.906348	1.706017
0.906445	1.706190
0.906543	1.702885
0.906641	1.699888
0.906738	1.695967
0.906836	1.694403
0.906934	1.687632
0.907031	1.687689
0.907129	1.668992
0.907227	1.672626
0.907324	1.692998
0.907422	1.694984
0.907520	1.692822
0.907617	1.691691
0.907715	1.692290
0.907812	1.691680
0.907910	1.691833
0.908008	1.691331
0.908105	1.691347
0.908203	1.690852
0.908301	1.690740
0.908398	1.690232
0.908496	1.689863
0.908594	1.689331
0.908691	1.688799
0.908789	1.688252
0.908887	1.687888
0.908984	1.687686
0.909082	1.687592
0.909180	1.687607
0.909277	1.687611
0.909375	1.686756
0.909473	1.685575
0.909570	1.684098
0.909668	1.682462
0.909766	1.681219
0.909863	1.680192
0.909961	1.679287
0.910059	1.678441
0.910156	1.677458
0.910254	1.676513
0.910352	1.675596
0.910449	1.674972
0.910547	1.674217
0.910645	1.673353
0.910742	1.672444
0.910840	1.671375
0.910937	1.670346
0.911035	1.669106
0.911133	1.667902
0.911230	1.666874
0.911328	1.665730
0.911426	1.664753
0.911523	1.663849
0.911621	1.663158
0.911719	1.662476
0.911816	1.661939
0.911914	1.661420
0.912012	1.661014
0.912109	1.660811
0.912207	1.660759
0.912305	1.660891
0.912402	1.661017
0.912500	1.661321
0.912598	1.661783
0.912695	1.662389
0.912793	1.663028
0.912891	1.663742
0.912988	1.664472
0.913086	1.665164
0.913184	1.666061
0.913281	1.666933
0.913379	1.667961
0.913477	1.669073
0.913574	1.670262
0.913672	1.671536
0.913770	1.672671
0.913867	1.673602
0.913965	1.674374
0.914062	1.675119
0.914160	1.676096
0.914258	1.676970
0.914355	1.678001
0.914453	1.679348
0.914551	1.680581
0.914648	1.681799
0.914746	1.682776
0.914844	1.683352
0.914941	1.683511
0.915039	1.683182
0.915137	1.683054
0.915234	1.683273
0.915332	1.682902
0.915430	1.681056
0.915527	1.678717
0.915625	1.677058
0.915723	1.676685
0.915820	1.678198
0.915918	1.681942
0.916016	1.687770
0.916113	1.692986
0.916211	1.698696
0.916309	1.699654
0.916406	1.693570
0.916504	1.695386
0.916602	1.687230
0.916699	1.670475
0.916797	1.655221
0.916895	1.639199
0.916992	1.636415
0.917090	1.660269
0.917187	1.673626
0.917285	1.671381
0.917383	1.673915
0.917480	1.680934
0.917578	1.683662
0.917676	1.676394
0.917773	1.681004
0.917871	1.682195
0.917969	1.686138
0.918066	1.683050
0.918164	1.659769
0.918262	1.667486
0.918359	1.680237
0.918457	1.688902
0.918555	1.684290
0.918652	1.686695
0.918750	1.685247
0.918848	1.688047
0.918945	1.685248
0.919043	1.687400
0.919141	1.685905
0.919238	1.691954
0.919336	1.677764
0.919434	1.703763
0.919531	1.704073
0.919629	1.697730
0.919727	1.678260
0.919824	1.647409
0.919922	1.658645
0.920020	1.673686
0.920117	1.659460
0.920215	1.633872
0.920312	1.643377
0.920410	1.623873
0.920508	1.642183
0.920605	1.672628
0.920703	1.700055
0.920801	1.690859
0.920898	1.676992
0.920996	1.679082
0.921094	1.675805
0.921191	1.678029
0.921289	1.679737
0.921387	1.676512
0.921484	1.671297
0.921582	1.668104
0.921680	1.663380
0.921777	1.660605
0.921875	1.657918
0.921973	1.656858
0.922070	1.655577
0.922168	1.655405
0.922266	1.655108
0.922363	1.655670
0.922461	1.656672
0.922559	1.657253
0.922656	1.658259
0.922754	1.662001
0.922852	1.661681
0.922949	1.662570
0.923047	1.665362
0.923145	1.668269
0.923242	1.671797
0.923340	1.677083
0.923437	1.681027
0.923535	1.679075
0.923633	1.679180
0.923730	1.679739
0.923828	1.679810
0.923926	1.680473
0.924023	1.679727
0.924121	1.678177
0.924219	1.677363
0.924316	1.677001
0.924414	1.676611
0.924512	1.676441
0.924609	1.675768
0.924707	1.675591
0.924805	1.674971
0.924902	1.675508
0.925000	1.675531
0.925098	1.677158
0.925195	1.678222
0.925293	1.682732
0.925391	1.688138
0.925488	1.699976
0.925586	1.695828
0.925684	1.704034
0.925781	1.697807
0.925879	1.672309
0.925977	1.663632
0.926074	1.639438
0.926172	1.620081
0.926270	1.654987
0.926367	1.617638
0.926465	1.599190
0.926562	1.622431
0.926660	1.603466
0.926758	1.581019
0.926855	1.562964
0.926953	1.552641
0.927051	1.567033
0.927148	1.595332
0.927246	1.606633
0.927344	1.590770
0.927441	1.560563
0.927539	1.555888
0.927637	1.548211
0.927734	1.563986
0.927832	1.588859
0.927930	1.594689
0.928027	1.611410
0.928125	1.652967
0.928223	1.672557
0.928320	1.677803
0.928418	1.670529
0.928516	1.665351
0.928613	1.690033
0.928711	1.678111
0.928809	1.677763
0.928906	1.672217
0.929004	1.696377
0.929102	1.693085
0.929199	1.687134
0.929297	1.665059
0.929395	1.639602
0.929492	1.647734
0.929590	1.664756
0.929687	1.673611
0.929785	1.672853
0.929883	1.679398
0.929980	1.668079
0.930078	1.639817
0.930176	1.641776
0.930273	1.621078
0.930371	1.620369
0.930469	1.630567
0.930566	1.656272
0.930664	1.639338
0.930762	1.639346
0.930859	1.635027
0.930957	1.625355
0.931055	1.640757
0.931152	1.654047
0.931250	1.632676
0.931348	1.630356
0.931445	1.659569
0.931543	1.678256
0.931641	1.649966
0.931738	1.619223
0.931836	1.605893
0.931934	1.603260
0.932031	1.599578
0.932129	1.590630
0.932227	1.588006
0.932324	1.586115
0.932422	1.569796
0.932520	1.570866
0.932617	1.634465
0.932715	1.661014
0.932812	1.647814
0.932910	1.634266
0.933008	1.647571
0.933105	1.635729
0.933203	1.592624
0.933301	1.611151
0.933398	1.646268
0.933496	1.658248
0.933594	1.656008
0.933691	1.661830
0.933789	1.664274
0.933887	1.667743
0.933984	1.669027
0.934082	1.671442
0.934180	1.672715
0.934277	1.674917
0.934375	1.676304
0.934473	1.678464
0.934570	1.680107
0.934668	1.682159
0.934766	1.683757
0.934863	1.685773
0.934961	1.687183
0.935059	1.688453
0.935156	1.689210
0.935254	1.689314
0.935352	1.688582
0.935449	1.687268
0.935547	1.685868
0.935645	1.684763
0.935742	1.683903
0.935840	1.683469
0.935937	1.683338
0.936035	1.683433
0.936133	1.683670
0.936230	1.684138
0.936328	1.684696
0.936426	1.685292
0.936523	1.686073
0.936621	1.687230
0.936719	1.689163
0.936816	1.692265
0.936914	1.690075
0.937012	1.691243
0.937109	1.687654
0.937207	1.684889
0.937305	1.685368
0.937402	1.686784
0.937500	1.688091
0.937598	1.688875
0.937695	1.688920
0.937793	1.688315
0.937891	1.687511
0.937988	1.686698
0.938086	1.686092
0.938184	1.684472
0.938281	1.682554
0.938379	1.681300
0.938477	1.681103
0.938574	1.681203
0.938672	1.681515
0.938770	1.682520
0.938867	1.684141
0.938965	1.685602
0.939062	1.685347
0.939160	1.684470
0.939258	1.684067
0.939355	1.684118
0.939453	1.684434
0.939551	1.685234
0.939648	1.686481
0.939746	1.688205
0.939844	1.689500
0.939941	1.689942
0.940039	1.689459
0.940137	1.688737
0.940234	1.687936
0.940332	1.687236
0.940430	1.686729
0.940527	1.686383
0.940625	1.686283
0.940723	1.686141
0.940820	1.685997
0.940918	1.685968
0.941016	1.686092
0.941113	1.686721
0.941211	1.687812
0.941309	1.689757
0.941406	1.691889
0.941504	1.692938
0.941602	1.692364
0.941699	1.691949
0.941797	1.690979
0.941895	1.690460
0.941992	1.689032
0.942090	1.688468
0.942187	1.687729
0.942285	1.692662
0.942383	1.695430
0.942480	1.695469
0.942578	1.690505
0.942676	1.698197
0.942773	1.703178
0.942871	1.713194
0.942969	1.727078
0.943066	1.723230
0.943164	1.716522
0.943262	1.699615
0.943359	1.689331
0.943457	1.688505
0.943555	1.677674
0.943652	1.663270
0.943750	1.647731
0.943848	1.675722
0.943945	1.668118
0.944043	1.638278
0.944141	1.636569
0.944238	1.627084
0.944336	1.618753
0.944434	1.577877
0.944531	1.557419
0.944629	1.547569
0.944727	1.546154
0.944824	1.553333
0.944922	1.550653
0.945020	1.537850
0.945117	1.513950
0.945215	1.495661
0.945312	1.494658
0.945410	1.510478
0.945508	1.519380
0.945605	1.522360
0.945703	1.513962
0.945801	1.509048
0.945898	1.496899
0.945996	1.484190
0.946094	1.477396
0.946191	1.469405
0.946289	1.481788
0.946387	1.503795
0.946484	1.528244
0.946582	1.518498
0.946680	1.516128
0.946777	1.540507
0.946875	1.535501
0.946973	1.538107
0.947070	1.583060
0.947168	1.623197
0.947266	1.653357
0.947363	1.664673
0.947461	1.667412
0.947559	1.666944
0.947656	1.667315
0.947754	1.674703
0.947852	1.672432
0.947949	1.673516
0.948047	1.680889
0.948145	1.679698
0.948242	1.673536
0.948340	1.679677
0.948437	1.687027
0.948535	1.682254
0.948633	1.675354
0.948730	1.674215
0.948828	1.672221
0.948926	1.669579
0.949023	1.668198
0.949121	1.667416
0.949219	1.666775
0.949316	1.666181
0.949414	1.665748
0.949512	1.665474
0.949609	1.665268
0.949707	1.665352
0.949805	1.665885
0.949902	1.666542
0.950000	1.667610
0.950098	1.668677
0.950195	1.669922
0.950293	1.671070
0.950391	1.672135
0.950488	1.673026
0.950586	1.673477
0.950684	1.674020
0.950781	1.674277
0.950879	1.675065
0.950977	1.675428
0.951074	1.675342
0.951172	1.671174
0.951270	1.657189
0.951367	1.647153
0.951465	1.643508
0.951562	1.628098
0.951660	1.635126
0.951758	1.681068
0.951855	1.695924
0.951953	1.677982
0.952051	1.675642
0.952148	1.678006
0.952246	1.682889
0.952344	1.689923
0.952441	1.695562
0.952539	1.689181
0.952637	1.683314
0.952734	1.684669
0.952832	1.683164
0.952930	1.686034
0.953027	1.686517
0.953125	1.688924
0.953223	1.689676
0.953320	1.691615
0.953418	1.692147
0.953516	1.693276
0.953613	1.693058
0.953711	1.693619
0.953809	1.692299
0.953906	1.692301
0.954004	1.693354
0.954102	1.693681
0.954199	1.691765
0.954297	1.693597
0.954395	1.694536
0.954492	1.689079
0.954590	1.685469
0.954687	1.685581
0.954785	1.686962
0.954883	1.697081
0.954980	1.683218
0.955078	1.674884
0.955176	1.671185
0.955273	1.665078
0.955371	1.659663
0.955469	1.654002
0.955566	1.665056
0.955664	1.688913
0.955762	1.695728
0.955859	1.673188
0.955957	1.645167
0.956055	1.636468
0.956152	1.608212
0.956250	1.546830
0.956348	1.571615
0.956445	1.576326
0.956543	1.559505
0.956641	1.550373
0.956738	1.536318
0.956836	1.513191
0.956934	1.500645
0.957031	1.503888
0.957129	1.517587
0.957227	1.541028
0.957324	1.525978
0.957422	1.550282
0.957520	1.569979
0.957617	1.589812
0.957715	1.574376
0.957812	1.597547
0.957910	1.619342
0.958008	1.592901
0.958105	1.555916
0.958203	1.580332
0.958301	1.590368
0.958398	1.581640
0.958496	1.578082
0.958594	1.562805
0.958691	1.596988
0.958789	1.587844
0.958887	1.592523
0.958984	1.613177
0.959082	1.624148
0.959180	1.618738
0.959277	1.627149
0.959375	1.627591
0.959473	1.634086
0.959570	1.644061
0.959668	1.650529
0.959766	1.650431
0.959863	1.651473
0.959961	1.646651
0.960059	1.648848
0.960156	1.646746
0.960254	1.656210
0.960352	1.658529
0.960449	1.679574
0.960547	1.653769
0.960645	1.654596
0.960742	1.684659
0.960840	1.676452
0.960937	1.685286
0.961035	1.671802
0.961133	1.682729
0.961230	1.700293
0.961328	1.698838
0.961426	1.691807
0.961523	1.697135
0.961621	1.689791
0.961719	1.691996
0.961816	1.677956
0.961914	1.671114
0.962012	1.664825
0.962109	1.663187
0.962207	1.659867
0.962305	1.660438
0.962402	1.658996
0.962500	1.657919
0.962598	1.657349
0.962695	1.657331
0.962793	1.656914
0.962891	1.656870
0.962988	1.656186
0.963086	1.655592
0.963184	1.654469
0.963281	1.653357
0.963379	1.652166
0.963477	1.651193
0.963574	1.650137
0.963672	1.649394
0.963770	1.648852
0.963867	1.648299
0.963965	1.648036
0.964062	1.647801
0.964160	1.647770
0.964258	1.647844
0.964355	1.648119
0.964453	1.648405
0.964551	1.649013
0.964648	1.649621
0.964746	1.650379
0.964844	1.651225
0.964941	1.651892
0.965039	1.652808
0.965137	1.653629
0.965234	1.654673
0.965332	1.655690
0.965430	1.656689
0.965527	1.657730
0.965625	1.658732
0.965723	1.659651
0.965820	1.660445
0.965918	1.661246
0.966016	1.661895
0.966113	1.662522
0.966211	1.663038
0.966309	1.663655
0.966406	1.664101
0.966504	1.664559
0.966602	1.664869
0.966699	1.665057
0.966797	1.665264
0.966895	1.665379
0.966992	1.665603
0.967090	1.665986
0.967187	1.666564
0.967285	1.667095
0.967383	1.667687
0.967480	1.668435
0.967578	1.669141
0.967676	1.669861
0.967773	1.670445
0.967871	1.671133
0.967969	1.671691
0.968066	1.672125
0.968164	1.672576
0.968262	1.672854
0.968359	1.673194
0.968457	1.673441
0.968555	1.673720
0.968652	1.674102
0.968750	1.674470
0.968848	1.674809
0.968945	1.675218
0.969043	1.675703
0.969141	1.676196
0.969238	1.676738
0.969336	1.677338
0.969434	1.677982
0.969531	1.678623
0.969629	1.679295
0.969727	1.679879
0.969824	1.680668
0.969922	1.681553
0.970020	1.682671
0.970117	1.684094
0.970215	1.685902
0.970312	1.687832
0.970410	1.690410
0.970508	1.692634
0.970605	1.692804
0.970703	1.693340
0.970801	1.694018
0.970898	1.695444
0.970996	1.702105
0.971094	1.705284
0.971191	1.697019
0.971289	1.689477
0.971387	1.684499
0.971484	1.697014
0.971582	1.688871
0.971680	1.676713
0.971777	1.683012
0.971875	1.681395
0.971973	1.683426
0.972070	1.683955
0.972168	1.688891
0.972266	1.692379
0.972363	1.699696
0.972461	1.706835
0.972559	1.702735
0.972656	1.675405
0.972754	1.684211
0.972852	1.685575
0.972949	1.700529
0.973047	1.703287
0.973145	1.703305
0.973242	1.705975
0.973340	1.698334
0.973437	1.697656
0.973535	1.699004
0.973633	1.695251
0.973730	1.698168
0.973828	1.700812
0.973926	1.698890
0.974023	1.674932
0.974121	1.650580
0.974219	1.675025
0.974316	1.666019
0.974414	1.638955
0.974512	1.673541
0.974609	1.688122
0.974707	1.647184
0.974805	1.665174
0.974902	1.675700
0.975000	1.675840
0.975098	1.682653
0.975195	1.694010
0.975293	1.691300
0.975391	1.706898
0.975488	1.710445
0.975586	1.701777
0.975684	1.702779
0.975781	1.677181
0.975879	1.670950
0.975977	1.672561
0.976074	1.651812
0.976172	1.645222
0.976270	1.636314
0.976367	1.647979
0.976465	1.634739

