LabVIEW Measurement	
Writer_Version	2
Reader_Version	2
Separator	Tab
Decimal_Separator	.
Multi_Headings	Yes
X_Columns	One
Time_Pref	Absolute
Operator	W-Tunnel
Date	1904/01/01
Time	01:00:00
***End_of_Header***	
	
Channels	1	
Samples	10000	
Date	2024/05/17	
Time	18:27:57.65177095624967492	
Y_Unit_Label	Volts	
X_Dimension	Time	
X0	0.0000000000000000E+0	
Delta_X	9.765625E-5	
***End_of_Header***		
X_Value	Voltage	Comment
0.000000	1.638100
9.765625E-5	1.638127
0.000195	1.638147
0.000293	1.638117
0.000391	1.638191
0.000488	1.638174
0.000586	1.638130
0.000684	1.638066
0.000781	1.638107
0.000879	1.638084
0.000977	1.638089
0.001074	1.638079
0.001172	1.638059
0.001270	1.638059
0.001367	1.638000
0.001465	1.638000
0.001562	1.637953
0.001660	1.637963
0.001758	1.637908
0.001855	1.637887
0.001953	1.637724
0.002051	1.637816
0.002148	1.637815
0.002246	1.637843
0.002344	1.637815
0.002441	1.637821
0.002539	1.637743
0.002637	1.637759
0.002734	1.637771
0.002832	1.637726
0.002930	1.637735
0.003027	1.637738
0.003125	1.637681
0.003223	1.637745
0.003320	1.637666
0.003418	1.637721
0.003516	1.637760
0.003613	1.637679
0.003711	1.637800
0.003809	1.637751
0.003906	1.637690
0.004004	1.637718
0.004102	1.637728
0.004199	1.637738
0.004297	1.637825
0.004395	1.637809
0.004492	1.637790
0.004590	1.637803
0.004687	1.637830
0.004785	1.637856
0.004883	1.637831
0.004980	1.637791
0.005078	1.637870
0.005176	1.637904
0.005273	1.637868
0.005371	1.637897
0.005469	1.637889
0.005566	1.637857
0.005664	1.637956
0.005762	1.637904
0.005859	1.637982
0.005957	1.637917
0.006055	1.637904
0.006152	1.637931
0.006250	1.638006
0.006348	1.637919
0.006445	1.638015
0.006543	1.637942
0.006641	1.637934
0.006738	1.638012
0.006836	1.637962
0.006934	1.637986
0.007031	1.637915
0.007129	1.638020
0.007227	1.638003
0.007324	1.638025
0.007422	1.638014
0.007520	1.638069
0.007617	1.638105
0.007715	1.638020
0.007812	1.638108
0.007910	1.638056
0.008008	1.638110
0.008105	1.638167
0.008203	1.638163
0.008301	1.638152
0.008398	1.638222
0.008496	1.638127
0.008594	1.638174
0.008691	1.638163
0.008789	1.638192
0.008887	1.638250
0.008984	1.638203
0.009082	1.638077
0.009180	1.638138
0.009277	1.638072
0.009375	1.638163
0.009473	1.638125
0.009570	1.638138
0.009668	1.638264
0.009766	1.638135
0.009863	1.638243
0.009961	1.638170
0.010059	1.638143
0.010156	1.638104
0.010254	1.638156
0.010352	1.638185
0.010449	1.638229
0.010547	1.638156
0.010645	1.638196
0.010742	1.638205
0.010840	1.638181
0.010937	1.638194
0.011035	1.638160
0.011133	1.638210
0.011230	1.638173
0.011328	1.638191
0.011426	1.638221
0.011523	1.638250
0.011621	1.638246
0.011719	1.638196
0.011816	1.638207
0.011914	1.638227
0.012012	1.638216
0.012109	1.638324
0.012207	1.638360
0.012305	1.638498
0.012402	1.638427
0.012500	1.638488
0.012598	1.638462
0.012695	1.638505
0.012793	1.638543
0.012891	1.638567
0.012988	1.638560
0.013086	1.638564
0.013184	1.638627
0.013281	1.638549
0.013379	1.638563
0.013477	1.638588
0.013574	1.638551
0.013672	1.638580
0.013770	1.638590
0.013867	1.638512
0.013965	1.638540
0.014062	1.638613
0.014160	1.638553
0.014258	1.638476
0.014355	1.638500
0.014453	1.638580
0.014551	1.638498
0.014648	1.638444
0.014746	1.638483
0.014844	1.638450
0.014941	1.638410
0.015039	1.638341
0.015137	1.638340
0.015234	1.638398
0.015332	1.638421
0.015430	1.638380
0.015527	1.638424
0.015625	1.638354
0.015723	1.638331
0.015820	1.638409
0.015918	1.638315
0.016016	1.638410
0.016113	1.638346
0.016211	1.638352
0.016309	1.638402
0.016406	1.638387
0.016504	1.638452
0.016602	1.638419
0.016699	1.638492
0.016797	1.638528
0.016895	1.638443
0.016992	1.638572
0.017090	1.638578
0.017187	1.638559
0.017285	1.638581
0.017383	1.638632
0.017480	1.638578
0.017578	1.638568
0.017676	1.638640
0.017773	1.638617
0.017871	1.638620
0.017969	1.638658
0.018066	1.638683
0.018164	1.638691
0.018262	1.638770
0.018359	1.638699
0.018457	1.638658
0.018555	1.638771
0.018652	1.638661
0.018750	1.638695
0.018848	1.638707
0.018945	1.638744
0.019043	1.638656
0.019141	1.638670
0.019238	1.638700
0.019336	1.638607
0.019434	1.638679
0.019531	1.638643
0.019629	1.638693
0.019727	1.638699
0.019824	1.638703
0.019922	1.638712
0.020020	1.638612
0.020117	1.638570
0.020215	1.638500
0.020312	1.638566
0.020410	1.638559
0.020508	1.638463
0.020605	1.638476
0.020703	1.638488
0.020801	1.638388
0.020898	1.638484
0.020996	1.638387
0.021094	1.638374
0.021191	1.638389
0.021289	1.638357
0.021387	1.638382
0.021484	1.638322
0.021582	1.638304
0.021680	1.638273
0.021777	1.638210
0.021875	1.638175
0.021973	1.638089
0.022070	1.638168
0.022168	1.638232
0.022266	1.638180
0.022363	1.638212
0.022461	1.638088
0.022559	1.638200
0.022656	1.638178
0.022754	1.638136
0.022852	1.638168
0.022949	1.638189
0.023047	1.638088
0.023145	1.638247
0.023242	1.638151
0.023340	1.638196
0.023437	1.638222
0.023535	1.638289
0.023633	1.638139
0.023730	1.638268
0.023828	1.638232
0.023926	1.638336
0.024023	1.638357
0.024121	1.638263
0.024219	1.638391
0.024316	1.638276
0.024414	1.638349
0.024512	1.638299
0.024609	1.638332
0.024707	1.638368
0.024805	1.638392
0.024902	1.638446
0.025000	1.638422
0.025098	1.638427
0.025195	1.638410
0.025293	1.638401
0.025391	1.638399
0.025488	1.638353
0.025586	1.638429
0.025684	1.638409
0.025781	1.638437
0.025879	1.638454
0.025977	1.638402
0.026074	1.638488
0.026172	1.638396
0.026270	1.638411
0.026367	1.638355
0.026465	1.638466
0.026562	1.638440
0.026660	1.638396
0.026758	1.638461
0.026855	1.638443
0.026953	1.638443
0.027051	1.638433
0.027148	1.638386
0.027246	1.638347
0.027344	1.638368
0.027441	1.638398
0.027539	1.638371
0.027637	1.638400
0.027734	1.638345
0.027832	1.638363
0.027930	1.638356
0.028027	1.638360
0.028125	1.638430
0.028223	1.638412
0.028320	1.638481
0.028418	1.638401
0.028516	1.638461
0.028613	1.638430
0.028711	1.638499
0.028809	1.638585
0.028906	1.638427
0.029004	1.638507
0.029102	1.638371
0.029199	1.638453
0.029297	1.638399
0.029395	1.638378
0.029492	1.638458
0.029590	1.638499
0.029687	1.638493
0.029785	1.638492
0.029883	1.638487
0.029980	1.638467
0.030078	1.638471
0.030176	1.638534
0.030273	1.638515
0.030371	1.638603
0.030469	1.638554
0.030566	1.638563
0.030664	1.638547
0.030762	1.638595
0.030859	1.638531
0.030957	1.638572
0.031055	1.638541
0.031152	1.638577
0.031250	1.638546
0.031348	1.638549
0.031445	1.638568
0.031543	1.638517
0.031641	1.638499
0.031738	1.638587
0.031836	1.638484
0.031934	1.638398
0.032031	1.638440
0.032129	1.638499
0.032227	1.638449
0.032324	1.638512
0.032422	1.638464
0.032520	1.638474
0.032617	1.638443
0.032715	1.638517
0.032812	1.638506
0.032910	1.638539
0.033008	1.638460
0.033105	1.638431
0.033203	1.638434
0.033301	1.638452
0.033398	1.638401
0.033496	1.638374
0.033594	1.638443
0.033691	1.638418
0.033789	1.638474
0.033887	1.638460
0.033984	1.638533
0.034082	1.638437
0.034180	1.638471
0.034277	1.638489
0.034375	1.638429
0.034473	1.638556
0.034570	1.638506
0.034668	1.638471
0.034766	1.638461
0.034863	1.638455
0.034961	1.638417
0.035059	1.638493
0.035156	1.638506
0.035254	1.638526
0.035352	1.638560
0.035449	1.638556
0.035547	1.638604
0.035645	1.638551
0.035742	1.638607
0.035840	1.638651
0.035937	1.638671
0.036035	1.638698
0.036133	1.638678
0.036230	1.638662
0.036328	1.638738
0.036426	1.638731
0.036523	1.638722
0.036621	1.638705
0.036719	1.638720
0.036816	1.638744
0.036914	1.638738
0.037012	1.638750
0.037109	1.638753
0.037207	1.638756
0.037305	1.638816
0.037402	1.638766
0.037500	1.638789
0.037598	1.638811
0.037695	1.638842
0.037793	1.638809
0.037891	1.638873
0.037988	1.638969
0.038086	1.638938
0.038184	1.638920
0.038281	1.638917
0.038379	1.638925
0.038477	1.638961
0.038574	1.638946
0.038672	1.638996
0.038770	1.639010
0.038867	1.639069
0.038965	1.639032
0.039062	1.639033
0.039160	1.638921
0.039258	1.638908
0.039355	1.638825
0.039453	1.638955
0.039551	1.638920
0.039648	1.638922
0.039746	1.638944
0.039844	1.638999
0.039941	1.638913
0.040039	1.638896
0.040137	1.638911
0.040234	1.638875
0.040332	1.638856
0.040430	1.638816
0.040527	1.638905
0.040625	1.638776
0.040723	1.638820
0.040820	1.638873
0.040918	1.638823
0.041016	1.638739
0.041113	1.638700
0.041211	1.638776
0.041309	1.638664
0.041406	1.638739
0.041504	1.638686
0.041602	1.638762
0.041699	1.638715
0.041797	1.638689
0.041895	1.638674
0.041992	1.638562
0.042090	1.638699
0.042187	1.638718
0.042285	1.638714
0.042383	1.638775
0.042480	1.638834
0.042578	1.638806
0.042676	1.638785
0.042773	1.638718
0.042871	1.638830
0.042969	1.638786
0.043066	1.638806
0.043164	1.638855
0.043262	1.638909
0.043359	1.638924
0.043457	1.638805
0.043555	1.638914
0.043652	1.639027
0.043750	1.638878
0.043848	1.638984
0.043945	1.639008
0.044043	1.638952
0.044141	1.639023
0.044238	1.638925
0.044336	1.638947
0.044434	1.639027
0.044531	1.638991
0.044629	1.639066
0.044727	1.639032
0.044824	1.639050
0.044922	1.639039
0.045020	1.639076
0.045117	1.638978
0.045215	1.639021
0.045312	1.639069
0.045410	1.639072
0.045508	1.639012
0.045605	1.638989
0.045703	1.638955
0.045801	1.638991
0.045898	1.638903
0.045996	1.638947
0.046094	1.638872
0.046191	1.638889
0.046289	1.638840
0.046387	1.638850
0.046484	1.638941
0.046582	1.638900
0.046680	1.638874
0.046777	1.638813
0.046875	1.638812
0.046973	1.638705
0.047070	1.638716
0.047168	1.638721
0.047266	1.638669
0.047363	1.638650
0.047461	1.638636
0.047559	1.638589
0.047656	1.638580
0.047754	1.638527
0.047852	1.638518
0.047949	1.638451
0.048047	1.638438
0.048145	1.638408
0.048242	1.638356
0.048340	1.638326
0.048437	1.638284
0.048535	1.638353
0.048633	1.638261
0.048730	1.638275
0.048828	1.638228
0.048926	1.638223
0.049023	1.638132
0.049121	1.638120
0.049219	1.638080
0.049316	1.638070
0.049414	1.638023
0.049512	1.638029
0.049609	1.638058
0.049707	1.638060
0.049805	1.638019
0.049902	1.638049
0.050000	1.638107
0.050098	1.638036
0.050195	1.638059
0.050293	1.638081
0.050391	1.638031
0.050488	1.638081
0.050586	1.638113
0.050684	1.638158
0.050781	1.638048
0.050879	1.638117
0.050977	1.638055
0.051074	1.638191
0.051172	1.638092
0.051270	1.638103
0.051367	1.638126
0.051465	1.638054
0.051562	1.638115
0.051660	1.638071
0.051758	1.637992
0.051855	1.638027
0.051953	1.637884
0.052051	1.638000
0.052148	1.638030
0.052246	1.638026
0.052344	1.638028
0.052441	1.638048
0.052539	1.638067
0.052637	1.637988
0.052734	1.638022
0.052832	1.637978
0.052930	1.637956
0.053027	1.637876
0.053125	1.637929
0.053223	1.637920
0.053320	1.638022
0.053418	1.637912
0.053516	1.637927
0.053613	1.638011
0.053711	1.637934
0.053809	1.637880
0.053906	1.637936
0.054004	1.637821
0.054102	1.637978
0.054199	1.637983
0.054297	1.637976
0.054395	1.637988
0.054492	1.637983
0.054590	1.638010
0.054687	1.637983
0.054785	1.638031
0.054883	1.638049
0.054980	1.638069
0.055078	1.638127
0.055176	1.638122
0.055273	1.638172
0.055371	1.638081
0.055469	1.638200
0.055566	1.638114
0.055664	1.638144
0.055762	1.638113
0.055859	1.638084
0.055957	1.638141
0.056055	1.638141
0.056152	1.638117
0.056250	1.638065
0.056348	1.638085
0.056445	1.637997
0.056543	1.638116
0.056641	1.638156
0.056738	1.638086
0.056836	1.638228
0.056934	1.638192
0.057031	1.638089
0.057129	1.638174
0.057227	1.638170
0.057324	1.638151
0.057422	1.638227
0.057520	1.638164
0.057617	1.638100
0.057715	1.638146
0.057812	1.638140
0.057910	1.638171
0.058008	1.638130
0.058105	1.638136
0.058203	1.638221
0.058301	1.638230
0.058398	1.638229
0.058496	1.638185
0.058594	1.638280
0.058691	1.638120
0.058789	1.638299
0.058887	1.638208
0.058984	1.638252
0.059082	1.638142
0.059180	1.638183
0.059277	1.638106
0.059375	1.638171
0.059473	1.638133
0.059570	1.638104
0.059668	1.638178
0.059766	1.638165
0.059863	1.638086
0.059961	1.638152
0.060059	1.638097
0.060156	1.638113
0.060254	1.638025
0.060352	1.638056
0.060449	1.638022
0.060547	1.638064
0.060645	1.638055
0.060742	1.638096
0.060840	1.638065
0.060937	1.638184
0.061035	1.638128
0.061133	1.638171
0.061230	1.638058
0.061328	1.638139
0.061426	1.638140
0.061523	1.638171
0.061621	1.638147
0.061719	1.638189
0.061816	1.638228
0.061914	1.638145
0.062012	1.638143
0.062109	1.638191
0.062207	1.638307
0.062305	1.638313
0.062402	1.638315
0.062500	1.638351
0.062598	1.638323
0.062695	1.638408
0.062793	1.638311
0.062891	1.638356
0.062988	1.638351
0.063086	1.638396
0.063184	1.638296
0.063281	1.638286
0.063379	1.638308
0.063477	1.638320
0.063574	1.638336
0.063672	1.638263
0.063770	1.638321
0.063867	1.638251
0.063965	1.638227
0.064062	1.638222
0.064160	1.638224
0.064258	1.638247
0.064355	1.638126
0.064453	1.638179
0.064551	1.638164
0.064648	1.638139
0.064746	1.638092
0.064844	1.638153
0.064941	1.638073
0.065039	1.638030
0.065137	1.638006
0.065234	1.637965
0.065332	1.637998
0.065430	1.637915
0.065527	1.638004
0.065625	1.637967
0.065723	1.637883
0.065820	1.637903
0.065918	1.637902
0.066016	1.637861
0.066113	1.637879
0.066211	1.637875
0.066309	1.637837
0.066406	1.637858
0.066504	1.637830
0.066602	1.637840
0.066699	1.637790
0.066797	1.637803
0.066895	1.637859
0.066992	1.637842
0.067090	1.637959
0.067187	1.637806
0.067285	1.637906
0.067383	1.637843
0.067480	1.637863
0.067578	1.637928
0.067676	1.637809
0.067773	1.637934
0.067871	1.637955
0.067969	1.637943
0.068066	1.637989
0.068164	1.638001
0.068262	1.638063
0.068359	1.638031
0.068457	1.638007
0.068555	1.638103
0.068652	1.638040
0.068750	1.638111
0.068848	1.638165
0.068945	1.638092
0.069043	1.638086
0.069141	1.638109
0.069238	1.638016
0.069336	1.637982
0.069434	1.638081
0.069531	1.638119
0.069629	1.638088
0.069727	1.638157
0.069824	1.638053
0.069922	1.638046
0.070020	1.638059
0.070117	1.638017
0.070215	1.638036
0.070312	1.638048
0.070410	1.638019
0.070508	1.638011
0.070605	1.638018
0.070703	1.637997
0.070801	1.638001
0.070898	1.637952
0.070996	1.637932
0.071094	1.637884
0.071191	1.637914
0.071289	1.637943
0.071387	1.637903
0.071484	1.637902
0.071582	1.637895
0.071680	1.637868
0.071777	1.637821
0.071875	1.637781
0.071973	1.637693
0.072070	1.637794
0.072168	1.637908
0.072266	1.637759
0.072363	1.637857
0.072461	1.637811
0.072559	1.637821
0.072656	1.637832
0.072754	1.637754
0.072852	1.637847
0.072949	1.637759
0.073047	1.637821
0.073145	1.637729
0.073242	1.637749
0.073340	1.637785
0.073437	1.637779
0.073535	1.637806
0.073633	1.637753
0.073730	1.637712
0.073828	1.637696
0.073926	1.637693
0.074023	1.637662
0.074121	1.637654
0.074219	1.637621
0.074316	1.637665
0.074414	1.637652
0.074512	1.637598
0.074609	1.637673
0.074707	1.637610
0.074805	1.637688
0.074902	1.637615
0.075000	1.637609
0.075098	1.637565
0.075195	1.637605
0.075293	1.637540
0.075391	1.637626
0.075488	1.637624
0.075586	1.637646
0.075684	1.637707
0.075781	1.637650
0.075879	1.637703
0.075977	1.637731
0.076074	1.637743
0.076172	1.637645
0.076270	1.637688
0.076367	1.637773
0.076465	1.637724
0.076562	1.637846
0.076660	1.637835
0.076758	1.637897
0.076855	1.637837
0.076953	1.637842
0.077051	1.637840
0.077148	1.637882
0.077246	1.637870
0.077344	1.637911
0.077441	1.637903
0.077539	1.637900
0.077637	1.637872
0.077734	1.637913
0.077832	1.637882
0.077930	1.637926
0.078027	1.637914
0.078125	1.637931
0.078223	1.637981
0.078320	1.637958
0.078418	1.638049
0.078516	1.637987
0.078613	1.638061
0.078711	1.637945
0.078809	1.637995
0.078906	1.637985
0.079004	1.637977
0.079102	1.637873
0.079199	1.637926
0.079297	1.637887
0.079395	1.637835
0.079492	1.637919
0.079590	1.637953
0.079687	1.637933
0.079785	1.637948
0.079883	1.637865
0.079980	1.637898
0.080078	1.637840
0.080176	1.637870
0.080273	1.637923
0.080371	1.637865
0.080469	1.637934
0.080566	1.637897
0.080664	1.637921
0.080762	1.637861
0.080859	1.637867
0.080957	1.637865
0.081055	1.637873
0.081152	1.637853
0.081250	1.637765
0.081348	1.637780
0.081445	1.637798
0.081543	1.637860
0.081641	1.637798
0.081738	1.637768
0.081836	1.637746
0.081934	1.637654
0.082031	1.637641
0.082129	1.637861
0.082227	1.637818
0.082324	1.637941
0.082422	1.637904
0.082520	1.637899
0.082617	1.637891
0.082715	1.637872
0.082812	1.637965
0.082910	1.637967
0.083008	1.637980
0.083105	1.638025
0.083203	1.638039
0.083301	1.638037
0.083398	1.637967
0.083496	1.638037
0.083594	1.637994
0.083691	1.638047
0.083789	1.638086
0.083887	1.637984
0.083984	1.638072
0.084082	1.638011
0.084180	1.637994
0.084277	1.637978
0.084375	1.637992
0.084473	1.637971
0.084570	1.637945
0.084668	1.637977
0.084766	1.637900
0.084863	1.638002
0.084961	1.637916
0.085059	1.637908
0.085156	1.637925
0.085254	1.637876
0.085352	1.637915
0.085449	1.637923
0.085547	1.637873
0.085645	1.637877
0.085742	1.637906
0.085840	1.637893
0.085937	1.637889
0.086035	1.637905
0.086133	1.637933
0.086230	1.637980
0.086328	1.637886
0.086426	1.637987
0.086523	1.637950
0.086621	1.638022
0.086719	1.637959
0.086816	1.637957
0.086914	1.637976
0.087012	1.637980
0.087109	1.637958
0.087207	1.637983
0.087305	1.637991
0.087402	1.637996
0.087500	1.637980
0.087598	1.638056
0.087695	1.637983
0.087793	1.638023
0.087891	1.638031
0.087988	1.638094
0.088086	1.638027
0.088184	1.638123
0.088281	1.637992
0.088379	1.637991
0.088477	1.638080
0.088574	1.638027
0.088672	1.638041
0.088770	1.638008
0.088867	1.637958
0.088965	1.638066
0.089062	1.637962
0.089160	1.637949
0.089258	1.637881
0.089355	1.637903
0.089453	1.637940
0.089551	1.638011
0.089648	1.637897
0.089746	1.637939
0.089844	1.637987
0.089941	1.637948
0.090039	1.637967
0.090137	1.637903
0.090234	1.637991
0.090332	1.637976
0.090430	1.637983
0.090527	1.638034
0.090625	1.638053
0.090723	1.638043
0.090820	1.638129
0.090918	1.638126
0.091016	1.638072
0.091113	1.638125
0.091211	1.638099
0.091309	1.638092
0.091406	1.638138
0.091504	1.638115
0.091602	1.638152
0.091699	1.638172
0.091797	1.638228
0.091895	1.638057
0.091992	1.638083
0.092090	1.638161
0.092187	1.638207
0.092285	1.638158
0.092383	1.638169
0.092480	1.638202
0.092578	1.638218
0.092676	1.638172
0.092773	1.638171
0.092871	1.638190
0.092969	1.638120
0.093066	1.638146
0.093164	1.638245
0.093262	1.638133
0.093359	1.638235
0.093457	1.638174
0.093555	1.638163
0.093652	1.638185
0.093750	1.638142
0.093848	1.638159
0.093945	1.638097
0.094043	1.638254
0.094141	1.638231
0.094238	1.638192
0.094336	1.638130
0.094434	1.638213
0.094531	1.638208
0.094629	1.638244
0.094727	1.638174
0.094824	1.638252
0.094922	1.638174
0.095020	1.638167
0.095117	1.638228
0.095215	1.638200
0.095312	1.638251
0.095410	1.638149
0.095508	1.638294
0.095605	1.638258
0.095703	1.638300
0.095801	1.638290
0.095898	1.638290
0.095996	1.638318
0.096094	1.638247
0.096191	1.638119
0.096289	1.638252
0.096387	1.638219
0.096484	1.638231
0.096582	1.638211
0.096680	1.638117
0.096777	1.638166
0.096875	1.638166
0.096973	1.638242
0.097070	1.638099
0.097168	1.638225
0.097266	1.638234
0.097363	1.638196
0.097461	1.638241
0.097559	1.638300
0.097656	1.638258
0.097754	1.638270
0.097852	1.638313
0.097949	1.638262
0.098047	1.638289
0.098145	1.638316
0.098242	1.638343
0.098340	1.638323
0.098437	1.638285
0.098535	1.638310
0.098633	1.638269
0.098730	1.638316
0.098828	1.638358
0.098926	1.638348
0.099023	1.638289
0.099121	1.638315
0.099219	1.638274
0.099316	1.638234
0.099414	1.638312
0.099512	1.638353
0.099609	1.638392
0.099707	1.638427
0.099805	1.638358
0.099902	1.638367
0.100000	1.638376
0.100098	1.638382
0.100195	1.638409
0.100293	1.638413
0.100391	1.638481
0.100488	1.638440
0.100586	1.638461
0.100684	1.638470
0.100781	1.638416
0.100879	1.638473
0.100977	1.638490
0.101074	1.638560
0.101172	1.638543
0.101270	1.638530
0.101367	1.638568
0.101465	1.638629
0.101562	1.638665
0.101660	1.638624
0.101758	1.638640
0.101855	1.638593
0.101953	1.638577
0.102051	1.638604
0.102148	1.638729
0.102246	1.638708
0.102344	1.638702
0.102441	1.638651
0.102539	1.638699
0.102637	1.638678
0.102734	1.638690
0.102832	1.638703
0.102930	1.638648
0.103027	1.638661
0.103125	1.638557
0.103223	1.638534
0.103320	1.638584
0.103418	1.638495
0.103516	1.638515
0.103613	1.638524
0.103711	1.638461
0.103809	1.638490
0.103906	1.638459
0.104004	1.638360
0.104102	1.638327
0.104199	1.638335
0.104297	1.638315
0.104395	1.638383
0.104492	1.638359
0.104590	1.638330
0.104687	1.638337
0.104785	1.638372
0.104883	1.638276
0.104980	1.638365
0.105078	1.638328
0.105176	1.638388
0.105273	1.638365
0.105371	1.638351
0.105469	1.638378
0.105566	1.638336
0.105664	1.638338
0.105762	1.638332
0.105859	1.638445
0.105957	1.638428
0.106055	1.638443
0.106152	1.638441
0.106250	1.638421
0.106348	1.638502
0.106445	1.638476
0.106543	1.638496
0.106641	1.638562
0.106738	1.638506
0.106836	1.638584
0.106934	1.638527
0.107031	1.638539
0.107129	1.638582
0.107227	1.638593
0.107324	1.638624
0.107422	1.638663
0.107520	1.638677
0.107617	1.638644
0.107715	1.638659
0.107812	1.638694
0.107910	1.638717
0.108008	1.638798
0.108105	1.638759
0.108203	1.638784
0.108301	1.638765
0.108398	1.638694
0.108496	1.638857
0.108594	1.638805
0.108691	1.638844
0.108789	1.638859
0.108887	1.638848
0.108984	1.638899
0.109082	1.638747
0.109180	1.638864
0.109277	1.638778
0.109375	1.638784
0.109473	1.638934
0.109570	1.638902
0.109668	1.638961
0.109766	1.638957
0.109863	1.638964
0.109961	1.638872
0.110059	1.638852
0.110156	1.638914
0.110254	1.638870
0.110352	1.638873
0.110449	1.638888
0.110547	1.638922
0.110645	1.638846
0.110742	1.638913
0.110840	1.638793
0.110937	1.638828
0.111035	1.638786
0.111133	1.638801
0.111230	1.638722
0.111328	1.638758
0.111426	1.638775
0.111523	1.638699
0.111621	1.638716
0.111719	1.638673
0.111816	1.638677
0.111914	1.638499
0.112012	1.638567
0.112109	1.638617
0.112207	1.638662
0.112305	1.638733
0.112402	1.638629
0.112500	1.638712
0.112598	1.638686
0.112695	1.638726
0.112793	1.638737
0.112891	1.638721
0.112988	1.638715
0.113086	1.638711
0.113184	1.638719
0.113281	1.638678
0.113379	1.638734
0.113477	1.638666
0.113574	1.638723
0.113672	1.638761
0.113770	1.638736
0.113867	1.638814
0.113965	1.638754
0.114062	1.638770
0.114160	1.638712
0.114258	1.638675
0.114355	1.638632
0.114453	1.638650
0.114551	1.638635
0.114648	1.638620
0.114746	1.638715
0.114844	1.638678
0.114941	1.638628
0.115039	1.638667
0.115137	1.638679
0.115234	1.638666
0.115332	1.638585
0.115430	1.638636
0.115527	1.638723
0.115625	1.638661
0.115723	1.638681
0.115820	1.638655
0.115918	1.638665
0.116016	1.638668
0.116113	1.638736
0.116211	1.638801
0.116309	1.638690
0.116406	1.638793
0.116504	1.638759
0.116602	1.638796
0.116699	1.638760
0.116797	1.638805
0.116895	1.638761
0.116992	1.638769
0.117090	1.638780
0.117187	1.638798
0.117285	1.638797
0.117383	1.638726
0.117480	1.638928
0.117578	1.638753
0.117676	1.638877
0.117773	1.638820
0.117871	1.638800
0.117969	1.638850
0.118066	1.638844
0.118164	1.638858
0.118262	1.638877
0.118359	1.638911
0.118457	1.638790
0.118555	1.638837
0.118652	1.638830
0.118750	1.638806
0.118848	1.638912
0.118945	1.638809
0.119043	1.638769
0.119141	1.638748
0.119238	1.638717
0.119336	1.638722
0.119434	1.638744
0.119531	1.638701
0.119629	1.638773
0.119727	1.638872
0.119824	1.638787
0.119922	1.638798
0.120020	1.638775
0.120117	1.638766
0.120215	1.638796
0.120312	1.638841
0.120410	1.638798
0.120508	1.638865
0.120605	1.638828
0.120703	1.638841
0.120801	1.638880
0.120898	1.638859
0.120996	1.638913
0.121094	1.638974
0.121191	1.638895
0.121289	1.638952
0.121387	1.638911
0.121484	1.638969
0.121582	1.638967
0.121680	1.638970
0.121777	1.638869
0.121875	1.638869
0.121973	1.638792
0.122070	1.638873
0.122168	1.638871
0.122266	1.638865
0.122363	1.638826
0.122461	1.638849
0.122559	1.638819
0.122656	1.638889
0.122754	1.638804
0.122852	1.638770
0.122949	1.638834
0.123047	1.638833
0.123145	1.638826
0.123242	1.638729
0.123340	1.638740
0.123437	1.638796
0.123535	1.638754
0.123633	1.638805
0.123730	1.638747
0.123828	1.638708
0.123926	1.638705
0.124023	1.638657
0.124121	1.638690
0.124219	1.638697
0.124316	1.638679
0.124414	1.638623
0.124512	1.638661
0.124609	1.638648
0.124707	1.638579
0.124805	1.638656
0.124902	1.638522
0.125000	1.638521
0.125098	1.638543
0.125195	1.638519
0.125293	1.638523
0.125391	1.638489
0.125488	1.638449
0.125586	1.638430
0.125684	1.638410
0.125781	1.638449
0.125879	1.638504
0.125977	1.638397
0.126074	1.638493
0.126172	1.638368
0.126270	1.638370
0.126367	1.638366
0.126465	1.638402
0.126562	1.638373
0.126660	1.638361
0.126758	1.638363
0.126855	1.638352
0.126953	1.638345
0.127051	1.638336
0.127148	1.638436
0.127246	1.638303
0.127344	1.638427
0.127441	1.638360
0.127539	1.638323
0.127637	1.638370
0.127734	1.638294
0.127832	1.638312
0.127930	1.638289
0.128027	1.638322
0.128125	1.638370
0.128223	1.638377
0.128320	1.638343
0.128418	1.638337
0.128516	1.638368
0.128613	1.638271
0.128711	1.638363
0.128809	1.638291
0.128906	1.638318
0.129004	1.638269
0.129102	1.638155
0.129199	1.638169
0.129297	1.638185
0.129395	1.638177
0.129492	1.638207
0.129590	1.638160
0.129687	1.638250
0.129785	1.638221
0.129883	1.638312
0.129980	1.638192
0.130078	1.638258
0.130176	1.638329
0.130273	1.638261
0.130371	1.638313
0.130469	1.638264
0.130566	1.638318
0.130664	1.638372
0.130762	1.638373
0.130859	1.638407
0.130957	1.638392
0.131055	1.638446
0.131152	1.638412
0.131250	1.638421
0.131348	1.638458
0.131445	1.638423
0.131543	1.638463
0.131641	1.638446
0.131738	1.638343
0.131836	1.638457
0.131934	1.638311
0.132031	1.638324
0.132129	1.638413
0.132227	1.638457
0.132324	1.638438
0.132422	1.638422
0.132520	1.638391
0.132617	1.638387
0.132715	1.638415
0.132812	1.638376
0.132910	1.638407
0.133008	1.638411
0.133105	1.638359
0.133203	1.638467
0.133301	1.638446
0.133398	1.638413
0.133496	1.638373
0.133594	1.638453
0.133691	1.638424
0.133789	1.638451
0.133887	1.638493
0.133984	1.638405
0.134082	1.638506
0.134180	1.638465
0.134277	1.638570
0.134375	1.638551
0.134473	1.638561
0.134570	1.638576
0.134668	1.638527
0.134766	1.638502
0.134863	1.638410
0.134961	1.638543
0.135059	1.638498
0.135156	1.638498
0.135254	1.638461
0.135352	1.638385
0.135449	1.638439
0.135547	1.638396
0.135645	1.638427
0.135742	1.638383
0.135840	1.638387
0.135937	1.638423
0.136035	1.638376
0.136133	1.638341
0.136230	1.638266
0.136328	1.638370
0.136426	1.638267
0.136523	1.638267
0.136621	1.638250
0.136719	1.638297
0.136816	1.638300
0.136914	1.638259
0.137012	1.638278
0.137109	1.638266
0.137207	1.638251
0.137305	1.638255
0.137402	1.638340
0.137500	1.638210
0.137598	1.638260
0.137695	1.638294
0.137793	1.638277
0.137891	1.638362
0.137988	1.638326
0.138086	1.638319
0.138184	1.638344
0.138281	1.638407
0.138379	1.638321
0.138477	1.638319
0.138574	1.638303
0.138672	1.638205
0.138770	1.638192
0.138867	1.638249
0.138965	1.638214
0.139062	1.638105
0.139160	1.638045
0.139258	1.638011
0.139355	1.637934
0.139453	1.637916
0.139551	1.637928
0.139648	1.637933
0.139746	1.637904
0.139844	1.637955
0.139941	1.637845
0.140039	1.637820
0.140137	1.637846
0.140234	1.637815
0.140332	1.637798
0.140430	1.637776
0.140527	1.637724
0.140625	1.637782
0.140723	1.637800
0.140820	1.637754
0.140918	1.637812
0.141016	1.637784
0.141113	1.637779
0.141211	1.637713
0.141309	1.637668
0.141406	1.637753
0.141504	1.637714
0.141602	1.637760
0.141699	1.637797
0.141797	1.637796
0.141895	1.637681
0.141992	1.637808
0.142090	1.637873
0.142187	1.637872
0.142285	1.637892
0.142383	1.637917
0.142480	1.637949
0.142578	1.637996
0.142676	1.637983
0.142773	1.638044
0.142871	1.637932
0.142969	1.637983
0.143066	1.638084
0.143164	1.638056
0.143262	1.638090
0.143359	1.638008
0.143457	1.638183
0.143555	1.638092
0.143652	1.638184
0.143750	1.638131
0.143848	1.638111
0.143945	1.638171
0.144043	1.638059
0.144141	1.638082
0.144238	1.638150
0.144336	1.638128
0.144434	1.638094
0.144531	1.638066
0.144629	1.638139
0.144727	1.638121
0.144824	1.638138
0.144922	1.638138
0.145020	1.638120
0.145117	1.638061
0.145215	1.638110
0.145312	1.638061
0.145410	1.638032
0.145508	1.638068
0.145605	1.638089
0.145703	1.638124
0.145801	1.638010
0.145898	1.638066
0.145996	1.638059
0.146094	1.638059
0.146191	1.638033
0.146289	1.638035
0.146387	1.638042
0.146484	1.638090
0.146582	1.638098
0.146680	1.638024
0.146777	1.638042
0.146875	1.638053
0.146973	1.638103
0.147070	1.638057
0.147168	1.638038
0.147266	1.638028
0.147363	1.638050
0.147461	1.638055
0.147559	1.638041
0.147656	1.637989
0.147754	1.638041
0.147852	1.638023
0.147949	1.638066
0.148047	1.638033
0.148145	1.638008
0.148242	1.638048
0.148340	1.638022
0.148437	1.638047
0.148535	1.638081
0.148633	1.638046
0.148730	1.638088
0.148828	1.638067
0.148926	1.638088
0.149023	1.638028
0.149121	1.638024
0.149219	1.637953
0.149316	1.638018
0.149414	1.638020
0.149512	1.638039
0.149609	1.638069
0.149707	1.638055
0.149805	1.638046
0.149902	1.638041
0.150000	1.637965
0.150098	1.638047
0.150195	1.638014
0.150293	1.638086
0.150391	1.638006
0.150488	1.637925
0.150586	1.637964
0.150684	1.637926
0.150781	1.637875
0.150879	1.637895
0.150977	1.637933
0.151074	1.637845
0.151172	1.637883
0.151270	1.637875
0.151367	1.637817
0.151465	1.637753
0.151562	1.637780
0.151660	1.637780
0.151758	1.637640
0.151855	1.637606
0.151953	1.637595
0.152051	1.637638
0.152148	1.637529
0.152246	1.637553
0.152344	1.637643
0.152441	1.637562
0.152539	1.637547
0.152637	1.637554
0.152734	1.637542
0.152832	1.637488
0.152930	1.637471
0.153027	1.637452
0.153125	1.637468
0.153223	1.637359
0.153320	1.637435
0.153418	1.637345
0.153516	1.637460
0.153613	1.637310
0.153711	1.637415
0.153809	1.637360
0.153906	1.637366
0.154004	1.637408
0.154102	1.637374
0.154199	1.637431
0.154297	1.637441
0.154395	1.637408
0.154492	1.637309
0.154590	1.637427
0.154687	1.637317
0.154785	1.637310
0.154883	1.637363
0.154980	1.637326
0.155078	1.637441
0.155176	1.637380
0.155273	1.637383
0.155371	1.637366
0.155469	1.637339
0.155566	1.637428
0.155664	1.637409
0.155762	1.637413
0.155859	1.637391
0.155957	1.637388
0.156055	1.637357
0.156152	1.637399
0.156250	1.637358
0.156348	1.637410
0.156445	1.637397
0.156543	1.637478
0.156641	1.637444
0.156738	1.637422
0.156836	1.637444
0.156934	1.637457
0.157031	1.637443
0.157129	1.637502
0.157227	1.637404
0.157324	1.637477
0.157422	1.637419
0.157520	1.637443
0.157617	1.637525
0.157715	1.637477
0.157812	1.637491
0.157910	1.637477
0.158008	1.637450
0.158105	1.637442
0.158203	1.637535
0.158301	1.637528
0.158398	1.637509
0.158496	1.637576
0.158594	1.637588
0.158691	1.637604
0.158789	1.637642
0.158887	1.637555
0.158984	1.637621
0.159082	1.637549
0.159180	1.637581
0.159277	1.637476
0.159375	1.637511
0.159473	1.637545
0.159570	1.637630
0.159668	1.637546
0.159766	1.637676
0.159863	1.637612
0.159961	1.637641
0.160059	1.637607
0.160156	1.637615
0.160254	1.637580
0.160352	1.637637
0.160449	1.637600
0.160547	1.637688
0.160645	1.637601
0.160742	1.637660
0.160840	1.637718
0.160937	1.637749
0.161035	1.637663
0.161133	1.637720
0.161230	1.637703
0.161328	1.637723
0.161426	1.637801
0.161523	1.637800
0.161621	1.637857
0.161719	1.637822
0.161816	1.637760
0.161914	1.637731
0.162012	1.637804
0.162109	1.637846
0.162207	1.637837
0.162305	1.637890
0.162402	1.637876
0.162500	1.637933
0.162598	1.637873
0.162695	1.637955
0.162793	1.637960
0.162891	1.637905
0.162988	1.637883
0.163086	1.637967
0.163184	1.637983
0.163281	1.637950
0.163379	1.637955
0.163477	1.637925
0.163574	1.637948
0.163672	1.637925
0.163770	1.637949
0.163867	1.637884
0.163965	1.637870
0.164062	1.637920
0.164160	1.637818
0.164258	1.637837
0.164355	1.637928
0.164453	1.637820
0.164551	1.637800
0.164648	1.637836
0.164746	1.637834
0.164844	1.637860
0.164941	1.637831
0.165039	1.637811
0.165137	1.637802
0.165234	1.637836
0.165332	1.637787
0.165430	1.637806
0.165527	1.637851
0.165625	1.637791
0.165723	1.637790
0.165820	1.637785
0.165918	1.637765
0.166016	1.637837
0.166113	1.637793
0.166211	1.637780
0.166309	1.637840
0.166406	1.637730
0.166504	1.637755
0.166602	1.637743
0.166699	1.637757
0.166797	1.637777
0.166895	1.637790
0.166992	1.637765
0.167090	1.637843
0.167187	1.637772
0.167285	1.637798
0.167383	1.637816
0.167480	1.637857
0.167578	1.637803
0.167676	1.637815
0.167773	1.637773
0.167871	1.637783
0.167969	1.637850
0.168066	1.637768
0.168164	1.637843
0.168262	1.637786
0.168359	1.637903
0.168457	1.637820
0.168555	1.637815
0.168652	1.637803
0.168750	1.637830
0.168848	1.637917
0.168945	1.637864
0.169043	1.637825
0.169141	1.637800
0.169238	1.637719
0.169336	1.637781
0.169434	1.637794
0.169531	1.637821
0.169629	1.637743
0.169727	1.637789
0.169824	1.637800
0.169922	1.637812
0.170020	1.637781
0.170117	1.637802
0.170215	1.637806
0.170312	1.637760
0.170410	1.637791
0.170508	1.637730
0.170605	1.637699
0.170703	1.637671
0.170801	1.637674
0.170898	1.637638
0.170996	1.637563
0.171094	1.637662
0.171191	1.637488
0.171289	1.637527
0.171387	1.637400
0.171484	1.637465
0.171582	1.637443
0.171680	1.637472
0.171777	1.637389
0.171875	1.637330
0.171973	1.637257
0.172070	1.637360
0.172168	1.637396
0.172266	1.637410
0.172363	1.637441
0.172461	1.637417
0.172559	1.637409
0.172656	1.637433
0.172754	1.637528
0.172852	1.637468
0.172949	1.637567
0.173047	1.637557
0.173145	1.637590
0.173242	1.637583
0.173340	1.637554
0.173437	1.637587
0.173535	1.637598
0.173633	1.637641
0.173730	1.637668
0.173828	1.637693
0.173926	1.637691
0.174023	1.637659
0.174121	1.637635
0.174219	1.637774
0.174316	1.637725
0.174414	1.637755
0.174512	1.637825
0.174609	1.637829
0.174707	1.637865
0.174805	1.637777
0.174902	1.637864
0.175000	1.637897
0.175098	1.637920
0.175195	1.637890
0.175293	1.637925
0.175391	1.637931
0.175488	1.637975
0.175586	1.637997
0.175684	1.638003
0.175781	1.638059
0.175879	1.638009
0.175977	1.637985
0.176074	1.638003
0.176172	1.637989
0.176270	1.638019
0.176367	1.638033
0.176465	1.638011
0.176562	1.638057
0.176660	1.637997
0.176758	1.637961
0.176855	1.638005
0.176953	1.637969
0.177051	1.638075
0.177148	1.637981
0.177246	1.638031
0.177344	1.637975
0.177441	1.637972
0.177539	1.637990
0.177637	1.638055
0.177734	1.637969
0.177832	1.637998
0.177930	1.637961
0.178027	1.637970
0.178125	1.638041
0.178223	1.638070
0.178320	1.638102
0.178418	1.638028
0.178516	1.638082
0.178613	1.638017
0.178711	1.638085
0.178809	1.638137
0.178906	1.638125
0.179004	1.638039
0.179102	1.638073
0.179199	1.637958
0.179297	1.637993
0.179395	1.638017
0.179492	1.637986
0.179590	1.638034
0.179687	1.638084
0.179785	1.638089
0.179883	1.638071
0.179980	1.638026
0.180078	1.638044
0.180176	1.638022
0.180273	1.638093
0.180371	1.638100
0.180469	1.638060
0.180566	1.637991
0.180664	1.638109
0.180762	1.638044
0.180859	1.638077
0.180957	1.638095
0.181055	1.638106
0.181152	1.638063
0.181250	1.638103
0.181348	1.638095
0.181445	1.638095
0.181543	1.638030
0.181641	1.638110
0.181738	1.638057
0.181836	1.638041
0.181934	1.637936
0.182031	1.638052
0.182129	1.638075
0.182227	1.638130
0.182324	1.638214
0.182422	1.638174
0.182520	1.638257
0.182617	1.638163
0.182715	1.638186
0.182812	1.638141
0.182910	1.638152
0.183008	1.638171
0.183105	1.638170
0.183203	1.638192
0.183301	1.638150
0.183398	1.638178
0.183496	1.638167
0.183594	1.638185
0.183691	1.638215
0.183789	1.638148
0.183887	1.638209
0.183984	1.638211
0.184082	1.638212
0.184180	1.638210
0.184277	1.638120
0.184375	1.638243
0.184473	1.638150
0.184570	1.638232
0.184668	1.638213
0.184766	1.638207
0.184863	1.638221
0.184961	1.638252
0.185059	1.638139
0.185156	1.638311
0.185254	1.638247
0.185352	1.638322
0.185449	1.638293
0.185547	1.638366
0.185645	1.638344
0.185742	1.638405
0.185840	1.638377
0.185937	1.638332
0.186035	1.638403
0.186133	1.638424
0.186230	1.638470
0.186328	1.638427
0.186426	1.638457
0.186523	1.638449
0.186621	1.638429
0.186719	1.638481
0.186816	1.638438
0.186914	1.638535
0.187012	1.638441
0.187109	1.638463
0.187207	1.638457
0.187305	1.638498
0.187402	1.638448
0.187500	1.638503
0.187598	1.638473
0.187695	1.638411
0.187793	1.638407
0.187891	1.638498
0.187988	1.638396
0.188086	1.638507
0.188184	1.638470
0.188281	1.638368
0.188379	1.638399
0.188477	1.638410
0.188574	1.638370
0.188672	1.638302
0.188770	1.638291
0.188867	1.638291
0.188965	1.638288
0.189062	1.638228
0.189160	1.638218
0.189258	1.638169
0.189355	1.638158
0.189453	1.638207
0.189551	1.638197
0.189648	1.638219
0.189746	1.638210
0.189844	1.638230
0.189941	1.638172
0.190039	1.638134
0.190137	1.638164
0.190234	1.638182
0.190332	1.638123
0.190430	1.638219
0.190527	1.638134
0.190625	1.638202
0.190723	1.638189
0.190820	1.638155
0.190918	1.638153
0.191016	1.638137
0.191113	1.638165
0.191211	1.638115
0.191309	1.638143
0.191406	1.638178
0.191504	1.638155
0.191602	1.638156
0.191699	1.638159
0.191797	1.638137
0.191895	1.638125
0.191992	1.638128
0.192090	1.638159
0.192187	1.638183
0.192285	1.638184
0.192383	1.638183
0.192480	1.638266
0.192578	1.638236
0.192676	1.638286
0.192773	1.638208
0.192871	1.638196
0.192969	1.638173
0.193066	1.638190
0.193164	1.638181
0.193262	1.638182
0.193359	1.638221
0.193457	1.638208
0.193555	1.638192
0.193652	1.638211
0.193750	1.638177
0.193848	1.638164
0.193945	1.638241
0.194043	1.638248
0.194141	1.638189
0.194238	1.638189
0.194336	1.638286
0.194434	1.638210
0.194531	1.638204
0.194629	1.638239
0.194727	1.638239
0.194824	1.638160
0.194922	1.638262
0.195020	1.638210
0.195117	1.638115
0.195215	1.638136
0.195312	1.638103
0.195410	1.638112
0.195508	1.638084
0.195605	1.638087
0.195703	1.638102
0.195801	1.638123
0.195898	1.638149
0.195996	1.638098
0.196094	1.638072
0.196191	1.638125
0.196289	1.638155
0.196387	1.638139
0.196484	1.638123
0.196582	1.638165
0.196680	1.638076
0.196777	1.638052
0.196875	1.638057
0.196973	1.638136
0.197070	1.638186
0.197168	1.638125
0.197266	1.638091
0.197363	1.638122
0.197461	1.638034
0.197559	1.638052
0.197656	1.637975
0.197754	1.637995
0.197852	1.638071
0.197949	1.638063
0.198047	1.638042
0.198145	1.638022
0.198242	1.638068
0.198340	1.637980
0.198437	1.638110
0.198535	1.638116
0.198633	1.638072
0.198730	1.638151
0.198828	1.638102
0.198926	1.638135
0.199023	1.638094
0.199121	1.638039
0.199219	1.638064
0.199316	1.637956
0.199414	1.638100
0.199512	1.638071
0.199609	1.638079
0.199707	1.638128
0.199805	1.638104
0.199902	1.638149
0.200000	1.638080
0.200098	1.638114
0.200195	1.638105
0.200293	1.638233
0.200391	1.638188
0.200488	1.638195
0.200586	1.638213
0.200684	1.638201
0.200781	1.638229
0.200879	1.638247
0.200977	1.638298
0.201074	1.638252
0.201172	1.638246
0.201270	1.638283
0.201367	1.638322
0.201465	1.638279
0.201562	1.638352
0.201660	1.638343
0.201758	1.638296
0.201855	1.638209
0.201953	1.638199
0.202051	1.638207
0.202148	1.638362
0.202246	1.638321
0.202344	1.638290
0.202441	1.638307
0.202539	1.638186
0.202637	1.638235
0.202734	1.638124
0.202832	1.638171
0.202930	1.638216
0.203027	1.638178
0.203125	1.638162
0.203223	1.638137
0.203320	1.638192
0.203418	1.638088
0.203516	1.638145
0.203613	1.638097
0.203711	1.638145
0.203809	1.638111
0.203906	1.638169
0.204004	1.638199
0.204102	1.638117
0.204199	1.638203
0.204297	1.638214
0.204395	1.638189
0.204492	1.638236
0.204590	1.638257
0.204687	1.638214
0.204785	1.638258
0.204883	1.638202
0.204980	1.638256
0.205078	1.638234
0.205176	1.638249
0.205273	1.638222
0.205371	1.638274
0.205469	1.638247
0.205566	1.638234
0.205664	1.638263
0.205762	1.638162
0.205859	1.638299
0.205957	1.638232
0.206055	1.638270
0.206152	1.638250
0.206250	1.638290
0.206348	1.638177
0.206445	1.638241
0.206543	1.638188
0.206641	1.638209
0.206738	1.638224
0.206836	1.638199
0.206934	1.638166
0.207031	1.638213
0.207129	1.638146
0.207227	1.638204
0.207324	1.638155
0.207422	1.638118
0.207520	1.638243
0.207617	1.638077
0.207715	1.638199
0.207812	1.638101
0.207910	1.638228
0.208008	1.638158
0.208105	1.638249
0.208203	1.638267
0.208301	1.638263
0.208398	1.638285
0.208496	1.638236
0.208594	1.638268
0.208691	1.638239
0.208789	1.638266
0.208887	1.638372
0.208984	1.638278
0.209082	1.638225
0.209180	1.638246
0.209277	1.638218
0.209375	1.638256
0.209473	1.638318
0.209570	1.638322
0.209668	1.638410
0.209766	1.638404
0.209863	1.638345
0.209961	1.638262
0.210059	1.638315
0.210156	1.638300
0.210254	1.638353
0.210352	1.638432
0.210449	1.638369
0.210547	1.638495
0.210645	1.638361
0.210742	1.638466
0.210840	1.638383
0.210937	1.638413
0.211035	1.638417
0.211133	1.638332
0.211230	1.638412
0.211328	1.638400
0.211426	1.638395
0.211523	1.638391
0.211621	1.638340
0.211719	1.638405
0.211816	1.638252
0.211914	1.638128
0.212012	1.638299
0.212109	1.638426
0.212207	1.638292
0.212305	1.638316
0.212402	1.638270
0.212500	1.638295
0.212598	1.638268
0.212695	1.638310
0.212793	1.638296
0.212891	1.638221
0.212988	1.638263
0.213086	1.638218
0.213184	1.638312
0.213281	1.638277
0.213379	1.638242
0.213477	1.638210
0.213574	1.638269
0.213672	1.638191
0.213770	1.638211
0.213867	1.638187
0.213965	1.638260
0.214062	1.638236
0.214160	1.638261
0.214258	1.638274
0.214355	1.638214
0.214453	1.638254
0.214551	1.638207
0.214648	1.638185
0.214746	1.638281
0.214844	1.638211
0.214941	1.638321
0.215039	1.638321
0.215137	1.638318
0.215234	1.638275
0.215332	1.638391
0.215430	1.638397
0.215527	1.638406
0.215625	1.638351
0.215723	1.638423
0.215820	1.638463
0.215918	1.638439
0.216016	1.638450
0.216113	1.638405
0.216211	1.638485
0.216309	1.638420
0.216406	1.638462
0.216504	1.638387
0.216602	1.638434
0.216699	1.638430
0.216797	1.638410
0.216895	1.638361
0.216992	1.638364
0.217090	1.638310
0.217187	1.638315
0.217285	1.638288
0.217383	1.638251
0.217480	1.638217
0.217578	1.638219
0.217676	1.638228
0.217773	1.638136
0.217871	1.638241
0.217969	1.638155
0.218066	1.638167
0.218164	1.638154
0.218262	1.638161
0.218359	1.638132
0.218457	1.638109
0.218555	1.638122
0.218652	1.638113
0.218750	1.638084
0.218848	1.638171
0.218945	1.638125
0.219043	1.638074
0.219141	1.638085
0.219238	1.638006
0.219336	1.638012
0.219434	1.637974
0.219531	1.638051
0.219629	1.638063
0.219727	1.638072
0.219824	1.637989
0.219922	1.637998
0.220020	1.637888
0.220117	1.637904
0.220215	1.637920
0.220312	1.637951
0.220410	1.637893
0.220508	1.637882
0.220605	1.637854
0.220703	1.637834
0.220801	1.637860
0.220898	1.637742
0.220996	1.637789
0.221094	1.637776
0.221191	1.637687
0.221289	1.637704
0.221387	1.637696
0.221484	1.637706
0.221582	1.637693
0.221680	1.637671
0.221777	1.637717
0.221875	1.637504
0.221973	1.637587
0.222070	1.637629
0.222168	1.637731
0.222266	1.637696
0.222363	1.637689
0.222461	1.637720
0.222559	1.637734
0.222656	1.637729
0.222754	1.637751
0.222852	1.637783
0.222949	1.637707
0.223047	1.637854
0.223145	1.637791
0.223242	1.637801
0.223340	1.637801
0.223437	1.637850
0.223535	1.637757
0.223633	1.637770
0.223730	1.637882
0.223828	1.637781
0.223926	1.637802
0.224023	1.637735
0.224121	1.637812
0.224219	1.637752
0.224316	1.637797
0.224414	1.637701
0.224512	1.637760
0.224609	1.637732
0.224707	1.637669
0.224805	1.637668
0.224902	1.637667
0.225000	1.637685
0.225098	1.637591
0.225195	1.637618
0.225293	1.637622
0.225391	1.637549
0.225488	1.637560
0.225586	1.637543
0.225684	1.637538
0.225781	1.637574
0.225879	1.637527
0.225977	1.637551
0.226074	1.637573
0.226172	1.637504
0.226270	1.637531
0.226367	1.637547
0.226465	1.637509
0.226562	1.637533
0.226660	1.637540
0.226758	1.637468
0.226855	1.637450
0.226953	1.637529
0.227051	1.637501
0.227148	1.637528
0.227246	1.637574
0.227344	1.637493
0.227441	1.637518
0.227539	1.637521
0.227637	1.637461
0.227734	1.637550
0.227832	1.637484
0.227930	1.637512
0.228027	1.637515
0.228125	1.637523
0.228223	1.637481
0.228320	1.637495
0.228418	1.637468
0.228516	1.637568
0.228613	1.637532
0.228711	1.637426
0.228809	1.637487
0.228906	1.637459
0.229004	1.637347
0.229102	1.637389
0.229199	1.637286
0.229297	1.637305
0.229395	1.637348
0.229492	1.637359
0.229590	1.637458
0.229687	1.637422
0.229785	1.637540
0.229883	1.637405
0.229980	1.637414
0.230078	1.637386
0.230176	1.637439
0.230273	1.637437
0.230371	1.637427
0.230469	1.637489
0.230566	1.637424
0.230664	1.637437
0.230762	1.637299
0.230859	1.637438
0.230957	1.637414
0.231055	1.637408
0.231152	1.637367
0.231250	1.637439
0.231348	1.637388
0.231445	1.637375
0.231543	1.637304
0.231641	1.637378
0.231738	1.637270
0.231836	1.637362
0.231934	1.637207
0.232031	1.637342
0.232129	1.637398
0.232227	1.637333
0.232324	1.637360
0.232422	1.637452
0.232520	1.637393
0.232617	1.637439
0.232715	1.637403
0.232812	1.637408
0.232910	1.637386
0.233008	1.637429
0.233105	1.637415
0.233203	1.637424
0.233301	1.637399
0.233398	1.637399
0.233496	1.637390
0.233594	1.637383
0.233691	1.637335
0.233789	1.637397
0.233887	1.637395
0.233984	1.637342
0.234082	1.637344
0.234180	1.637336
0.234277	1.637328
0.234375	1.637288
0.234473	1.637299
0.234570	1.637276
0.234668	1.637287
0.234766	1.637241
0.234863	1.637192
0.234961	1.637289
0.235059	1.637269
0.235156	1.637232
0.235254	1.637217
0.235352	1.637215
0.235449	1.637249
0.235547	1.637186
0.235645	1.637156
0.235742	1.637208
0.235840	1.637124
0.235937	1.637131
0.236035	1.637106
0.236133	1.637092
0.236230	1.637157
0.236328	1.637104
0.236426	1.637191
0.236523	1.637180
0.236621	1.637192
0.236719	1.637200
0.236816	1.637144
0.236914	1.637144
0.237012	1.637200
0.237109	1.637239
0.237207	1.637216
0.237305	1.637266
0.237402	1.637300
0.237500	1.637373
0.237598	1.637325
0.237695	1.637347
0.237793	1.637363
0.237891	1.637427
0.237988	1.637342
0.238086	1.637394
0.238184	1.637408
0.238281	1.637459
0.238379	1.637374
0.238477	1.637455
0.238574	1.637508
0.238672	1.637422
0.238770	1.637449
0.238867	1.637386
0.238965	1.637440
0.239062	1.637390
0.239160	1.637331
0.239258	1.637300
0.239355	1.637284
0.239453	1.637354
0.239551	1.637308
0.239648	1.637317
0.239746	1.637336
0.239844	1.637268
0.239941	1.637242
0.240039	1.637212
0.240137	1.637198
0.240234	1.637259
0.240332	1.637162
0.240430	1.637192
0.240527	1.637179
0.240625	1.637196
0.240723	1.637182
0.240820	1.637137
0.240918	1.637167
0.241016	1.637150
0.241113	1.637188
0.241211	1.637100
0.241309	1.637201
0.241406	1.637136
0.241504	1.637178
0.241602	1.637134
0.241699	1.637206
0.241797	1.637183
0.241895	1.637042
0.241992	1.637110
0.242090	1.637252
0.242187	1.637257
0.242285	1.637263
0.242383	1.637244
0.242480	1.637295
0.242578	1.637284
0.242676	1.637261
0.242773	1.637312
0.242871	1.637236
0.242969	1.637304
0.243066	1.637277
0.243164	1.637352
0.243262	1.637355
0.243359	1.637370
0.243457	1.637402
0.243555	1.637364
0.243652	1.637359
0.243750	1.637359
0.243848	1.637341
0.243945	1.637361
0.244043	1.637335
0.244141	1.637353
0.244238	1.637348
0.244336	1.637307
0.244434	1.637393
0.244531	1.637280
0.244629	1.637293
0.244727	1.637338
0.244824	1.637241
0.244922	1.637268
0.245020	1.637283
0.245117	1.637319
0.245215	1.637291
0.245312	1.637197
0.245410	1.637263
0.245508	1.637203
0.245605	1.637286
0.245703	1.637291
0.245801	1.637274
0.245898	1.637295
0.245996	1.637324
0.246094	1.637336
0.246191	1.637242
0.246289	1.637277
0.246387	1.637338
0.246484	1.637242
0.246582	1.637296
0.246680	1.637386
0.246777	1.637306
0.246875	1.637271
0.246973	1.637258
0.247070	1.637310
0.247168	1.637217
0.247266	1.637234
0.247363	1.637344
0.247461	1.637241
0.247559	1.637220
0.247656	1.637260
0.247754	1.637241
0.247852	1.637245
0.247949	1.637266
0.248047	1.637283
0.248145	1.637182
0.248242	1.637217
0.248340	1.637270
0.248437	1.637251
0.248535	1.637251
0.248633	1.637283
0.248730	1.637232
0.248828	1.637252
0.248926	1.637258
0.249023	1.637088
0.249121	1.637079
0.249219	1.637087
0.249316	1.637037
0.249414	1.637038
0.249512	1.637112
0.249609	1.637087
0.249707	1.637096
0.249805	1.637003
0.249902	1.637029
0.250000	1.636971
0.250098	1.636996
0.250195	1.636923
0.250293	1.636956
0.250391	1.636866
0.250488	1.636802
0.250586	1.636890
0.250684	1.636824
0.250781	1.636820
0.250879	1.636807
0.250977	1.636843
0.251074	1.636862
0.251172	1.636821
0.251270	1.636818
0.251367	1.636839
0.251465	1.636835
0.251562	1.636859
0.251660	1.636831
0.251758	1.636788
0.251855	1.636699
0.251953	1.636763
0.252051	1.636845
0.252148	1.636868
0.252246	1.636856
0.252344	1.636833
0.252441	1.636943
0.252539	1.636920
0.252637	1.636933
0.252734	1.636923
0.252832	1.636928
0.252930	1.636907
0.253027	1.637036
0.253125	1.636927
0.253223	1.637076
0.253320	1.636959
0.253418	1.636994
0.253516	1.637064
0.253613	1.637013
0.253711	1.637000
0.253809	1.637041
0.253906	1.637067
0.254004	1.637102
0.254102	1.637100
0.254199	1.637062
0.254297	1.637108
0.254395	1.637035
0.254492	1.637123
0.254590	1.636954
0.254687	1.637057
0.254785	1.637049
0.254883	1.637009
0.254980	1.636999
0.255078	1.636984
0.255176	1.636987
0.255273	1.637018
0.255371	1.637034
0.255469	1.637079
0.255566	1.637013
0.255664	1.637020
0.255762	1.637071
0.255859	1.637051
0.255957	1.636976
0.256055	1.637126
0.256152	1.637079
0.256250	1.637021
0.256348	1.637031
0.256445	1.636990
0.256543	1.637046
0.256641	1.637034
0.256738	1.637081
0.256836	1.636976
0.256934	1.637089
0.257031	1.637015
0.257129	1.636971
0.257227	1.636950
0.257324	1.637004
0.257422	1.637002
0.257520	1.636933
0.257617	1.637007
0.257715	1.636972
0.257812	1.636968
0.257910	1.637013
0.258008	1.637032
0.258105	1.637052
0.258203	1.637036
0.258301	1.637086
0.258398	1.637054
0.258496	1.637125
0.258594	1.637089
0.258691	1.637068
0.258789	1.637140
0.258887	1.637128
0.258984	1.637090
0.259082	1.637090
0.259180	1.637110
0.259277	1.637047
0.259375	1.637121
0.259473	1.637162
0.259570	1.637197
0.259668	1.637198
0.259766	1.637258
0.259863	1.637242
0.259961	1.637191
0.260059	1.637228
0.260156	1.637107
0.260254	1.637201
0.260352	1.637187
0.260449	1.637248
0.260547	1.637275
0.260645	1.637218
0.260742	1.637198
0.260840	1.637295
0.260937	1.637241
0.261035	1.637299
0.261133	1.637217
0.261230	1.637301
0.261328	1.637257
0.261426	1.637245
0.261523	1.637266
0.261621	1.637255
0.261719	1.637199
0.261816	1.637155
0.261914	1.637042
0.262012	1.637217
0.262109	1.637295
0.262207	1.637224
0.262305	1.637264
0.262402	1.637212
0.262500	1.637242
0.262598	1.637122
0.262695	1.637232
0.262793	1.637151
0.262891	1.637220
0.262988	1.637234
0.263086	1.637225
0.263184	1.637250
0.263281	1.637189
0.263379	1.637279
0.263477	1.637194
0.263574	1.637339
0.263672	1.637242
0.263770	1.637155
0.263867	1.637198
0.263965	1.637208
0.264062	1.637205
0.264160	1.637155
0.264258	1.637173
0.264355	1.637155
0.264453	1.637184
0.264551	1.637205
0.264648	1.637109
0.264746	1.637147
0.264844	1.637151
0.264941	1.637077
0.265039	1.636974
0.265137	1.637095
0.265234	1.637033
0.265332	1.637047
0.265430	1.637031
0.265527	1.636974
0.265625	1.636970
0.265723	1.636930
0.265820	1.636898
0.265918	1.636904
0.266016	1.636913
0.266113	1.636906
0.266211	1.636901
0.266309	1.636883
0.266406	1.636904
0.266504	1.636881
0.266602	1.636919
0.266699	1.636863
0.266797	1.636913
0.266895	1.636861
0.266992	1.636881
0.267090	1.636924
0.267187	1.636909
0.267285	1.637032
0.267383	1.636935
0.267480	1.636981
0.267578	1.636970
0.267676	1.637039
0.267773	1.637017
0.267871	1.637095
0.267969	1.637070
0.268066	1.637197
0.268164	1.637120
0.268262	1.637166
0.268359	1.637149
0.268457	1.637348
0.268555	1.637246
0.268652	1.637292
0.268750	1.637313
0.268848	1.637339
0.268945	1.637376
0.269043	1.637268
0.269141	1.637338
0.269238	1.637349
0.269336	1.637308
0.269434	1.637386
0.269531	1.637336
0.269629	1.637413
0.269727	1.637427
0.269824	1.637438
0.269922	1.637407
0.270020	1.637413
0.270117	1.637487
0.270215	1.637460
0.270312	1.637466
0.270410	1.637494
0.270508	1.637441
0.270605	1.637480
0.270703	1.637482
0.270801	1.637554
0.270898	1.637476
0.270996	1.637546
0.271094	1.637540
0.271191	1.637526
0.271289	1.637532
0.271387	1.637519
0.271484	1.637565
0.271582	1.637529
0.271680	1.637543
0.271777	1.637550
0.271875	1.637471
0.271973	1.637486
0.272070	1.637632
0.272168	1.637664
0.272266	1.637610
0.272363	1.637593
0.272461	1.637648
0.272559	1.637585
0.272656	1.637655
0.272754	1.637624
0.272852	1.637706
0.272949	1.637660
0.273047	1.637692
0.273145	1.637696
0.273242	1.637694
0.273340	1.637671
0.273437	1.637650
0.273535	1.637631
0.273633	1.637702
0.273730	1.637651
0.273828	1.637657
0.273926	1.637578
0.274023	1.637676
0.274121	1.637656
0.274219	1.637622
0.274316	1.637685
0.274414	1.637624
0.274512	1.637609
0.274609	1.637552
0.274707	1.637655
0.274805	1.637584
0.274902	1.637574
0.275000	1.637592
0.275098	1.637536
0.275195	1.637552
0.275293	1.637594
0.275391	1.637564
0.275488	1.637580
0.275586	1.637481
0.275684	1.637586
0.275781	1.637585
0.275879	1.637565
0.275977	1.637520
0.276074	1.637551
0.276172	1.637512
0.276270	1.637483
0.276367	1.637455
0.276465	1.637465
0.276562	1.637415
0.276660	1.637391
0.276758	1.637463
0.276855	1.637392
0.276953	1.637460
0.277051	1.637448
0.277148	1.637427
0.277246	1.637396
0.277344	1.637436
0.277441	1.637408
0.277539	1.637421
0.277637	1.637395
0.277734	1.637490
0.277832	1.637481
0.277930	1.637522
0.278027	1.637566
0.278125	1.637565
0.278223	1.637613
0.278320	1.637539
0.278418	1.637590
0.278516	1.637627
0.278613	1.637622
0.278711	1.637729
0.278809	1.637731
0.278906	1.637673
0.279004	1.637744
0.279102	1.637668
0.279199	1.637701
0.279297	1.637611
0.279395	1.637745
0.279492	1.637667
0.279590	1.637768
0.279687	1.637806
0.279785	1.637774
0.279883	1.637756
0.279980	1.637722
0.280078	1.637754
0.280176	1.637746
0.280273	1.637828
0.280371	1.637777
0.280469	1.637779
0.280566	1.637710
0.280664	1.637828
0.280762	1.637764
0.280859	1.637772
0.280957	1.637769
0.281055	1.637767
0.281152	1.637864
0.281250	1.637743
0.281348	1.637788
0.281445	1.637789
0.281543	1.637790
0.281641	1.637771
0.281738	1.637763
0.281836	1.637782
0.281934	1.637661
0.282031	1.637692
0.282129	1.637797
0.282227	1.637753
0.282324	1.637730
0.282422	1.637711
0.282520	1.637737
0.282617	1.637673
0.282715	1.637652
0.282812	1.637718
0.282910	1.637683
0.283008	1.637643
0.283105	1.637644
0.283203	1.637612
0.283301	1.637565
0.283398	1.637612
0.283496	1.637565
0.283594	1.637562
0.283691	1.637596
0.283789	1.637601
0.283887	1.637603
0.283984	1.637591
0.284082	1.637568
0.284180	1.637598
0.284277	1.637587
0.284375	1.637665
0.284473	1.637595
0.284570	1.637709
0.284668	1.637720
0.284766	1.637663
0.284863	1.637702
0.284961	1.637675
0.285059	1.637663
0.285156	1.637712
0.285254	1.637735
0.285352	1.637830
0.285449	1.637814
0.285547	1.637865
0.285645	1.637826
0.285742	1.637819
0.285840	1.637817
0.285937	1.637785
0.286035	1.637843
0.286133	1.637886
0.286230	1.637915
0.286328	1.637917
0.286426	1.637876
0.286523	1.637868
0.286621	1.637927
0.286719	1.637873
0.286816	1.637969
0.286914	1.637888
0.287012	1.637895
0.287109	1.637881
0.287207	1.637779
0.287305	1.637911
0.287402	1.637868
0.287500	1.637887
0.287598	1.637882
0.287695	1.637850
0.287793	1.637909
0.287891	1.637929
0.287988	1.638003
0.288086	1.637997
0.288184	1.638019
0.288281	1.638011
0.288379	1.637982
0.288477	1.638104
0.288574	1.638060
0.288672	1.638146
0.288770	1.638100
0.288867	1.638113
0.288965	1.638149
0.289062	1.638059
0.289160	1.638050
0.289258	1.637999
0.289355	1.638046
0.289453	1.638050
0.289551	1.638077
0.289648	1.638003
0.289746	1.638014
0.289844	1.637983
0.289941	1.637965
0.290039	1.637977
0.290137	1.637931
0.290234	1.637876
0.290332	1.637854
0.290430	1.637897
0.290527	1.637857
0.290625	1.637799
0.290723	1.637754
0.290820	1.637751
0.290918	1.637737
0.291016	1.637691
0.291113	1.637656
0.291211	1.637557
0.291309	1.637547
0.291406	1.637624
0.291504	1.637621
0.291602	1.637546
0.291699	1.637494
0.291797	1.637414
0.291895	1.637398
0.291992	1.637421
0.292090	1.637495
0.292187	1.637451
0.292285	1.637478
0.292383	1.637452
0.292480	1.637421
0.292578	1.637477
0.292676	1.637460
0.292773	1.637519
0.292871	1.637436
0.292969	1.637525
0.293066	1.637479
0.293164	1.637413
0.293262	1.637449
0.293359	1.637400
0.293457	1.637444
0.293555	1.637457
0.293652	1.637407
0.293750	1.637380
0.293848	1.637396
0.293945	1.637409
0.294043	1.637388
0.294141	1.637438
0.294238	1.637435
0.294336	1.637480
0.294434	1.637443
0.294531	1.637391
0.294629	1.637448
0.294727	1.637441
0.294824	1.637426
0.294922	1.637412
0.295020	1.637424
0.295117	1.637394
0.295215	1.637408
0.295312	1.637488
0.295410	1.637421
0.295508	1.637411
0.295605	1.637502
0.295703	1.637428
0.295801	1.637499
0.295898	1.637483
0.295996	1.637494
0.296094	1.637543
0.296191	1.637483
0.296289	1.637526
0.296387	1.637567
0.296484	1.637544
0.296582	1.637535
0.296680	1.637480
0.296777	1.637502
0.296875	1.637482
0.296973	1.637623
0.297070	1.637572
0.297168	1.637644
0.297266	1.637599
0.297363	1.637577
0.297461	1.637590
0.297559	1.637571
0.297656	1.637601
0.297754	1.637609
0.297852	1.637615
0.297949	1.637611
0.298047	1.637603
0.298145	1.637643
0.298242	1.637632
0.298340	1.637690
0.298437	1.637641
0.298535	1.637717
0.298633	1.637735
0.298730	1.637710
0.298828	1.637776
0.298926	1.637709
0.299023	1.637642
0.299121	1.637648
0.299219	1.637563
0.299316	1.637590
0.299414	1.637599
0.299512	1.637655
0.299609	1.637679
0.299707	1.637732
0.299805	1.637660
0.299902	1.637654
0.300000	1.637640
0.300098	1.637619
0.300195	1.637664
0.300293	1.637656
0.300391	1.637662
0.300488	1.637652
0.300586	1.637604
0.300684	1.637570
0.300781	1.637560
0.300879	1.637540
0.300977	1.637596
0.301074	1.637527
0.301172	1.637568
0.301270	1.637650
0.301367	1.637586
0.301465	1.637564
0.301562	1.637548
0.301660	1.637477
0.301758	1.637526
0.301855	1.637516
0.301953	1.637449
0.302051	1.637538
0.302148	1.637562
0.302246	1.637544
0.302344	1.637538
0.302441	1.637589
0.302539	1.637571
0.302637	1.637586
0.302734	1.637593
0.302832	1.637594
0.302930	1.637552
0.303027	1.637558
0.303125	1.637627
0.303223	1.637598
0.303320	1.637593
0.303418	1.637588
0.303516	1.637557
0.303613	1.637552
0.303711	1.637641
0.303809	1.637655
0.303906	1.637599
0.304004	1.637636
0.304102	1.637664
0.304199	1.637633
0.304297	1.637608
0.304395	1.637530
0.304492	1.637616
0.304590	1.637593
0.304687	1.637563
0.304785	1.637600
0.304883	1.637601
0.304980	1.637580
0.305078	1.637516
0.305176	1.637585
0.305273	1.637608
0.305371	1.637514
0.305469	1.637550
0.305566	1.637485
0.305664	1.637571
0.305762	1.637522
0.305859	1.637538
0.305957	1.637525
0.306055	1.637516
0.306152	1.637441
0.306250	1.637496
0.306348	1.637483
0.306445	1.637427
0.306543	1.637443
0.306641	1.637459
0.306738	1.637453
0.306836	1.637472
0.306934	1.637503
0.307031	1.637505
0.307129	1.637502
0.307227	1.637504
0.307324	1.637474
0.307422	1.637434
0.307520	1.637464
0.307617	1.637555
0.307715	1.637510
0.307812	1.637538
0.307910	1.637553
0.308008	1.637554
0.308105	1.637521
0.308203	1.637587
0.308301	1.637580
0.308398	1.637656
0.308496	1.637652
0.308594	1.637599
0.308691	1.637658
0.308789	1.637679
0.308887	1.637612
0.308984	1.637637
0.309082	1.637549
0.309180	1.637516
0.309277	1.637586
0.309375	1.637547
0.309473	1.637657
0.309570	1.637553
0.309668	1.637630
0.309766	1.637590
0.309863	1.637607
0.309961	1.637505
0.310059	1.637557
0.310156	1.637591
0.310254	1.637621
0.310352	1.637582
0.310449	1.637586
0.310547	1.637569
0.310645	1.637574
0.310742	1.637576
0.310840	1.637554
0.310937	1.637545
0.311035	1.637527
0.311133	1.637546
0.311230	1.637513
0.311328	1.637521
0.311426	1.637557
0.311523	1.637491
0.311621	1.637482
0.311719	1.637458
0.311816	1.637366
0.311914	1.637320
0.312012	1.637402
0.312109	1.637396
0.312207	1.637388
0.312305	1.637479
0.312402	1.637441
0.312500	1.637414
0.312598	1.637548
0.312695	1.637485
0.312793	1.637496
0.312891	1.637482
0.312988	1.637474
0.313086	1.637458
0.313184	1.637532
0.313281	1.637567
0.313379	1.637650
0.313477	1.637552
0.313574	1.637603
0.313672	1.637600
0.313770	1.637588
0.313867	1.637531
0.313965	1.637546
0.314062	1.637588
0.314160	1.637663
0.314258	1.637588
0.314355	1.637591
0.314453	1.637569
0.314551	1.637543
0.314648	1.637581
0.314746	1.637587
0.314844	1.637549
0.314941	1.637458
0.315039	1.637508
0.315137	1.637590
0.315234	1.637507
0.315332	1.637535
0.315430	1.637521
0.315527	1.637485
0.315625	1.637493
0.315723	1.637421
0.315820	1.637472
0.315918	1.637414
0.316016	1.637464
0.316113	1.637405
0.316211	1.637484
0.316309	1.637478
0.316406	1.637433
0.316504	1.637507
0.316602	1.637427
0.316699	1.637399
0.316797	1.637369
0.316895	1.637408
0.316992	1.637310
0.317090	1.637414
0.317187	1.637414
0.317285	1.637420
0.317383	1.637433
0.317480	1.637410
0.317578	1.637363
0.317676	1.637355
0.317773	1.637400
0.317871	1.637432
0.317969	1.637416
0.318066	1.637411
0.318164	1.637454
0.318262	1.637428
0.318359	1.637440
0.318457	1.637457
0.318555	1.637519
0.318652	1.637469
0.318750	1.637562
0.318848	1.637525
0.318945	1.637474
0.319043	1.637399
0.319141	1.637380
0.319238	1.637365
0.319336	1.637421
0.319434	1.637348
0.319531	1.637383
0.319629	1.637404
0.319727	1.637437
0.319824	1.637428
0.319922	1.637399
0.320020	1.637394
0.320117	1.637420
0.320215	1.637377
0.320312	1.637372
0.320410	1.637374
0.320508	1.637360
0.320605	1.637465
0.320703	1.637371
0.320801	1.637441
0.320898	1.637407
0.320996	1.637419
0.321094	1.637443
0.321191	1.637331
0.321289	1.637444
0.321387	1.637375
0.321484	1.637332
0.321582	1.637406
0.321680	1.637311
0.321777	1.637298
0.321875	1.637144
0.321973	1.637264
0.322070	1.637280
0.322168	1.637284
0.322266	1.637372
0.322363	1.637314
0.322461	1.637292
0.322559	1.637342
0.322656	1.637363
0.322754	1.637331
0.322852	1.637365
0.322949	1.637288
0.323047	1.637275
0.323145	1.637326
0.323242	1.637315
0.323340	1.637338
0.323437	1.637308
0.323535	1.637372
0.323633	1.637304
0.323730	1.637353
0.323828	1.637265
0.323926	1.637313
0.324023	1.637360
0.324121	1.637356
0.324219	1.637358
0.324316	1.637265
0.324414	1.637275
0.324512	1.637387
0.324609	1.637326
0.324707	1.637285
0.324805	1.637344
0.324902	1.637348
0.325000	1.637272
0.325098	1.637335
0.325195	1.637335
0.325293	1.637234
0.325391	1.637242
0.325488	1.637222
0.325586	1.637261
0.325684	1.637304
0.325781	1.637188
0.325879	1.637308
0.325977	1.637184
0.326074	1.637251
0.326172	1.637177
0.326270	1.637259
0.326367	1.637162
0.326465	1.637212
0.326562	1.637259
0.326660	1.637275
0.326758	1.637360
0.326855	1.637273
0.326953	1.637310
0.327051	1.637358
0.327148	1.637343
0.327246	1.637344
0.327344	1.637356
0.327441	1.637413
0.327539	1.637468
0.327637	1.637431
0.327734	1.637432
0.327832	1.637488
0.327930	1.637495
0.328027	1.637522
0.328125	1.637605
0.328223	1.637630
0.328320	1.637631
0.328418	1.637684
0.328516	1.637636
0.328613	1.637688
0.328711	1.637700
0.328809	1.637754
0.328906	1.637662
0.329004	1.637651
0.329102	1.637705
0.329199	1.637581
0.329297	1.637632
0.329395	1.637683
0.329492	1.637592
0.329590	1.637652
0.329687	1.637709
0.329785	1.637637
0.329883	1.637566
0.329980	1.637505
0.330078	1.637528
0.330176	1.637450
0.330273	1.637421
0.330371	1.637430
0.330469	1.637410
0.330566	1.637394
0.330664	1.637418
0.330762	1.637356
0.330859	1.637336
0.330957	1.637233
0.331055	1.637194
0.331152	1.637199
0.331250	1.637200
0.331348	1.637185
0.331445	1.637151
0.331543	1.637138
0.331641	1.636996
0.331738	1.637061
0.331836	1.636883
0.331934	1.637037
0.332031	1.637074
0.332129	1.637109
0.332227	1.637042
0.332324	1.637108
0.332422	1.637079
0.332520	1.637118
0.332617	1.637219
0.332715	1.637140
0.332812	1.637190
0.332910	1.637202
0.333008	1.637210
0.333105	1.637225
0.333203	1.637208
0.333301	1.637252
0.333398	1.637263
0.333496	1.637311
0.333594	1.637267
0.333691	1.637183
0.333789	1.637208
0.333887	1.637263
0.333984	1.637269
0.334082	1.637313
0.334180	1.637307
0.334277	1.637255
0.334375	1.637286
0.334473	1.637257
0.334570	1.637310
0.334668	1.637275
0.334766	1.637359
0.334863	1.637311
0.334961	1.637333
0.335059	1.637334
0.335156	1.637302
0.335254	1.637323
0.335352	1.637256
0.335449	1.637362
0.335547	1.637418
0.335645	1.637295
0.335742	1.637292
0.335840	1.637331
0.335937	1.637326
0.336035	1.637286
0.336133	1.637347
0.336230	1.637301
0.336328	1.637339
0.336426	1.637319
0.336523	1.637290
0.336621	1.637389
0.336719	1.637367
0.336816	1.637399
0.336914	1.637278
0.337012	1.637288
0.337109	1.637284
0.337207	1.637313
0.337305	1.637369
0.337402	1.637359
0.337500	1.637229
0.337598	1.637358
0.337695	1.637281
0.337793	1.637323
0.337891	1.637301
0.337988	1.637308
0.338086	1.637352
0.338184	1.637350
0.338281	1.637369
0.338379	1.637403
0.338477	1.637362
0.338574	1.637447
0.338672	1.637400
0.338770	1.637331
0.338867	1.637437
0.338965	1.637302
0.339062	1.637271
0.339160	1.637303
0.339258	1.637289
0.339355	1.637316
0.339453	1.637316
0.339551	1.637319
0.339648	1.637308
0.339746	1.637286
0.339844	1.637411
0.339941	1.637352
0.340039	1.637306
0.340137	1.637370
0.340234	1.637354
0.340332	1.637477
0.340430	1.637340
0.340527	1.637325
0.340625	1.637340
0.340723	1.637386
0.340820	1.637348
0.340918	1.637373
0.341016	1.637343
0.341113	1.637374
0.341211	1.637374
0.341309	1.637375
0.341406	1.637351
0.341504	1.637355
0.341602	1.637404
0.341699	1.637371
0.341797	1.637344
0.341895	1.637206
0.341992	1.637399
0.342090	1.637383
0.342187	1.637484
0.342285	1.637328
0.342383	1.637415
0.342480	1.637328
0.342578	1.637338
0.342676	1.637300
0.342773	1.637386
0.342871	1.637346
0.342969	1.637350
0.343066	1.637356
0.343164	1.637346
0.343262	1.637239
0.343359	1.637200
0.343457	1.637230
0.343555	1.637200
0.343652	1.637216
0.343750	1.637163
0.343848	1.637214
0.343945	1.637234
0.344043	1.637124
0.344141	1.637187
0.344238	1.637221
0.344336	1.637137
0.344434	1.637182
0.344531	1.637195
0.344629	1.637124
0.344727	1.637173
0.344824	1.637145
0.344922	1.637131
0.345020	1.637117
0.345117	1.637156
0.345215	1.637075
0.345312	1.637159
0.345410	1.637110
0.345508	1.637077
0.345605	1.637139
0.345703	1.637097
0.345801	1.637089
0.345898	1.637084
0.345996	1.637113
0.346094	1.637058
0.346191	1.637113
0.346289	1.637137
0.346387	1.637064
0.346484	1.637104
0.346582	1.637111
0.346680	1.637115
0.346777	1.637117
0.346875	1.637145
0.346973	1.637119
0.347070	1.637140
0.347168	1.637142
0.347266	1.637220
0.347363	1.637229
0.347461	1.637244
0.347559	1.637239
0.347656	1.637265
0.347754	1.637256
0.347852	1.637286
0.347949	1.637252
0.348047	1.637313
0.348145	1.637412
0.348242	1.637367
0.348340	1.637386
0.348437	1.637416
0.348535	1.637433
0.348633	1.637439
0.348730	1.637455
0.348828	1.637495
0.348926	1.637496
0.349023	1.637435
0.349121	1.637402
0.349219	1.637396
0.349316	1.637366
0.349414	1.637480
0.349512	1.637482
0.349609	1.637531
0.349707	1.637494
0.349805	1.637496
0.349902	1.637461
0.350000	1.637505
0.350098	1.637508
0.350195	1.637543
0.350293	1.637577
0.350391	1.637466
0.350488	1.637550
0.350586	1.637521
0.350684	1.637493
0.350781	1.637499
0.350879	1.637540
0.350977	1.637609
0.351074	1.637480
0.351172	1.637453
0.351270	1.637541
0.351367	1.637503
0.351465	1.637482
0.351562	1.637537
0.351660	1.637526
0.351758	1.637491
0.351855	1.637375
0.351953	1.637421
0.352051	1.637561
0.352148	1.637491
0.352246	1.637537
0.352344	1.637462
0.352441	1.637484
0.352539	1.637558
0.352637	1.637487
0.352734	1.637510
0.352832	1.637524
0.352930	1.637468
0.353027	1.637515
0.353125	1.637501
0.353223	1.637452
0.353320	1.637407
0.353418	1.637426
0.353516	1.637460
0.353613	1.637439
0.353711	1.637421
0.353809	1.637396
0.353906	1.637327
0.354004	1.637353
0.354102	1.637360
0.354199	1.637373
0.354297	1.637362
0.354395	1.637354
0.354492	1.637283
0.354590	1.637264
0.354687	1.637320
0.354785	1.637250
0.354883	1.637316
0.354980	1.637253
0.355078	1.637244
0.355176	1.637213
0.355273	1.637219
0.355371	1.637237
0.355469	1.637241
0.355566	1.637266
0.355664	1.637284
0.355762	1.637248
0.355859	1.637286
0.355957	1.637203
0.356055	1.637305
0.356152	1.637270
0.356250	1.637276
0.356348	1.637297
0.356445	1.637305
0.356543	1.637377
0.356641	1.637358
0.356738	1.637322
0.356836	1.637315
0.356934	1.637331
0.357031	1.637383
0.357129	1.637345
0.357227	1.637325
0.357324	1.637375
0.357422	1.637311
0.357520	1.637394
0.357617	1.637316
0.357715	1.637413
0.357812	1.637430
0.357910	1.637410
0.358008	1.637407
0.358105	1.637411
0.358203	1.637453
0.358301	1.637423
0.358398	1.637397
0.358496	1.637483
0.358594	1.637425
0.358691	1.637476
0.358789	1.637397
0.358887	1.637430
0.358984	1.637407
0.359082	1.637391
0.359180	1.637342
0.359277	1.637300
0.359375	1.637393
0.359473	1.637357
0.359570	1.637312
0.359668	1.637394
0.359766	1.637388
0.359863	1.637408
0.359961	1.637375
0.360059	1.637391
0.360156	1.637420
0.360254	1.637398
0.360352	1.637429
0.360449	1.637377
0.360547	1.637519
0.360645	1.637417
0.360742	1.637489
0.360840	1.637515
0.360937	1.637466
0.361035	1.637574
0.361133	1.637503
0.361230	1.637583
0.361328	1.637576
0.361426	1.637558
0.361523	1.637680
0.361621	1.637646
0.361719	1.637621
0.361816	1.637546
0.361914	1.637504
0.362012	1.637717
0.362109	1.637670
0.362207	1.637786
0.362305	1.637719
0.362402	1.637760
0.362500	1.637888
0.362598	1.637703
0.362695	1.637715
0.362793	1.637900
0.362891	1.637829
0.362988	1.637861
0.363086	1.637923
0.363184	1.637859
0.363281	1.637852
0.363379	1.637914
0.363477	1.637951
0.363574	1.637923
0.363672	1.638015
0.363770	1.637913
0.363867	1.637926
0.363965	1.637972
0.364062	1.638003
0.364160	1.637909
0.364258	1.638003
0.364355	1.638017
0.364453	1.637952
0.364551	1.638016
0.364648	1.638020
0.364746	1.638038
0.364844	1.638097
0.364941	1.638063
0.365039	1.638036
0.365137	1.638075
0.365234	1.638034
0.365332	1.638092
0.365430	1.638085
0.365527	1.638103
0.365625	1.638073
0.365723	1.638093
0.365820	1.638095
0.365918	1.638167
0.366016	1.638155
0.366113	1.638061
0.366211	1.638105
0.366309	1.638173
0.366406	1.638147
0.366504	1.638186
0.366602	1.638239
0.366699	1.638209
0.366797	1.638172
0.366895	1.638158
0.366992	1.638191
0.367090	1.638226
0.367187	1.638210
0.367285	1.638226
0.367383	1.638278
0.367480	1.638246
0.367578	1.638250
0.367676	1.638274
0.367773	1.638233
0.367871	1.638270
0.367969	1.638277
0.368066	1.638225
0.368164	1.638278
0.368262	1.638264
0.368359	1.638266
0.368457	1.638311
0.368555	1.638308
0.368652	1.638295
0.368750	1.638321
0.368848	1.638307
0.368945	1.638249
0.369043	1.638212
0.369141	1.638132
0.369238	1.638049
0.369336	1.638088
0.369434	1.638136
0.369531	1.638167
0.369629	1.638189
0.369727	1.638167
0.369824	1.638047
0.369922	1.638092
0.370020	1.638056
0.370117	1.638092
0.370215	1.638094
0.370312	1.638088
0.370410	1.638099
0.370508	1.638071
0.370605	1.638079
0.370703	1.638020
0.370801	1.638034
0.370898	1.638037
0.370996	1.638060
0.371094	1.637998
0.371191	1.638056
0.371289	1.638008
0.371387	1.637934
0.371484	1.638019
0.371582	1.638023
0.371680	1.637962
0.371777	1.637914
0.371875	1.637810
0.371973	1.637898
0.372070	1.637957
0.372168	1.638038
0.372266	1.637974
0.372363	1.637981
0.372461	1.637939
0.372559	1.637961
0.372656	1.638048
0.372754	1.637890
0.372852	1.638001
0.372949	1.637919
0.373047	1.638015
0.373145	1.637935
0.373242	1.637926
0.373340	1.637981
0.373437	1.637886
0.373535	1.637869
0.373633	1.637796
0.373730	1.637914
0.373828	1.637895
0.373926	1.637897
0.374023	1.637855
0.374121	1.637876
0.374219	1.637824
0.374316	1.637870
0.374414	1.637890
0.374512	1.637839
0.374609	1.637819
0.374707	1.637821
0.374805	1.637825
0.374902	1.637857
0.375000	1.637829
0.375098	1.637845
0.375195	1.637805
0.375293	1.637775
0.375391	1.637874
0.375488	1.637816
0.375586	1.637844
0.375684	1.637858
0.375781	1.637829
0.375879	1.637926
0.375977	1.637872
0.376074	1.637896
0.376172	1.637872
0.376270	1.637872
0.376367	1.637874
0.376465	1.637825
0.376562	1.637850
0.376660	1.637827
0.376758	1.637960
0.376855	1.637880
0.376953	1.637896
0.377051	1.637906
0.377148	1.637898
0.377246	1.637875
0.377344	1.637912
0.377441	1.637947
0.377539	1.637973
0.377637	1.637951
0.377734	1.637980
0.377832	1.637970
0.377930	1.638012
0.378027	1.638059
0.378125	1.638047
0.378223	1.638042
0.378320	1.638023
0.378418	1.638059
0.378516	1.638130
0.378613	1.638094
0.378711	1.638136
0.378809	1.638127
0.378906	1.638131
0.379004	1.638035
0.379102	1.638075
0.379199	1.638029
0.379297	1.638061
0.379395	1.638093
0.379492	1.638169
0.379590	1.638146
0.379687	1.638174
0.379785	1.638108
0.379883	1.638152
0.379980	1.638178
0.380078	1.638151
0.380176	1.638103
0.380273	1.638255
0.380371	1.638244
0.380469	1.638169
0.380566	1.638182
0.380664	1.638171
0.380762	1.638255
0.380859	1.638208
0.380957	1.638250
0.381055	1.638269
0.381152	1.638245
0.381250	1.638214
0.381348	1.638288
0.381445	1.638239
0.381543	1.638268
0.381641	1.638230
0.381738	1.638207
0.381836	1.638103
0.381934	1.638093
0.382031	1.638261
0.382129	1.638180
0.382227	1.638235
0.382324	1.638122
0.382422	1.638130
0.382520	1.638171
0.382617	1.638179
0.382715	1.638123
0.382812	1.638001
0.382910	1.638031
0.383008	1.638058
0.383105	1.638012
0.383203	1.637989
0.383301	1.637980
0.383398	1.637950
0.383496	1.637962
0.383594	1.637895
0.383691	1.637908
0.383789	1.637806
0.383887	1.637834
0.383984	1.637821
0.384082	1.637718
0.384180	1.637772
0.384277	1.637727
0.384375	1.637772
0.384473	1.637800
0.384570	1.637707
0.384668	1.637847
0.384766	1.637808
0.384863	1.637857
0.384961	1.637812
0.385059	1.637754
0.385156	1.637771
0.385254	1.637791
0.385352	1.637715
0.385449	1.637784
0.385547	1.637798
0.385645	1.637772
0.385742	1.637876
0.385840	1.637795
0.385937	1.637819
0.386035	1.637782
0.386133	1.637761
0.386230	1.637805
0.386328	1.637797
0.386426	1.637834
0.386523	1.637814
0.386621	1.637823
0.386719	1.637699
0.386816	1.637754
0.386914	1.637732
0.387012	1.637746
0.387109	1.637677
0.387207	1.637790
0.387305	1.637748
0.387402	1.637751
0.387500	1.637715
0.387598	1.637704
0.387695	1.637683
0.387793	1.637729
0.387891	1.637659
0.387988	1.637728
0.388086	1.637711
0.388184	1.637755
0.388281	1.637760
0.388379	1.637709
0.388477	1.637800
0.388574	1.637753
0.388672	1.637839
0.388770	1.637749
0.388867	1.637787
0.388965	1.637761
0.389062	1.637696
0.389160	1.637651
0.389258	1.637657
0.389355	1.637651
0.389453	1.637734
0.389551	1.637703
0.389648	1.637771
0.389746	1.637693
0.389844	1.637700
0.389941	1.637741
0.390039	1.637662
0.390137	1.637671
0.390234	1.637742
0.390332	1.637724
0.390430	1.637649
0.390527	1.637750
0.390625	1.637757
0.390723	1.637713
0.390820	1.637742
0.390918	1.637674
0.391016	1.637706
0.391113	1.637688
0.391211	1.637706
0.391309	1.637763
0.391406	1.637688
0.391504	1.637718
0.391602	1.637684
0.391699	1.637688
0.391797	1.637580
0.391895	1.637610
0.391992	1.637759
0.392090	1.637768
0.392187	1.637726
0.392285	1.637804
0.392383	1.637800
0.392480	1.637815
0.392578	1.637776
0.392676	1.637794
0.392773	1.637875
0.392871	1.637840
0.392969	1.637900
0.393066	1.637880
0.393164	1.637906
0.393262	1.637826
0.393359	1.637902
0.393457	1.637950
0.393555	1.637864
0.393652	1.637957
0.393750	1.637922
0.393848	1.637985
0.393945	1.637944
0.394043	1.637980
0.394141	1.637978
0.394238	1.638041
0.394336	1.637955
0.394434	1.638026
0.394531	1.638024
0.394629	1.637977
0.394727	1.638009
0.394824	1.638017
0.394922	1.637955
0.395020	1.637904
0.395117	1.637931
0.395215	1.637880
0.395312	1.637843
0.395410	1.637904
0.395508	1.637877
0.395605	1.637833
0.395703	1.637737
0.395801	1.637810
0.395898	1.637755
0.395996	1.637765
0.396094	1.637685
0.396191	1.637717
0.396289	1.637637
0.396387	1.637648
0.396484	1.637636
0.396582	1.637544
0.396680	1.637563
0.396777	1.637636
0.396875	1.637483
0.396973	1.637461
0.397070	1.637598
0.397168	1.637458
0.397266	1.637560
0.397363	1.637407
0.397461	1.637444
0.397559	1.637399
0.397656	1.637404
0.397754	1.637495
0.397852	1.637410
0.397949	1.637449
0.398047	1.637481
0.398145	1.637450
0.398242	1.637399
0.398340	1.637532
0.398437	1.637489
0.398535	1.637495
0.398633	1.637513
0.398730	1.637499
0.398828	1.637529
0.398926	1.637439
0.399023	1.637389
0.399121	1.637504
0.399219	1.637427
0.399316	1.637454
0.399414	1.637551
0.399512	1.637506
0.399609	1.637656
0.399707	1.637628
0.399805	1.637667
0.399902	1.637678
0.400000	1.637637
0.400098	1.637726
0.400195	1.637717
0.400293	1.637732
0.400391	1.637817
0.400488	1.637760
0.400586	1.637772
0.400684	1.637773
0.400781	1.637767
0.400879	1.637878
0.400977	1.637810
0.401074	1.637868
0.401172	1.637867
0.401270	1.637845
0.401367	1.637846
0.401465	1.637885
0.401562	1.637860
0.401660	1.637856
0.401758	1.637814
0.401855	1.637771
0.401953	1.637840
0.402051	1.637875
0.402148	1.637893
0.402246	1.637914
0.402344	1.637860
0.402441	1.637895
0.402539	1.637920
0.402637	1.637933
0.402734	1.637929
0.402832	1.637934
0.402930	1.637806
0.403027	1.637934
0.403125	1.637834
0.403223	1.637790
0.403320	1.637859
0.403418	1.637806
0.403516	1.637879
0.403613	1.637802
0.403711	1.637839
0.403809	1.637760
0.403906	1.637742
0.404004	1.637706
0.404102	1.637716
0.404199	1.637735
0.404297	1.637698
0.404395	1.637684
0.404492	1.637710
0.404590	1.637731
0.404687	1.637652
0.404785	1.637627
0.404883	1.637604
0.404980	1.637669
0.405078	1.637597
0.405176	1.637567
0.405273	1.637526
0.405371	1.637502
0.405469	1.637526
0.405566	1.637509
0.405664	1.637578
0.405762	1.637494
0.405859	1.637527
0.405957	1.637481
0.406055	1.637566
0.406152	1.637466
0.406250	1.637454
0.406348	1.637517
0.406445	1.637479
0.406543	1.637444
0.406641	1.637457
0.406738	1.637400
0.406836	1.637352
0.406934	1.637463
0.407031	1.637368
0.407129	1.637497
0.407227	1.637300
0.407324	1.637369
0.407422	1.637369
0.407520	1.637453
0.407617	1.637291
0.407715	1.637393
0.407812	1.637327
0.407910	1.637464
0.408008	1.637377
0.408105	1.637358
0.408203	1.637374
0.408301	1.637372
0.408398	1.637412
0.408496	1.637427
0.408594	1.637455
0.408691	1.637370
0.408789	1.637428
0.408887	1.637499
0.408984	1.637400
0.409082	1.637347
0.409180	1.637308
0.409277	1.637245
0.409375	1.637339
0.409473	1.637321
0.409570	1.637392
0.409668	1.637433
0.409766	1.637344
0.409863	1.637360
0.409961	1.637356
0.410059	1.637356
0.410156	1.637374
0.410254	1.637437
0.410352	1.637366
0.410449	1.637427
0.410547	1.637350
0.410645	1.637391
0.410742	1.637400
0.410840	1.637281
0.410937	1.637354
0.411035	1.637305
0.411133	1.637344
0.411230	1.637277
0.411328	1.637211
0.411426	1.637239
0.411523	1.637232
0.411621	1.637179
0.411719	1.637110
0.411816	1.637098
0.411914	1.637037
0.412012	1.637078
0.412109	1.637041
0.412207	1.637091
0.412305	1.637015
0.412402	1.636979
0.412500	1.636982
0.412598	1.637020
0.412695	1.637017
0.412793	1.636924
0.412891	1.637072
0.412988	1.637034
0.413086	1.636984
0.413184	1.636985
0.413281	1.636995
0.413379	1.637042
0.413477	1.636967
0.413574	1.637026
0.413672	1.637006
0.413770	1.637054
0.413867	1.636969
0.413965	1.636989
0.414062	1.636924
0.414160	1.636979
0.414258	1.636960
0.414355	1.637017
0.414453	1.636931
0.414551	1.637038
0.414648	1.636985
0.414746	1.636992
0.414844	1.636893
0.414941	1.636946
0.415039	1.636922
0.415137	1.636899
0.415234	1.636960
0.415332	1.636818
0.415430	1.636888
0.415527	1.636910
0.415625	1.636932
0.415723	1.636909
0.415820	1.636886
0.415918	1.636860
0.416016	1.636899
0.416113	1.636838
0.416211	1.636855
0.416309	1.636832
0.416406	1.636918
0.416504	1.636870
0.416602	1.636818
0.416699	1.636910
0.416797	1.636821
0.416895	1.636888
0.416992	1.636848
0.417090	1.636936
0.417187	1.636901
0.417285	1.636926
0.417383	1.636946
0.417480	1.636981
0.417578	1.636998
0.417676	1.637032
0.417773	1.637081
0.417871	1.637056
0.417969	1.637090
0.418066	1.637132
0.418164	1.637216
0.418262	1.637248
0.418359	1.637262
0.418457	1.637234
0.418555	1.637281
0.418652	1.637280
0.418750	1.637324
0.418848	1.637397
0.418945	1.637346
0.419043	1.637250
0.419141	1.637367
0.419238	1.637254
0.419336	1.637358
0.419434	1.637393
0.419531	1.637438
0.419629	1.637548
0.419727	1.637512
0.419824	1.637447
0.419922	1.637508
0.420020	1.637500
0.420117	1.637508
0.420215	1.637560
0.420312	1.637528
0.420410	1.637547
0.420508	1.637565
0.420605	1.637526
0.420703	1.637596
0.420801	1.637557
0.420898	1.637638
0.420996	1.637698
0.421094	1.637626
0.421191	1.637677
0.421289	1.637710
0.421387	1.637774
0.421484	1.637778
0.421582	1.637747
0.421680	1.637749
0.421777	1.637656
0.421875	1.637625
0.421973	1.637729
0.422070	1.637840
0.422168	1.637793
0.422266	1.637848
0.422363	1.637842
0.422461	1.637850
0.422559	1.637883
0.422656	1.637807
0.422754	1.637859
0.422852	1.637863
0.422949	1.637919
0.423047	1.637821
0.423145	1.637903
0.423242	1.637856
0.423340	1.637812
0.423437	1.637765
0.423535	1.637862
0.423633	1.637818
0.423730	1.637753
0.423828	1.637744
0.423926	1.637715
0.424023	1.637704
0.424121	1.637624
0.424219	1.637685
0.424316	1.637542
0.424414	1.637547
0.424512	1.637580
0.424609	1.637551
0.424707	1.637476
0.424805	1.637429
0.424902	1.637455
0.425000	1.637389
0.425098	1.637434
0.425195	1.637427
0.425293	1.637223
0.425391	1.637365
0.425488	1.637291
0.425586	1.637274
0.425684	1.637275
0.425781	1.637238
0.425879	1.637281
0.425977	1.637253
0.426074	1.637259
0.426172	1.637273
0.426270	1.637241
0.426367	1.637223
0.426465	1.637202
0.426562	1.637231
0.426660	1.637169
0.426758	1.637295
0.426855	1.637162
0.426953	1.637252
0.427051	1.637244
0.427148	1.637294
0.427246	1.637269
0.427344	1.637255
0.427441	1.637356
0.427539	1.637322
0.427637	1.637329
0.427734	1.637394
0.427832	1.637419
0.427930	1.637457
0.428027	1.637497
0.428125	1.637416
0.428223	1.637516
0.428320	1.637488
0.428418	1.637570
0.428516	1.637573
0.428613	1.637615
0.428711	1.637663
0.428809	1.637653
0.428906	1.637605
0.429004	1.637604
0.429102	1.637540
0.429199	1.637537
0.429297	1.637455
0.429395	1.637568
0.429492	1.637552
0.429590	1.637510
0.429687	1.637506
0.429785	1.637580
0.429883	1.637469
0.429980	1.637392
0.430078	1.637371
0.430176	1.637463
0.430273	1.637414
0.430371	1.637479
0.430469	1.637414
0.430566	1.637327
0.430664	1.637250
0.430762	1.637369
0.430859	1.637375
0.430957	1.637307
0.431055	1.637364
0.431152	1.637266
0.431250	1.637256
0.431348	1.637283
0.431445	1.637232
0.431543	1.637327
0.431641	1.637245
0.431738	1.637172
0.431836	1.637136
0.431934	1.637192
0.432031	1.637124
0.432129	1.637290
0.432227	1.637276
0.432324	1.637236
0.432422	1.637356
0.432520	1.637270
0.432617	1.637279
0.432715	1.637346
0.432812	1.637275
0.432910	1.637304
0.433008	1.637335
0.433105	1.637326
0.433203	1.637356
0.433301	1.637300
0.433398	1.637396
0.433496	1.637302
0.433594	1.637405
0.433691	1.637258
0.433789	1.637327
0.433887	1.637361
0.433984	1.637343
0.434082	1.637360
0.434180	1.637400
0.434277	1.637401
0.434375	1.637439
0.434473	1.637402
0.434570	1.637452
0.434668	1.637447
0.434766	1.637419
0.434863	1.637508
0.434961	1.637450
0.435059	1.637563
0.435156	1.637497
0.435254	1.637517
0.435352	1.637508
0.435449	1.637509
0.435547	1.637547
0.435645	1.637616
0.435742	1.637578
0.435840	1.637612
0.435937	1.637616
0.436035	1.637673
0.436133	1.637572
0.436230	1.637656
0.436328	1.637667
0.436426	1.637674
0.436523	1.637671
0.436621	1.637676
0.436719	1.637716
0.436816	1.637702
0.436914	1.637679
0.437012	1.637731
0.437109	1.637734
0.437207	1.637732
0.437305	1.637759
0.437402	1.637716
0.437500	1.637810
0.437598	1.637767
0.437695	1.637773
0.437793	1.637765
0.437891	1.637714
0.437988	1.637838
0.438086	1.637697
0.438184	1.637776
0.438281	1.637840
0.438379	1.637803
0.438477	1.637868
0.438574	1.637782
0.438672	1.637818
0.438770	1.637723
0.438867	1.637868
0.438965	1.637621
0.439062	1.637685
0.439160	1.637602
0.439258	1.637663
0.439355	1.637665
0.439453	1.637706
0.439551	1.637695
0.439648	1.637724
0.439746	1.637821
0.439844	1.637689
0.439941	1.637765
0.440039	1.637707
0.440137	1.637779
0.440234	1.637778
0.440332	1.637663
0.440430	1.637743
0.440527	1.637695
0.440625	1.637852
0.440723	1.637764
0.440820	1.637870
0.440918	1.637772
0.441016	1.637788
0.441113	1.637770
0.441211	1.637815
0.441309	1.637831
0.441406	1.637798
0.441504	1.637847
0.441602	1.637811
0.441699	1.637717
0.441797	1.637721
0.441895	1.637659
0.441992	1.637748
0.442090	1.637789
0.442187	1.637789
0.442285	1.637825
0.442383	1.637770
0.442480	1.637834
0.442578	1.637815
0.442676	1.637798
0.442773	1.637731
0.442871	1.637781
0.442969	1.637774
0.443066	1.637783
0.443164	1.637790
0.443262	1.637756
0.443359	1.637754
0.443457	1.637793
0.443555	1.637793
0.443652	1.637796
0.443750	1.637774
0.443848	1.637761
0.443945	1.637859
0.444043	1.637846
0.444141	1.637847
0.444238	1.637766
0.444336	1.637833
0.444434	1.637801
0.444531	1.637832
0.444629	1.637925
0.444727	1.637870
0.444824	1.637901
0.444922	1.637905
0.445020	1.637948
0.445117	1.637971
0.445215	1.637879
0.445312	1.637945
0.445410	1.637915
0.445508	1.637997
0.445605	1.637935
0.445703	1.637922
0.445801	1.638008
0.445898	1.637944
0.445996	1.637943
0.446094	1.637991
0.446191	1.638012
0.446289	1.638006
0.446387	1.638063
0.446484	1.638061
0.446582	1.637993
0.446680	1.637991
0.446777	1.638054
0.446875	1.637994
0.446973	1.637986
0.447070	1.637986
0.447168	1.637895
0.447266	1.638031
0.447363	1.637983
0.447461	1.637962
0.447559	1.638006
0.447656	1.637934
0.447754	1.637871
0.447852	1.637996
0.447949	1.637835
0.448047	1.638048
0.448145	1.637959
0.448242	1.637947
0.448340	1.637965
0.448437	1.637970
0.448535	1.637978
0.448633	1.637973
0.448730	1.637986
0.448828	1.638008
0.448926	1.637990
0.449023	1.637891
0.449121	1.637887
0.449219	1.637854
0.449316	1.637944
0.449414	1.637883
0.449512	1.637918
0.449609	1.637987
0.449707	1.638016
0.449805	1.637891
0.449902	1.637907
0.450000	1.637912
0.450098	1.638007
0.450195	1.637903
0.450293	1.638009
0.450391	1.637882
0.450488	1.637967
0.450586	1.637952
0.450684	1.637909
0.450781	1.637978
0.450879	1.637965
0.450977	1.637890
0.451074	1.637942
0.451172	1.637911
0.451270	1.637854
0.451367	1.637893
0.451465	1.637876
0.451562	1.637880
0.451660	1.637754
0.451758	1.637774
0.451855	1.637747
0.451953	1.637833
0.452051	1.637881
0.452148	1.637859
0.452246	1.637884
0.452344	1.637885
0.452441	1.637881
0.452539	1.637829
0.452637	1.637932
0.452734	1.637910
0.452832	1.637883
0.452930	1.637948
0.453027	1.637884
0.453125	1.637897
0.453223	1.637865
0.453320	1.637865
0.453418	1.637936
0.453516	1.637902
0.453613	1.637883
0.453711	1.637861
0.453809	1.637944
0.453906	1.637876
0.454004	1.637895
0.454102	1.637832
0.454199	1.637881
0.454297	1.637908
0.454395	1.637836
0.454492	1.637881
0.454590	1.637849
0.454687	1.637901
0.454785	1.637856
0.454883	1.637940
0.454980	1.637785
0.455078	1.637865
0.455176	1.637895
0.455273	1.637907
0.455371	1.637970
0.455469	1.637902
0.455566	1.637893
0.455664	1.637888
0.455762	1.637901
0.455859	1.637911
0.455957	1.637987
0.456055	1.637950
0.456152	1.637934
0.456250	1.638003
0.456348	1.637972
0.456445	1.637961
0.456543	1.637989
0.456641	1.638005
0.456738	1.637977
0.456836	1.638073
0.456934	1.637967
0.457031	1.638068
0.457129	1.637949
0.457227	1.638063
0.457324	1.637944
0.457422	1.638012
0.457520	1.638076
0.457617	1.638036
0.457715	1.638095
0.457812	1.638076
0.457910	1.638092
0.458008	1.638072
0.458105	1.638114
0.458203	1.638099
0.458301	1.638146
0.458398	1.638142
0.458496	1.638149
0.458594	1.638138
0.458691	1.638144
0.458789	1.638124
0.458887	1.638136
0.458984	1.638001
0.459082	1.638003
0.459180	1.638008
0.459277	1.637993
0.459375	1.638053
0.459473	1.637993
0.459570	1.638024
0.459668	1.637957
0.459766	1.637963
0.459863	1.638039
0.459961	1.637951
0.460059	1.638048
0.460156	1.638030
0.460254	1.637973
0.460352	1.638067
0.460449	1.638059
0.460547	1.638006
0.460645	1.638071
0.460742	1.637978
0.460840	1.638042
0.460937	1.638093
0.461035	1.638048
0.461133	1.638057
0.461230	1.638083
0.461328	1.638059
0.461426	1.638036
0.461523	1.638097
0.461621	1.638024
0.461719	1.638114
0.461816	1.638019
0.461914	1.637995
0.462012	1.638132
0.462109	1.638128
0.462207	1.638160
0.462305	1.638135
0.462402	1.638119
0.462500	1.638108
0.462598	1.638157
0.462695	1.638190
0.462793	1.638223
0.462891	1.638192
0.462988	1.638191
0.463086	1.638160
0.463184	1.638121
0.463281	1.638148
0.463379	1.638183
0.463477	1.638225
0.463574	1.638257
0.463672	1.638221
0.463770	1.638192
0.463867	1.638190
0.463965	1.638144
0.464062	1.638246
0.464160	1.638251
0.464258	1.638279
0.464355	1.638308
0.464453	1.638261
0.464551	1.638226
0.464648	1.638343
0.464746	1.638292
0.464844	1.638287
0.464941	1.638330
0.465039	1.638357
0.465137	1.638392
0.465234	1.638353
0.465332	1.638362
0.465430	1.638362
0.465527	1.638329
0.465625	1.638396
0.465723	1.638358
0.465820	1.638403
0.465918	1.638393
0.466016	1.638351
0.466113	1.638367
0.466211	1.638336
0.466309	1.638380
0.466406	1.638286
0.466504	1.638359
0.466602	1.638361
0.466699	1.638332
0.466797	1.638329
0.466895	1.638330
0.466992	1.638349
0.467090	1.638300
0.467187	1.638324
0.467285	1.638297
0.467383	1.638329
0.467480	1.638241
0.467578	1.638343
0.467676	1.638260
0.467773	1.638283
0.467871	1.638258
0.467969	1.638298
0.468066	1.638307
0.468164	1.638283
0.468262	1.638285
0.468359	1.638305
0.468457	1.638304
0.468555	1.638313
0.468652	1.638320
0.468750	1.638282
0.468848	1.638408
0.468945	1.638242
0.469043	1.638249
0.469141	1.638209
0.469238	1.638239
0.469336	1.638188
0.469434	1.638244
0.469531	1.638221
0.469629	1.638213
0.469727	1.638199
0.469824	1.638135
0.469922	1.638180
0.470020	1.638176
0.470117	1.638109
0.470215	1.638271
0.470312	1.638217
0.470410	1.638190
0.470508	1.638188
0.470605	1.638135
0.470703	1.638085
0.470801	1.638236
0.470898	1.638201
0.470996	1.638218
0.471094	1.638167
0.471191	1.638200
0.471289	1.638232
0.471387	1.638196
0.471484	1.638232
0.471582	1.638246
0.471680	1.638227
0.471777	1.638124
0.471875	1.638174
0.471973	1.638263
0.472070	1.638357
0.472168	1.638268
0.472266	1.638261
0.472363	1.638304
0.472461	1.638311
0.472559	1.638304
0.472656	1.638296
0.472754	1.638366
0.472852	1.638325
0.472949	1.638361
0.473047	1.638308
0.473145	1.638357
0.473242	1.638258
0.473340	1.638268
0.473437	1.638260
0.473535	1.638261
0.473633	1.638229
0.473730	1.638205
0.473828	1.638246
0.473926	1.638240
0.474023	1.638235
0.474121	1.638147
0.474219	1.638082
0.474316	1.638081
0.474414	1.638020
0.474512	1.638074
0.474609	1.638057
0.474707	1.638121
0.474805	1.638105
0.474902	1.638042
0.475000	1.637967
0.475098	1.638000
0.475195	1.637987
0.475293	1.638085
0.475391	1.637951
0.475488	1.638027
0.475586	1.637945
0.475684	1.637947
0.475781	1.637986
0.475879	1.637933
0.475977	1.637891
0.476074	1.637928
0.476172	1.637840
0.476270	1.637867
0.476367	1.637853
0.476465	1.637933
0.476562	1.637893
0.476660	1.637789
0.476758	1.637826
0.476855	1.637902
0.476953	1.637774
0.477051	1.637815
0.477148	1.637703
0.477246	1.637831
0.477344	1.637817
0.477441	1.637744
0.477539	1.637775
0.477637	1.637868
0.477734	1.637792
0.477832	1.637873
0.477930	1.637796
0.478027	1.637845
0.478125	1.637832
0.478223	1.637867
0.478320	1.637877
0.478418	1.637900
0.478516	1.637913
0.478613	1.637916
0.478711	1.637909
0.478809	1.637908
0.478906	1.637925
0.479004	1.637915
0.479102	1.637868
0.479199	1.637868
0.479297	1.637859
0.479395	1.637902
0.479492	1.637940
0.479590	1.637906
0.479687	1.637963
0.479785	1.637899
0.479883	1.637929
0.479980	1.637948
0.480078	1.637971
0.480176	1.637951
0.480273	1.637978
0.480371	1.637989
0.480469	1.637950
0.480566	1.637950
0.480664	1.637950
0.480762	1.637950
0.480859	1.637929
0.480957	1.637965
0.481055	1.637975
0.481152	1.637955
0.481250	1.637901
0.481348	1.637894
0.481445	1.637934
0.481543	1.637875
0.481641	1.637867
0.481738	1.637838
0.481836	1.637700
0.481934	1.637814
0.482031	1.637846
0.482129	1.637870
0.482227	1.637899
0.482324	1.637852
0.482422	1.637795
0.482520	1.637809
0.482617	1.637848
0.482715	1.637774
0.482812	1.637806
0.482910	1.637823
0.483008	1.637830
0.483105	1.637831
0.483203	1.637748
0.483301	1.637800
0.483398	1.637770
0.483496	1.637715
0.483594	1.637829
0.483691	1.637763
0.483789	1.637776
0.483887	1.637725
0.483984	1.637745
0.484082	1.637760
0.484180	1.637715
0.484277	1.637744
0.484375	1.637660
0.484473	1.637660
0.484570	1.637707
0.484668	1.637685
0.484766	1.637774
0.484863	1.637745
0.484961	1.637757
0.485059	1.637792
0.485156	1.637689
0.485254	1.637682
0.485352	1.637683
0.485449	1.637676
0.485547	1.637650
0.485645	1.637717
0.485742	1.637732
0.485840	1.637645
0.485937	1.637708
0.486035	1.637693
0.486133	1.637738
0.486230	1.637613
0.486328	1.637693
0.486426	1.637630
0.486523	1.637635
0.486621	1.637684
0.486719	1.637599
0.486816	1.637605
0.486914	1.637580
0.487012	1.637626
0.487109	1.637588
0.487207	1.637569
0.487305	1.637681
0.487402	1.637606
0.487500	1.637623
0.487598	1.637589
0.487695	1.637551
0.487793	1.637685
0.487891	1.637604
0.487988	1.637620
0.488086	1.637626
0.488184	1.637634
0.488281	1.637678
0.488379	1.637577
0.488477	1.637678
0.488574	1.637607
0.488672	1.637690
0.488770	1.637691
0.488867	1.637660
0.488965	1.637580
0.489062	1.637610
0.489160	1.637593
0.489258	1.637503
0.489355	1.637588
0.489453	1.637515
0.489551	1.637602
0.489648	1.637620
0.489746	1.637588
0.489844	1.637571
0.489941	1.637540
0.490039	1.637618
0.490137	1.637594
0.490234	1.637549
0.490332	1.637607
0.490430	1.637598
0.490527	1.637599
0.490625	1.637540
0.490723	1.637634
0.490820	1.637560
0.490918	1.637564
0.491016	1.637643
0.491113	1.637540
0.491211	1.637607
0.491309	1.637573
0.491406	1.637554
0.491504	1.637623
0.491602	1.637527
0.491699	1.637561
0.491797	1.637461
0.491895	1.637412
0.491992	1.637574
0.492090	1.637571
0.492187	1.637565
0.492285	1.637560
0.492383	1.637592
0.492480	1.637593
0.492578	1.637574
0.492676	1.637611
0.492773	1.637668
0.492871	1.637602
0.492969	1.637599
0.493066	1.637662
0.493164	1.637677
0.493262	1.637632
0.493359	1.637637
0.493457	1.637547
0.493555	1.637700
0.493652	1.637685
0.493750	1.637671
0.493848	1.637727
0.493945	1.637651
0.494043	1.637695
0.494141	1.637693
0.494238	1.637715
0.494336	1.637629
0.494434	1.637647
0.494531	1.637623
0.494629	1.637685
0.494727	1.637629
0.494824	1.637650
0.494922	1.637626
0.495020	1.637637
0.495117	1.637630
0.495215	1.637630
0.495312	1.637630
0.495410	1.637625
0.495508	1.637676
0.495605	1.637614
0.495703	1.637622
0.495801	1.637599
0.495898	1.637618
0.495996	1.637468
0.496094	1.637570
0.496191	1.637609
0.496289	1.637543
0.496387	1.637567
0.496484	1.637561
0.496582	1.637522
0.496680	1.637505
0.496777	1.637481
0.496875	1.637517
0.496973	1.637496
0.497070	1.637533
0.497168	1.637513
0.497266	1.637466
0.497363	1.637452
0.497461	1.637453
0.497559	1.637576
0.497656	1.637482
0.497754	1.637466
0.497852	1.637522
0.497949	1.637542
0.498047	1.637529
0.498145	1.637558
0.498242	1.637588
0.498340	1.637568
0.498437	1.637627
0.498535	1.637615
0.498633	1.637562
0.498730	1.637579
0.498828	1.637631
0.498926	1.637545
0.499023	1.637543
0.499121	1.637486
0.499219	1.637492
0.499316	1.637557
0.499414	1.637635
0.499512	1.637621
0.499609	1.637632
0.499707	1.637619
0.499805	1.637611
0.499902	1.637554
0.500000	1.637543
0.500098	1.637619
0.500195	1.637601
0.500293	1.637607
0.500391	1.637692
0.500488	1.637644
0.500586	1.637698
0.500684	1.637658
0.500781	1.637703
0.500879	1.637681
0.500977	1.637768
0.501074	1.637743
0.501172	1.637748
0.501270	1.637809
0.501367	1.637779
0.501465	1.637826
0.501562	1.637782
0.501660	1.637834
0.501758	1.637768
0.501855	1.637767
0.501953	1.637860
0.502051	1.637956
0.502148	1.637972
0.502246	1.638013
0.502344	1.637929
0.502441	1.637936
0.502539	1.637956
0.502637	1.637890
0.502734	1.637909
0.502832	1.637966
0.502930	1.637947
0.503027	1.637970
0.503125	1.637937
0.503223	1.637906
0.503320	1.637851
0.503418	1.637918
0.503516	1.637814
0.503613	1.637764
0.503711	1.637839
0.503809	1.637718
0.503906	1.637767
0.504004	1.637674
0.504102	1.637629
0.504199	1.637584
0.504297	1.637529
0.504395	1.637465
0.504492	1.637412
0.504590	1.637463
0.504687	1.637372
0.504785	1.637410
0.504883	1.637338
0.504980	1.637283
0.505078	1.637261
0.505176	1.637214
0.505273	1.637218
0.505371	1.637098
0.505469	1.637134
0.505566	1.637117
0.505664	1.637083
0.505762	1.637059
0.505859	1.637074
0.505957	1.637059
0.506055	1.637098
0.506152	1.637107
0.506250	1.637037
0.506348	1.636997
0.506445	1.637052
0.506543	1.637048
0.506641	1.637057
0.506738	1.637017
0.506836	1.637008
0.506934	1.637019
0.507031	1.637066
0.507129	1.637026
0.507227	1.637075
0.507324	1.637007
0.507422	1.637127
0.507520	1.637042
0.507617	1.637175
0.507715	1.637124
0.507812	1.637162
0.507910	1.637234
0.508008	1.637195
0.508105	1.637263
0.508203	1.637173
0.508301	1.637261
0.508398	1.637239
0.508496	1.637270
0.508594	1.637351
0.508691	1.637271
0.508789	1.637280
0.508887	1.637364
0.508984	1.637333
0.509082	1.637319
0.509180	1.637273
0.509277	1.637334
0.509375	1.637354
0.509473	1.637448
0.509570	1.637378
0.509668	1.637461
0.509766	1.637538
0.509863	1.637546
0.509961	1.637423
0.510059	1.637535
0.510156	1.637542
0.510254	1.637559
0.510352	1.637554
0.510449	1.637511
0.510547	1.637483
0.510645	1.637500
0.510742	1.637532
0.510840	1.637485
0.510937	1.637512
0.511035	1.637493
0.511133	1.637485
0.511230	1.637505
0.511328	1.637454
0.511426	1.637482
0.511523	1.637455
0.511621	1.637458
0.511719	1.637447
0.511816	1.637352
0.511914	1.637395
0.512012	1.637367
0.512109	1.637339
0.512207	1.637393
0.512305	1.637330
0.512402	1.637371
0.512500	1.637372
0.512598	1.637335
0.512695	1.637361
0.512793	1.637366
0.512891	1.637266
0.512988	1.637242
0.513086	1.637227
0.513184	1.637202
0.513281	1.637214
0.513379	1.637243
0.513477	1.637206
0.513574	1.637148
0.513672	1.637170
0.513770	1.637154
0.513867	1.637154
0.513965	1.637092
0.514062	1.637170
0.514160	1.637087
0.514258	1.637080
0.514355	1.637151
0.514453	1.637064
0.514551	1.637070
0.514648	1.637017
0.514746	1.637050
0.514844	1.637022
0.514941	1.637054
0.515039	1.636942
0.515137	1.636957
0.515234	1.637037
0.515332	1.636968
0.515430	1.636980
0.515527	1.637036
0.515625	1.637048
0.515723	1.637011
0.515820	1.637018
0.515918	1.637050
0.516016	1.637094
0.516113	1.636973
0.516211	1.637045
0.516309	1.637047
0.516406	1.636985
0.516504	1.637021
0.516602	1.637058
0.516699	1.637025
0.516797	1.637056
0.516895	1.637048
0.516992	1.636945
0.517090	1.637062
0.517187	1.637007
0.517285	1.637042
0.517383	1.637034
0.517480	1.637006
0.517578	1.637083
0.517676	1.636960
0.517773	1.636954
0.517871	1.636968
0.517969	1.637040
0.518066	1.637029
0.518164	1.637068
0.518262	1.637012
0.518359	1.637052
0.518457	1.637089
0.518555	1.637063
0.518652	1.637078
0.518750	1.637075
0.518848	1.637100
0.518945	1.637054
0.519043	1.636996
0.519141	1.637027
0.519238	1.636982
0.519336	1.637025
0.519434	1.637140
0.519531	1.637138
0.519629	1.637234
0.519727	1.637181
0.519824	1.637166
0.519922	1.637119
0.520020	1.637165
0.520117	1.637135
0.520215	1.637221
0.520312	1.637246
0.520410	1.637291
0.520508	1.637305
0.520605	1.637306
0.520703	1.637291
0.520801	1.637284
0.520898	1.637328
0.520996	1.637267
0.521094	1.637353
0.521191	1.637316
0.521289	1.637274
0.521387	1.637363
0.521484	1.637296
0.521582	1.637382
0.521680	1.637289
0.521777	1.637255
0.521875	1.637183
0.521973	1.637324
0.522070	1.637294
0.522168	1.637377
0.522266	1.637274
0.522363	1.637405
0.522461	1.637407
0.522559	1.637296
0.522656	1.637383
0.522754	1.637358
0.522852	1.637377
0.522949	1.637403
0.523047	1.637424
0.523145	1.637331
0.523242	1.637387
0.523340	1.637382
0.523437	1.637405
0.523535	1.637433
0.523633	1.637468
0.523730	1.637434
0.523828	1.637449
0.523926	1.637431
0.524023	1.637478
0.524121	1.637569
0.524219	1.637478
0.524316	1.637501
0.524414	1.637483
0.524512	1.637519
0.524609	1.637540
0.524707	1.637500
0.524805	1.637499
0.524902	1.637585
0.525000	1.637558
0.525098	1.637524
0.525195	1.637492
0.525293	1.637481
0.525391	1.637532
0.525488	1.637509
0.525586	1.637493
0.525684	1.637545
0.525781	1.637555
0.525879	1.637516
0.525977	1.637489
0.526074	1.637590
0.526172	1.637518
0.526270	1.637582
0.526367	1.637607
0.526465	1.637573
0.526562	1.637717
0.526660	1.637598
0.526758	1.637706
0.526855	1.637652
0.526953	1.637680
0.527051	1.637589
0.527148	1.637574
0.527246	1.637711
0.527344	1.637588
0.527441	1.637617
0.527539	1.637676
0.527637	1.637599
0.527734	1.637598
0.527832	1.637518
0.527930	1.637599
0.528027	1.637573
0.528125	1.637607
0.528223	1.637565
0.528320	1.637491
0.528418	1.637587
0.528516	1.637442
0.528613	1.637482
0.528711	1.637474
0.528809	1.637446
0.528906	1.637416
0.529004	1.637388
0.529102	1.637363
0.529199	1.637253
0.529297	1.637262
0.529395	1.637303
0.529492	1.637352
0.529590	1.637375
0.529687	1.637392
0.529785	1.637402
0.529883	1.637361
0.529980	1.637357
0.530078	1.637364
0.530176	1.637387
0.530273	1.637350
0.530371	1.637330
0.530469	1.637250
0.530566	1.637372
0.530664	1.637363
0.530762	1.637424
0.530859	1.637352
0.530957	1.637435
0.531055	1.637380
0.531152	1.637384
0.531250	1.637395
0.531348	1.637377
0.531445	1.637361
0.531543	1.637344
0.531641	1.637416
0.531738	1.637314
0.531836	1.637330
0.531934	1.637419
0.532031	1.637419
0.532129	1.637443
0.532227	1.637379
0.532324	1.637468
0.532422	1.637437
0.532520	1.637413
0.532617	1.637438
0.532715	1.637413
0.532812	1.637421
0.532910	1.637444
0.533008	1.637405
0.533105	1.637449
0.533203	1.637475
0.533301	1.637458
0.533398	1.637441
0.533496	1.637416
0.533594	1.637478
0.533691	1.637429
0.533789	1.637524
0.533887	1.637507
0.533984	1.637466
0.534082	1.637477
0.534180	1.637484
0.534277	1.637532
0.534375	1.637497
0.534473	1.637535
0.534570	1.637519
0.534668	1.637528
0.534766	1.637482
0.534863	1.637472
0.534961	1.637582
0.535059	1.637523
0.535156	1.637569
0.535254	1.637551
0.535352	1.637617
0.535449	1.637601
0.535547	1.637575
0.535645	1.637698
0.535742	1.637679
0.535840	1.637702
0.535937	1.637595
0.536035	1.637662
0.536133	1.637687
0.536230	1.637692
0.536328	1.637718
0.536426	1.637696
0.536523	1.637745
0.536621	1.637754
0.536719	1.637783
0.536816	1.637680
0.536914	1.637749
0.537012	1.637828
0.537109	1.637792
0.537207	1.637819
0.537305	1.637809
0.537402	1.637821
0.537500	1.637840
0.537598	1.637797
0.537695	1.637815
0.537793	1.637803
0.537891	1.637885
0.537988	1.637892
0.538086	1.637824
0.538184	1.637915
0.538281	1.637928
0.538379	1.637936
0.538477	1.637893
0.538574	1.637856
0.538672	1.637926
0.538770	1.637879
0.538867	1.637842
0.538965	1.637821
0.539062	1.637754
0.539160	1.637736
0.539258	1.637722
0.539355	1.637770
0.539453	1.637730
0.539551	1.637770
0.539648	1.637743
0.539746	1.637768
0.539844	1.637726
0.539941	1.637717
0.540039	1.637801
0.540137	1.637784
0.540234	1.637759
0.540332	1.637759
0.540430	1.637787
0.540527	1.637739
0.540625	1.637735
0.540723	1.637873
0.540820	1.637868
0.540918	1.637801
0.541016	1.637929
0.541113	1.637818
0.541211	1.637928
0.541309	1.637926
0.541406	1.637947
0.541504	1.637930
0.541602	1.637956
0.541699	1.637989
0.541797	1.637869
0.541895	1.637968
0.541992	1.638036
0.542090	1.638010
0.542187	1.638058
0.542285	1.638107
0.542383	1.638146
0.542480	1.638181
0.542578	1.638191
0.542676	1.638178
0.542773	1.638188
0.542871	1.638208
0.542969	1.638224
0.543066	1.638255
0.543164	1.638216
0.543262	1.638294
0.543359	1.638239
0.543457	1.638268
0.543555	1.638243
0.543652	1.638198
0.543750	1.638274
0.543848	1.638212
0.543945	1.638219
0.544043	1.638178
0.544141	1.638214
0.544238	1.638233
0.544336	1.638191
0.544434	1.638075
0.544531	1.638166
0.544629	1.638110
0.544727	1.638138
0.544824	1.638083
0.544922	1.638068
0.545020	1.638145
0.545117	1.638110
0.545215	1.638072
0.545312	1.638001
0.545410	1.638034
0.545508	1.638016
0.545605	1.638020
0.545703	1.638020
0.545801	1.638070
0.545898	1.638066
0.545996	1.638048
0.546094	1.638015
0.546191	1.638011
0.546289	1.638047
0.546387	1.638047
0.546484	1.638043
0.546582	1.638062
0.546680	1.638103
0.546777	1.638123
0.546875	1.638051
0.546973	1.638073
0.547070	1.638108
0.547168	1.638034
0.547266	1.638078
0.547363	1.638096
0.547461	1.638099
0.547559	1.638067
0.547656	1.638113
0.547754	1.638104
0.547852	1.638094
0.547949	1.638101
0.548047	1.638119
0.548145	1.638098
0.548242	1.638075
0.548340	1.638174
0.548437	1.638168
0.548535	1.638181
0.548633	1.638081
0.548730	1.638108
0.548828	1.638113
0.548926	1.637995
0.549023	1.638034
0.549121	1.637986
0.549219	1.637948
0.549316	1.637967
0.549414	1.637981
0.549512	1.637983
0.549609	1.637961
0.549707	1.638018
0.549805	1.638028
0.549902	1.638006
0.550000	1.637990
0.550098	1.638058
0.550195	1.638035
0.550293	1.638031
0.550391	1.638056
0.550488	1.638115
0.550586	1.638130
0.550684	1.638114
0.550781	1.638185
0.550879	1.638041
0.550977	1.638063
0.551074	1.638122
0.551172	1.638131
0.551270	1.638113
0.551367	1.638106
0.551465	1.638094
0.551562	1.638116
0.551660	1.638059
0.551758	1.638086
0.551855	1.637967
0.551953	1.638017
0.552051	1.638092
0.552148	1.638085
0.552246	1.638108
0.552344	1.638080
0.552441	1.638043
0.552539	1.638104
0.552637	1.638088
0.552734	1.638053
0.552832	1.638078
0.552930	1.638077
0.553027	1.638086
0.553125	1.638065
0.553223	1.638073
0.553320	1.638028
0.553418	1.638118
0.553516	1.638091
0.553613	1.638115
0.553711	1.638067
0.553809	1.638065
0.553906	1.638056
0.554004	1.638016
0.554102	1.638066
0.554199	1.638085
0.554297	1.638100
0.554395	1.638103
0.554492	1.638081
0.554590	1.638053
0.554687	1.638062
0.554785	1.638078
0.554883	1.638059
0.554980	1.638059
0.555078	1.638012
0.555176	1.638077
0.555273	1.638032
0.555371	1.637972
0.555469	1.637912
0.555566	1.637958
0.555664	1.637919
0.555762	1.637889
0.555859	1.637890
0.555957	1.637888
0.556055	1.637931
0.556152	1.637925
0.556250	1.637870
0.556348	1.637917
0.556445	1.637889
0.556543	1.637936
0.556641	1.637851
0.556738	1.637739
0.556836	1.637944
0.556934	1.637828
0.557031	1.637856
0.557129	1.637894
0.557227	1.637865
0.557324	1.637825
0.557422	1.637886
0.557520	1.637897
0.557617	1.637877
0.557715	1.637857
0.557812	1.637937
0.557910	1.638017
0.558008	1.637915
0.558105	1.638017
0.558203	1.637962
0.558301	1.637969
0.558398	1.637984
0.558496	1.637972
0.558594	1.637953
0.558691	1.637937
0.558789	1.637984
0.558887	1.637929
0.558984	1.637888
0.559082	1.637846
0.559180	1.637735
0.559277	1.637745
0.559375	1.637803
0.559473	1.637799
0.559570	1.637808
0.559668	1.637821
0.559766	1.637814
0.559863	1.637701
0.559961	1.637760
0.560059	1.637802
0.560156	1.637765
0.560254	1.637711
0.560352	1.637737
0.560449	1.637613
0.560547	1.637673
0.560645	1.637634
0.560742	1.637735
0.560840	1.637607
0.560937	1.637672
0.561035	1.637652
0.561133	1.637609
0.561230	1.637666
0.561328	1.637576
0.561426	1.637651
0.561523	1.637657
0.561621	1.637662
0.561719	1.637616
0.561816	1.637568
0.561914	1.637596
0.562012	1.637754
0.562109	1.637704
0.562207	1.637740
0.562305	1.637726
0.562402	1.637728
0.562500	1.637821
0.562598	1.637713
0.562695	1.637705
0.562793	1.637798
0.562891	1.637823
0.562988	1.637834
0.563086	1.637904
0.563184	1.637741
0.563281	1.637864
0.563379	1.637900
0.563477	1.637806
0.563574	1.637828
0.563672	1.637926
0.563770	1.637840
0.563867	1.637870
0.563965	1.637795
0.564062	1.637872
0.564160	1.637817
0.564258	1.637906
0.564355	1.637777
0.564453	1.637795
0.564551	1.637867
0.564648	1.637814
0.564746	1.637751
0.564844	1.637753
0.564941	1.637764
0.565039	1.637735
0.565137	1.637714
0.565234	1.637702
0.565332	1.637720
0.565430	1.637669
0.565527	1.637643
0.565625	1.637591
0.565723	1.637574
0.565820	1.637562
0.565918	1.637576
0.566016	1.637537
0.566113	1.637494
0.566211	1.637452
0.566309	1.637510
0.566406	1.637479
0.566504	1.637386
0.566602	1.637452
0.566699	1.637460
0.566797	1.637427
0.566895	1.637412
0.566992	1.637452
0.567090	1.637412
0.567187	1.637382
0.567285	1.637419
0.567383	1.637405
0.567480	1.637427
0.567578	1.637433
0.567676	1.637430
0.567773	1.637372
0.567871	1.637441
0.567969	1.637511
0.568066	1.637532
0.568164	1.637550
0.568262	1.637568
0.568359	1.637594
0.568457	1.637576
0.568555	1.637654
0.568652	1.637607
0.568750	1.637646
0.568848	1.637779
0.568945	1.637595
0.569043	1.637609
0.569141	1.637616
0.569238	1.637633
0.569336	1.637632
0.569434	1.637735
0.569531	1.637839
0.569629	1.637855
0.569727	1.637817
0.569824	1.637822
0.569922	1.637862
0.570020	1.637898
0.570117	1.637883
0.570215	1.637909
0.570312	1.637884
0.570410	1.637933
0.570508	1.637934
0.570605	1.638006
0.570703	1.637998
0.570801	1.638001
0.570898	1.638058
0.570996	1.638015
0.571094	1.638055
0.571191	1.638086
0.571289	1.638040
0.571387	1.638090
0.571484	1.638116
0.571582	1.638047
0.571680	1.637999
0.571777	1.637908
0.571875	1.637929
0.571973	1.638051
0.572070	1.638031
0.572168	1.638074
0.572266	1.638045
0.572363	1.638072
0.572461	1.638039
0.572559	1.638056
0.572656	1.638031
0.572754	1.638058
0.572852	1.637923
0.572949	1.637922
0.573047	1.637924
0.573145	1.637922
0.573242	1.637826
0.573340	1.637842
0.573437	1.637875
0.573535	1.637817
0.573633	1.637868
0.573730	1.637793
0.573828	1.637837
0.573926	1.637799
0.574023	1.637717
0.574121	1.637734
0.574219	1.637706
0.574316	1.637742
0.574414	1.637662
0.574512	1.637659
0.574609	1.637673
0.574707	1.637672
0.574805	1.637688
0.574902	1.637615
0.575000	1.637600
0.575098	1.637568
0.575195	1.637539
0.575293	1.637451
0.575391	1.637540
0.575488	1.637456
0.575586	1.637562
0.575684	1.637435
0.575781	1.637464
0.575879	1.637408
0.575977	1.637395
0.576074	1.637371
0.576172	1.637397
0.576270	1.637454
0.576367	1.637388
0.576465	1.637413
0.576562	1.637311
0.576660	1.637358
0.576758	1.637418
0.576855	1.637313
0.576953	1.637366
0.577051	1.637393
0.577148	1.637345
0.577246	1.637375
0.577344	1.637350
0.577441	1.637439
0.577539	1.637429
0.577637	1.637500
0.577734	1.637439
0.577832	1.637463
0.577930	1.637508
0.578027	1.637527
0.578125	1.637525
0.578223	1.637648
0.578320	1.637603
0.578418	1.637698
0.578516	1.637685
0.578613	1.637713
0.578711	1.637807
0.578809	1.637805
0.578906	1.637762
0.579004	1.637781
0.579102	1.637839
0.579199	1.637837
0.579297	1.637834
0.579395	1.637901
0.579492	1.637887
0.579590	1.637945
0.579687	1.637949
0.579785	1.637907
0.579883	1.637937
0.579980	1.637940
0.580078	1.637935
0.580176	1.638037
0.580273	1.637955
0.580371	1.637967
0.580469	1.638005
0.580566	1.638000
0.580664	1.638000
0.580762	1.637964
0.580859	1.637933
0.580957	1.637946
0.581055	1.637889
0.581152	1.637831
0.581250	1.637886
0.581348	1.637826
0.581445	1.637823
0.581543	1.637823
0.581641	1.637759
0.581738	1.637736
0.581836	1.637585
0.581934	1.637714
0.582031	1.637715
0.582129	1.637694
0.582227	1.637673
0.582324	1.637651
0.582422	1.637672
0.582520	1.637656
0.582617	1.637679
0.582715	1.637655
0.582812	1.637626
0.582910	1.637696
0.583008	1.637679
0.583105	1.637657
0.583203	1.637661
0.583301	1.637627
0.583398	1.637659
0.583496	1.637610
0.583594	1.637669
0.583691	1.637562
0.583789	1.637706
0.583887	1.637649
0.583984	1.637590
0.584082	1.637607
0.584180	1.637557
0.584277	1.637659
0.584375	1.637631
0.584473	1.637662
0.584570	1.637668
0.584668	1.637651
0.584766	1.637660
0.584863	1.637629
0.584961	1.637696
0.585059	1.637662
0.585156	1.637646
0.585254	1.637642
0.585352	1.637653
0.585449	1.637647
0.585547	1.637639
0.585645	1.637624
0.585742	1.637674
0.585840	1.637670
0.585937	1.637590
0.586035	1.637611
0.586133	1.637649
0.586230	1.637641
0.586328	1.637579
0.586426	1.637649
0.586523	1.637625
0.586621	1.637569
0.586719	1.637638
0.586816	1.637610
0.586914	1.637573
0.587012	1.637663
0.587109	1.637646
0.587207	1.637596
0.587305	1.637685
0.587402	1.637591
0.587500	1.637589
0.587598	1.637661
0.587695	1.637576
0.587793	1.637673
0.587891	1.637610
0.587988	1.637682
0.588086	1.637580
0.588184	1.637659
0.588281	1.637696
0.588379	1.637623
0.588477	1.637683
0.588574	1.637715
0.588672	1.637699
0.588770	1.637684
0.588867	1.637673
0.588965	1.637645
0.589062	1.637635
0.589160	1.637542
0.589258	1.637573
0.589355	1.637540
0.589453	1.637562
0.589551	1.637630
0.589648	1.637593
0.589746	1.637575
0.589844	1.637485
0.589941	1.637544
0.590039	1.637478
0.590137	1.637501
0.590234	1.637607
0.590332	1.637596
0.590430	1.637502
0.590527	1.637520
0.590625	1.637477
0.590723	1.637502
0.590820	1.637472
0.590918	1.637590
0.591016	1.637546
0.591113	1.637492
0.591211	1.637589
0.591309	1.637477
0.591406	1.637532
0.591504	1.637566
0.591602	1.637518
0.591699	1.637501
0.591797	1.637420
0.591895	1.637500
0.591992	1.637533
0.592090	1.637555
0.592187	1.637527
0.592285	1.637430
0.592383	1.637490
0.592480	1.637541
0.592578	1.637521
0.592676	1.637478
0.592773	1.637499
0.592871	1.637551
0.592969	1.637607
0.593066	1.637605
0.593164	1.637601
0.593262	1.637619
0.593359	1.637540
0.593457	1.637601
0.593555	1.637527
0.593652	1.637580
0.593750	1.637557
0.593848	1.637608
0.593945	1.637665
0.594043	1.637615
0.594141	1.637571
0.594238	1.637593
0.594336	1.637560
0.594434	1.637580
0.594531	1.637573
0.594629	1.637626
0.594727	1.637613
0.594824	1.637649
0.594922	1.637565
0.595020	1.637554
0.595117	1.637577
0.595215	1.637615
0.595312	1.637591
0.595410	1.637630
0.595508	1.637584
0.595605	1.637629
0.595703	1.637576
0.595801	1.637621
0.595898	1.637555
0.595996	1.637532
0.596094	1.637518
0.596191	1.637557
0.596289	1.637662
0.596387	1.637570
0.596484	1.637659
0.596582	1.637628
0.596680	1.637644
0.596777	1.637618
0.596875	1.637601
0.596973	1.637673
0.597070	1.637634
0.597168	1.637695
0.597266	1.637710
0.597363	1.637709
0.597461	1.637707
0.597559	1.637724
0.597656	1.637700
0.597754	1.637763
0.597852	1.637799
0.597949	1.637834
0.598047	1.637750
0.598145	1.637793
0.598242	1.637941
0.598340	1.637875
0.598437	1.637955
0.598535	1.637864
0.598633	1.637830
0.598730	1.637920
0.598828	1.637900
0.598926	1.637832
0.599023	1.637782
0.599121	1.637792
0.599219	1.637763
0.599316	1.637820
0.599414	1.637763
0.599512	1.637752
0.599609	1.637782
0.599707	1.637756
0.599805	1.637699
0.599902	1.637678
0.600000	1.637750
0.600098	1.637767
0.600195	1.637628
0.600293	1.637740
0.600391	1.637689
0.600488	1.637706
0.600586	1.637734
0.600684	1.637709
0.600781	1.637675
0.600879	1.637634
0.600977	1.637690
0.601074	1.637672
0.601172	1.637699
0.601270	1.637679
0.601367	1.637743
0.601465	1.637723
0.601562	1.637607
0.601660	1.637643
0.601758	1.637618
0.601855	1.637564
0.601953	1.637764
0.602051	1.637800
0.602148	1.637810
0.602246	1.637749
0.602344	1.637885
0.602441	1.637827
0.602539	1.637898
0.602637	1.637857
0.602734	1.637868
0.602832	1.637911
0.602930	1.637892
0.603027	1.637923
0.603125	1.637899
0.603223	1.637879
0.603320	1.637869
0.603418	1.637920
0.603516	1.637884
0.603613	1.637942
0.603711	1.637856
0.603809	1.637922
0.603906	1.637893
0.604004	1.637802
0.604102	1.637822
0.604199	1.637790
0.604297	1.637792
0.604395	1.637791
0.604492	1.637772
0.604590	1.637777
0.604687	1.637719
0.604785	1.637740
0.604883	1.637709
0.604980	1.637728
0.605078	1.637750
0.605176	1.637625
0.605273	1.637731
0.605371	1.637661
0.605469	1.637688
0.605566	1.637634
0.605664	1.637623
0.605762	1.637750
0.605859	1.637626
0.605957	1.637671
0.606055	1.637660
0.606152	1.637638
0.606250	1.637734
0.606348	1.637731
0.606445	1.637693
0.606543	1.637692
0.606641	1.637687
0.606738	1.637698
0.606836	1.637650
0.606934	1.637719
0.607031	1.637696
0.607129	1.637692
0.607227	1.637772
0.607324	1.637723
0.607422	1.637702
0.607520	1.637796
0.607617	1.637780
0.607715	1.637752
0.607812	1.637890
0.607910	1.637925
0.608008	1.637992
0.608105	1.637968
0.608203	1.638016
0.608301	1.637947
0.608398	1.638044
0.608496	1.638022
0.608594	1.638099
0.608691	1.638013
0.608789	1.638042
0.608887	1.638025
0.608984	1.638092
0.609082	1.637972
0.609180	1.637964
0.609277	1.638055
0.609375	1.638061
0.609473	1.638036
0.609570	1.638122
0.609668	1.638095
0.609766	1.638059
0.609863	1.638047
0.609961	1.638109
0.610059	1.638078
0.610156	1.638130
0.610254	1.638170
0.610352	1.638095
0.610449	1.638134
0.610547	1.638146
0.610645	1.638119
0.610742	1.638102
0.610840	1.638092
0.610937	1.638081
0.611035	1.638126
0.611133	1.638078
0.611230	1.638076
0.611328	1.638110
0.611426	1.638074
0.611523	1.638089
0.611621	1.637998
0.611719	1.638035
0.611816	1.637900
0.611914	1.638016
0.612012	1.638051
0.612109	1.638058
0.612207	1.637981
0.612305	1.637980
0.612402	1.637928
0.612500	1.637945
0.612598	1.637896
0.612695	1.637928
0.612793	1.637924
0.612891	1.637950
0.612988	1.637955
0.613086	1.637851
0.613184	1.637810
0.613281	1.637842
0.613379	1.637753
0.613477	1.637737
0.613574	1.637688
0.613672	1.637752
0.613770	1.637676
0.613867	1.637704
0.613965	1.637657
0.614062	1.637643
0.614160	1.637625
0.614258	1.637649
0.614355	1.637666
0.614453	1.637612
0.614551	1.637598
0.614648	1.637629
0.614746	1.637608
0.614844	1.637652
0.614941	1.637634
0.615039	1.637675
0.615137	1.637719
0.615234	1.637687
0.615332	1.637675
0.615430	1.637809
0.615527	1.637757
0.615625	1.637668
0.615723	1.637718
0.615820	1.637731
0.615918	1.637812
0.616016	1.637738
0.616113	1.637851
0.616211	1.637857
0.616309	1.637835
0.616406	1.637803
0.616504	1.637816
0.616602	1.637832
0.616699	1.637845
0.616797	1.637864
0.616895	1.637833
0.616992	1.637898
0.617090	1.637851
0.617187	1.637886
0.617285	1.637923
0.617383	1.637843
0.617480	1.637927
0.617578	1.637933
0.617676	1.637925
0.617773	1.637958
0.617871	1.638018
0.617969	1.637933
0.618066	1.637998
0.618164	1.637957
0.618262	1.638045
0.618359	1.638040
0.618457	1.638023
0.618555	1.638091
0.618652	1.638001
0.618750	1.638095
0.618848	1.638070
0.618945	1.637995
0.619043	1.638001
0.619141	1.638081
0.619238	1.637977
0.619336	1.638099
0.619434	1.638126
0.619531	1.638141
0.619629	1.638155
0.619727	1.638041
0.619824	1.638091
0.619922	1.638141
0.620020	1.638156
0.620117	1.638127
0.620215	1.638193
0.620312	1.638175
0.620410	1.638153
0.620508	1.638167
0.620605	1.638081
0.620703	1.638134
0.620801	1.638233
0.620898	1.638236
0.620996	1.638193
0.621094	1.638130
0.621191	1.638112
0.621289	1.638097
0.621387	1.638124
0.621484	1.638157
0.621582	1.638091
0.621680	1.638020
0.621777	1.637983
0.621875	1.638072
0.621973	1.638017
0.622070	1.638144
0.622168	1.638125
0.622266	1.638119
0.622363	1.638097
0.622461	1.638138
0.622559	1.638075
0.622656	1.638129
0.622754	1.638099
0.622852	1.638093
0.622949	1.638105
0.623047	1.638041
0.623145	1.638077
0.623242	1.638151
0.623340	1.638032
0.623437	1.638018
0.623535	1.638044
0.623633	1.638116
0.623730	1.638096
0.623828	1.638017
0.623926	1.638059
0.624023	1.638052
0.624121	1.638067
0.624219	1.638059
0.624316	1.637972
0.624414	1.638016
0.624512	1.637997
0.624609	1.638053
0.624707	1.637990
0.624805	1.637972
0.624902	1.637955
0.625000	1.638072
0.625098	1.637955
0.625195	1.637955
0.625293	1.637994
0.625391	1.638004
0.625488	1.637951
0.625586	1.637882
0.625684	1.637909
0.625781	1.637961
0.625879	1.637929
0.625977	1.637950
0.626074	1.638014
0.626172	1.637905
0.626270	1.637961
0.626367	1.637945
0.626465	1.637959
0.626562	1.637943
0.626660	1.637990
0.626758	1.637881
0.626855	1.637905
0.626953	1.637813
0.627051	1.637866
0.627148	1.637814
0.627246	1.637873
0.627344	1.637826
0.627441	1.637924
0.627539	1.637872
0.627637	1.637886
0.627734	1.637956
0.627832	1.637977
0.627930	1.637955
0.628027	1.638014
0.628125	1.638081
0.628223	1.638069
0.628320	1.638080
0.628418	1.638116
0.628516	1.638127
0.628613	1.638270
0.628711	1.638224
0.628809	1.638269
0.628906	1.638214
0.629004	1.638203
0.629102	1.638147
0.629199	1.638264
0.629297	1.638335
0.629395	1.638327
0.629492	1.638358
0.629590	1.638380
0.629687	1.638385
0.629785	1.638267
0.629883	1.638366
0.629980	1.638396
0.630078	1.638324
0.630176	1.638416
0.630273	1.638287
0.630371	1.638318
0.630469	1.638349
0.630566	1.638319
0.630664	1.638270
0.630762	1.638267
0.630859	1.638308
0.630957	1.638194
0.631055	1.638211
0.631152	1.638153
0.631250	1.638171
0.631348	1.638219
0.631445	1.638175
0.631543	1.638190
0.631641	1.638093
0.631738	1.637999
0.631836	1.637969
0.631934	1.638070
0.632031	1.638067
0.632129	1.638087
0.632227	1.638131
0.632324	1.638091
0.632422	1.638072
0.632520	1.638048
0.632617	1.638091
0.632715	1.638002
0.632812	1.638103
0.632910	1.638119
0.633008	1.638100
0.633105	1.638065
0.633203	1.638078
0.633301	1.638071
0.633398	1.638100
0.633496	1.638027
0.633594	1.638076
0.633691	1.638095
0.633789	1.638071
0.633887	1.638084
0.633984	1.638072
0.634082	1.638066
0.634180	1.638077
0.634277	1.638055
0.634375	1.638032
0.634473	1.638034
0.634570	1.637996
0.634668	1.637987
0.634766	1.637970
0.634863	1.637940
0.634961	1.637940
0.635059	1.637978
0.635156	1.638038
0.635254	1.638026
0.635352	1.638109
0.635449	1.638070
0.635547	1.638026
0.635645	1.638080
0.635742	1.638033
0.635840	1.638089
0.635937	1.638112
0.636035	1.638120
0.636133	1.638138
0.636230	1.638240
0.636328	1.638184
0.636426	1.638165
0.636523	1.638242
0.636621	1.638189
0.636719	1.638288
0.636816	1.638321
0.636914	1.638213
0.637012	1.638258
0.637109	1.638324
0.637207	1.638291
0.637305	1.638391
0.637402	1.638344
0.637500	1.638368
0.637598	1.638459
0.637695	1.638365
0.637793	1.638394
0.637891	1.638463
0.637988	1.638527
0.638086	1.638551
0.638184	1.638479
0.638281	1.638538
0.638379	1.638524
0.638477	1.638497
0.638574	1.638533
0.638672	1.638537
0.638770	1.638573
0.638867	1.638599
0.638965	1.638430
0.639062	1.638524
0.639160	1.638421
0.639258	1.638357
0.639355	1.638421
0.639453	1.638520
0.639551	1.638424
0.639648	1.638455
0.639746	1.638369
0.639844	1.638377
0.639941	1.638401
0.640039	1.638383
0.640137	1.638406
0.640234	1.638391
0.640332	1.638382
0.640430	1.638252
0.640527	1.638327
0.640625	1.638273
0.640723	1.638230
0.640820	1.638233
0.640918	1.638263
0.641016	1.638218
0.641113	1.638232
0.641211	1.638280
0.641309	1.638117
0.641406	1.638211
0.641504	1.638116
0.641602	1.638084
0.641699	1.638122
0.641797	1.637964
0.641895	1.638064
0.641992	1.638106
0.642090	1.638099
0.642187	1.638016
0.642285	1.638086
0.642383	1.638050
0.642480	1.638067
0.642578	1.638053
0.642676	1.638023
0.642773	1.638039
0.642871	1.638028
0.642969	1.637948
0.643066	1.637973
0.643164	1.637959
0.643262	1.637993
0.643359	1.637906
0.643457	1.637962
0.643555	1.637904
0.643652	1.637859
0.643750	1.637935
0.643848	1.637926
0.643945	1.637876
0.644043	1.637860
0.644141	1.637846
0.644238	1.637945
0.644336	1.637914
0.644434	1.637821
0.644531	1.637862
0.644629	1.637816
0.644727	1.637857
0.644824	1.637845
0.644922	1.637843
0.645020	1.637862
0.645117	1.637821
0.645215	1.637810
0.645312	1.637828
0.645410	1.637734
0.645508	1.637857
0.645605	1.637798
0.645703	1.637931
0.645801	1.637837
0.645898	1.637923
0.645996	1.637929
0.646094	1.637919
0.646191	1.637951
0.646289	1.637948
0.646387	1.638030
0.646484	1.638037
0.646582	1.637956
0.646680	1.638055
0.646777	1.638057
0.646875	1.638087
0.646973	1.638106
0.647070	1.638087
0.647168	1.638221
0.647266	1.638231
0.647363	1.638165
0.647461	1.638250
0.647559	1.638288
0.647656	1.638291
0.647754	1.638387
0.647852	1.638337
0.647949	1.638383
0.648047	1.638438
0.648145	1.638442
0.648242	1.638556
0.648340	1.638495
0.648437	1.638517
0.648535	1.638625
0.648633	1.638610
0.648730	1.638604
0.648828	1.638662
0.648926	1.638570
0.649023	1.638512
0.649121	1.638576
0.649219	1.638437
0.649316	1.638515
0.649414	1.638628
0.649512	1.638557
0.649609	1.638537
0.649707	1.638523
0.649805	1.638498
0.649902	1.638512
0.650000	1.638512
0.650098	1.638471
0.650195	1.638565
0.650293	1.638570
0.650391	1.638529
0.650488	1.638536
0.650586	1.638488
0.650684	1.638540
0.650781	1.638477
0.650879	1.638480
0.650977	1.638393
0.651074	1.638449
0.651172	1.638468
0.651270	1.638405
0.651367	1.638418
0.651465	1.638403
0.651562	1.638395
0.651660	1.638430
0.651758	1.638281
0.651855	1.638341
0.651953	1.638423
0.652051	1.638432
0.652148	1.638448
0.652246	1.638427
0.652344	1.638501
0.652441	1.638457
0.652539	1.638479
0.652637	1.638567
0.652734	1.638518
0.652832	1.638492
0.652930	1.638499
0.653027	1.638606
0.653125	1.638523
0.653223	1.638494
0.653320	1.638546
0.653418	1.638626
0.653516	1.638671
0.653613	1.638640
0.653711	1.638631
0.653809	1.638600
0.653906	1.638633
0.654004	1.638670
0.654102	1.638620
0.654199	1.638640
0.654297	1.638599
0.654395	1.638693
0.654492	1.638667
0.654590	1.638646
0.654687	1.638565
0.654785	1.638612
0.654883	1.638560
0.654980	1.638542
0.655078	1.638523
0.655176	1.638507
0.655273	1.638501
0.655371	1.638484
0.655469	1.638463
0.655566	1.638451
0.655664	1.638354
0.655762	1.638368
0.655859	1.638379
0.655957	1.638197
0.656055	1.638315
0.656152	1.638180
0.656250	1.638234
0.656348	1.638254
0.656445	1.638131
0.656543	1.638153
0.656641	1.638105
0.656738	1.638045
0.656836	1.638100
0.656934	1.638009
0.657031	1.638111
0.657129	1.638059
0.657227	1.638049
0.657324	1.638081
0.657422	1.637997
0.657520	1.637983
0.657617	1.638002
0.657715	1.637993
0.657812	1.638050
0.657910	1.638050
0.658008	1.638116
0.658105	1.638087
0.658203	1.638044
0.658301	1.638119
0.658398	1.638051
0.658496	1.638153
0.658594	1.638098
0.658691	1.638125
0.658789	1.638174
0.658887	1.638080
0.658984	1.638024
0.659082	1.638057
0.659180	1.638027
0.659277	1.638033
0.659375	1.638036
0.659473	1.638088
0.659570	1.638172
0.659668	1.638129
0.659766	1.638069
0.659863	1.638095
0.659961	1.638080
0.660059	1.638058
0.660156	1.638151
0.660254	1.638150
0.660352	1.638147
0.660449	1.638161
0.660547	1.638171
0.660645	1.638142
0.660742	1.638218
0.660840	1.638211
0.660937	1.638200
0.661035	1.638205
0.661133	1.638245
0.661230	1.638225
0.661328	1.638214
0.661426	1.638238
0.661523	1.638206
0.661621	1.638196
0.661719	1.638310
0.661816	1.638122
0.661914	1.638292
0.662012	1.638352
0.662109	1.638363
0.662207	1.638371
0.662305	1.638344
0.662402	1.638394
0.662500	1.638368
0.662598	1.638388
0.662695	1.638377
0.662793	1.638410
0.662891	1.638322
0.662988	1.638441
0.663086	1.638334
0.663184	1.638450
0.663281	1.638269
0.663379	1.638352
0.663477	1.638268
0.663574	1.638306
0.663672	1.638172
0.663770	1.638274
0.663867	1.638236
0.663965	1.638135
0.664062	1.638250
0.664160	1.638169
0.664258	1.638196
0.664355	1.638095
0.664453	1.638144
0.664551	1.638127
0.664648	1.638116
0.664746	1.638022
0.664844	1.638045
0.664941	1.638030
0.665039	1.637969
0.665137	1.638056
0.665234	1.637977
0.665332	1.637947
0.665430	1.637937
0.665527	1.637959
0.665625	1.637967
0.665723	1.637920
0.665820	1.637970
0.665918	1.637992
0.666016	1.638020
0.666113	1.638039
0.666211	1.637971
0.666309	1.638062
0.666406	1.638025
0.666504	1.638039
0.666602	1.638011
0.666699	1.638131
0.666797	1.638057
0.666895	1.638113
0.666992	1.638150
0.667090	1.638064
0.667187	1.638126
0.667285	1.638072
0.667383	1.638056
0.667480	1.638155
0.667578	1.638088
0.667676	1.638139
0.667773	1.638170
0.667871	1.638221
0.667969	1.638235
0.668066	1.638212
0.668164	1.638202
0.668262	1.638180
0.668359	1.638231
0.668457	1.638236
0.668555	1.638274
0.668652	1.638245
0.668750	1.638302
0.668848	1.638233
0.668945	1.638160
0.669043	1.638261
0.669141	1.638141
0.669238	1.638213
0.669336	1.638308
0.669434	1.638343
0.669531	1.638299
0.669629	1.638319
0.669727	1.638300
0.669824	1.638212
0.669922	1.638232
0.670020	1.638259
0.670117	1.638299
0.670215	1.638335
0.670312	1.638193
0.670410	1.638282
0.670508	1.638218
0.670605	1.638208
0.670703	1.638255
0.670801	1.638252
0.670898	1.638197
0.670996	1.638185
0.671094	1.638214
0.671191	1.638223
0.671289	1.638118
0.671387	1.638194
0.671484	1.638118
0.671582	1.638106
0.671680	1.638032
0.671777	1.637971
0.671875	1.638001
0.671973	1.638131
0.672070	1.638090
0.672168	1.638046
0.672266	1.638066
0.672363	1.638043
0.672461	1.638072
0.672559	1.638084
0.672656	1.638096
0.672754	1.638100
0.672852	1.638016
0.672949	1.638052
0.673047	1.638049
0.673145	1.638096
0.673242	1.638001
0.673340	1.638022
0.673437	1.637995
0.673535	1.638000
0.673633	1.637974
0.673730	1.638003
0.673828	1.638035
0.673926	1.638030
0.674023	1.638037
0.674121	1.638009
0.674219	1.637986
0.674316	1.637990
0.674414	1.638016
0.674512	1.637957
0.674609	1.638007
0.674707	1.637933
0.674805	1.638039
0.674902	1.637954
0.675000	1.637969
0.675098	1.637955
0.675195	1.637986
0.675293	1.638006
0.675391	1.637948
0.675488	1.637943
0.675586	1.637984
0.675684	1.638058
0.675781	1.637992
0.675879	1.638044
0.675977	1.637945
0.676074	1.638024
0.676172	1.638016
0.676270	1.637980
0.676367	1.638027
0.676465	1.638004
0.676562	1.637952
0.676660	1.637912
0.676758	1.637962
0.676855	1.637936
0.676953	1.637962
0.677051	1.637899
0.677148	1.637868
0.677246	1.637982
0.677344	1.637978
0.677441	1.638025
0.677539	1.637953
0.677637	1.637950
0.677734	1.638005
0.677832	1.638002
0.677930	1.638052
0.678027	1.638046
0.678125	1.638074
0.678223	1.638061
0.678320	1.638085
0.678418	1.638063
0.678516	1.638129
0.678613	1.638073
0.678711	1.638177
0.678809	1.638143
0.678906	1.638020
0.679004	1.638065
0.679102	1.637995
0.679199	1.637930
0.679297	1.638005
0.679395	1.638131
0.679492	1.638066
0.679590	1.638141
0.679687	1.638026
0.679785	1.638092
0.679883	1.638048
0.679980	1.638061
0.680078	1.638191
0.680176	1.638160
0.680273	1.638144
0.680371	1.638205
0.680469	1.638166
0.680566	1.638192
0.680664	1.638150
0.680762	1.638133
0.680859	1.638109
0.680957	1.638171
0.681055	1.638127
0.681152	1.638135
0.681250	1.638067
0.681348	1.638112
0.681445	1.638061
0.681543	1.638075
0.681641	1.638132
0.681738	1.637904
0.681836	1.637820
0.681934	1.637973
0.682031	1.637918
0.682129	1.637897
0.682227	1.637900
0.682324	1.637926
0.682422	1.637870
0.682520	1.637994
0.682617	1.637925
0.682715	1.637925
0.682812	1.637851
0.682910	1.637965
0.683008	1.638008
0.683105	1.637958
0.683203	1.637940
0.683301	1.637991
0.683398	1.637934
0.683496	1.637994
0.683594	1.638047
0.683691	1.638018
0.683789	1.638018
0.683887	1.638092
0.683984	1.638036
0.684082	1.638094
0.684180	1.638094
0.684277	1.638139
0.684375	1.638127
0.684473	1.638167
0.684570	1.638183
0.684668	1.638174
0.684766	1.638192
0.684863	1.638248
0.684961	1.638241
0.685059	1.638272
0.685156	1.638234
0.685254	1.638197
0.685352	1.638296
0.685449	1.638304
0.685547	1.638314
0.685645	1.638273
0.685742	1.638277
0.685840	1.638311
0.685937	1.638281
0.686035	1.638406
0.686133	1.638311
0.686230	1.638346
0.686328	1.638348
0.686426	1.638399
0.686523	1.638308
0.686621	1.638352
0.686719	1.638265
0.686816	1.638380
0.686914	1.638368
0.687012	1.638319
0.687109	1.638352
0.687207	1.638398
0.687305	1.638357
0.687402	1.638312
0.687500	1.638349
0.687598	1.638419
0.687695	1.638348
0.687793	1.638322
0.687891	1.638373
0.687988	1.638357
0.688086	1.638295
0.688184	1.638377
0.688281	1.638285
0.688379	1.638288
0.688477	1.638261
0.688574	1.638235
0.688672	1.638290
0.688770	1.638220
0.688867	1.638251
0.688965	1.638147
0.689062	1.638209
0.689160	1.638095
0.689258	1.638104
0.689355	1.638150
0.689453	1.638175
0.689551	1.638221
0.689648	1.638228
0.689746	1.638146
0.689844	1.638192
0.689941	1.638105
0.690039	1.638195
0.690137	1.638180
0.690234	1.638234
0.690332	1.638213
0.690430	1.638230
0.690527	1.638138
0.690625	1.638207
0.690723	1.638219
0.690820	1.638185
0.690918	1.638214
0.691016	1.638192
0.691113	1.638180
0.691211	1.638086
0.691309	1.638164
0.691406	1.638108
0.691504	1.638094
0.691602	1.638097
0.691699	1.638052
0.691797	1.637944
0.691895	1.638022
0.691992	1.637997
0.692090	1.637987
0.692187	1.637984
0.692285	1.638008
0.692383	1.637895
0.692480	1.638009
0.692578	1.637900
0.692676	1.637935
0.692773	1.637949
0.692871	1.637903
0.692969	1.637920
0.693066	1.637911
0.693164	1.637925
0.693262	1.637850
0.693359	1.637887
0.693457	1.637844
0.693555	1.637889
0.693652	1.637813
0.693750	1.637861
0.693848	1.637883
0.693945	1.637842
0.694043	1.637917
0.694141	1.637879
0.694238	1.637835
0.694336	1.637849
0.694434	1.637863
0.694531	1.637836
0.694629	1.637853
0.694727	1.637805
0.694824	1.637787
0.694922	1.637868
0.695020	1.637947
0.695117	1.637910
0.695215	1.637863
0.695312	1.637962
0.695410	1.637989
0.695508	1.637879
0.695605	1.637914
0.695703	1.637938
0.695801	1.637965
0.695898	1.637949
0.695996	1.638059
0.696094	1.637982
0.696191	1.638000
0.696289	1.638067
0.696387	1.638007
0.696484	1.638075
0.696582	1.638030
0.696680	1.638011
0.696777	1.638080
0.696875	1.638016
0.696973	1.638128
0.697070	1.638058
0.697168	1.638045
0.697266	1.638078
0.697363	1.638058
0.697461	1.638102
0.697559	1.638097
0.697656	1.638065
0.697754	1.638025
0.697852	1.638098
0.697949	1.638135
0.698047	1.638081
0.698145	1.638122
0.698242	1.638125
0.698340	1.638067
0.698437	1.638125
0.698535	1.638099
0.698633	1.638063
0.698730	1.638102
0.698828	1.638011
0.698926	1.637983
0.699023	1.637979
0.699121	1.637943
0.699219	1.637912
0.699316	1.637922
0.699414	1.637941
0.699512	1.637988
0.699609	1.637984
0.699707	1.638066
0.699805	1.637953
0.699902	1.638003
0.700000	1.638017
0.700098	1.638066
0.700195	1.638028
0.700293	1.638081
0.700391	1.638072
0.700488	1.638099
0.700586	1.638052
0.700684	1.638125
0.700781	1.638130
0.700879	1.638094
0.700977	1.638075
0.701074	1.638080
0.701172	1.638167
0.701270	1.638047
0.701367	1.638074
0.701465	1.638144
0.701562	1.638039
0.701660	1.637986
0.701758	1.637969
0.701855	1.637922
0.701953	1.638036
0.702051	1.638016
0.702148	1.638019
0.702246	1.637977
0.702344	1.637987
0.702441	1.637958
0.702539	1.637992
0.702637	1.637925
0.702734	1.637937
0.702832	1.637956
0.702930	1.637931
0.703027	1.637960
0.703125	1.637875
0.703223	1.637962
0.703320	1.637893
0.703418	1.637957
0.703516	1.637876
0.703613	1.637916
0.703711	1.637889
0.703809	1.637807
0.703906	1.637863
0.704004	1.637859
0.704102	1.637882
0.704199	1.637840
0.704297	1.637838
0.704395	1.637817
0.704492	1.637831
0.704590	1.637819
0.704687	1.637833
0.704785	1.637800
0.704883	1.637823
0.704980	1.637778
0.705078	1.637725
0.705176	1.637735
0.705273	1.637642
0.705371	1.637641
0.705469	1.637633
0.705566	1.637625
0.705664	1.637560
0.705762	1.637659
0.705859	1.637583
0.705957	1.637599
0.706055	1.637577
0.706152	1.637507
0.706250	1.637613
0.706348	1.637529
0.706445	1.637539
0.706543	1.637512
0.706641	1.637557
0.706738	1.637541
0.706836	1.637513
0.706934	1.637513
0.707031	1.637511
0.707129	1.637579
0.707227	1.637522
0.707324	1.637632
0.707422	1.637513
0.707520	1.637591
0.707617	1.637555
0.707715	1.637532
0.707812	1.637547
0.707910	1.637546
0.708008	1.637639
0.708105	1.637578
0.708203	1.637666
0.708301	1.637706
0.708398	1.637695
0.708496	1.637706
0.708594	1.637774
0.708691	1.637654
0.708789	1.637704
0.708887	1.637588
0.708984	1.637614
0.709082	1.637693
0.709180	1.637574
0.709277	1.637632
0.709375	1.637649
0.709473	1.637649
0.709570	1.637649
0.709668	1.637718
0.709766	1.637698
0.709863	1.637601
0.709961	1.637628
0.710059	1.637623
0.710156	1.637629
0.710254	1.637621
0.710352	1.637656
0.710449	1.637623
0.710547	1.637613
0.710645	1.637615
0.710742	1.637704
0.710840	1.637673
0.710937	1.637638
0.711035	1.637652
0.711133	1.637693
0.711230	1.637657
0.711328	1.637645
0.711426	1.637650
0.711523	1.637616
0.711621	1.637566
0.711719	1.637629
0.711816	1.637501
0.711914	1.637622
0.712012	1.637588
0.712109	1.637612
0.712207	1.637609
0.712305	1.637685
0.712402	1.637698
0.712500	1.637654
0.712598	1.637630
0.712695	1.637674
0.712793	1.637621
0.712891	1.637583
0.712988	1.637603
0.713086	1.637673
0.713184	1.637648
0.713281	1.637671
0.713379	1.637673
0.713477	1.637687
0.713574	1.637596
0.713672	1.637640
0.713770	1.637649
0.713867	1.637602
0.713965	1.637634
0.714062	1.637617
0.714160	1.637656
0.714258	1.637623
0.714355	1.637663
0.714453	1.637692
0.714551	1.637680
0.714648	1.637734
0.714746	1.637748
0.714844	1.637740
0.714941	1.637670
0.715039	1.637764
0.715137	1.637745
0.715234	1.637687
0.715332	1.637811
0.715430	1.637810
0.715527	1.637763
0.715625	1.637779
0.715723	1.637831
0.715820	1.637702
0.715918	1.637792
0.716016	1.637748
0.716113	1.637834
0.716211	1.637804
0.716309	1.637860
0.716406	1.637903
0.716504	1.637873
0.716602	1.637934
0.716699	1.637839
0.716797	1.637875
0.716895	1.637904
0.716992	1.637918
0.717090	1.637805
0.717187	1.637872
0.717285	1.637883
0.717383	1.637862
0.717480	1.637862
0.717578	1.637801
0.717676	1.637870
0.717773	1.637884
0.717871	1.637919
0.717969	1.637879
0.718066	1.637897
0.718164	1.637810
0.718262	1.637942
0.718359	1.637886
0.718457	1.637818
0.718555	1.637903
0.718652	1.637881
0.718750	1.637841
0.718848	1.637862
0.718945	1.637717
0.719043	1.637777
0.719141	1.637740
0.719238	1.637726
0.719336	1.637803
0.719434	1.637743
0.719531	1.637727
0.719629	1.637820
0.719727	1.637694
0.719824	1.637719
0.719922	1.637720
0.720020	1.637772
0.720117	1.637702
0.720215	1.637723
0.720312	1.637710
0.720410	1.637692
0.720508	1.637687
0.720605	1.637676
0.720703	1.637741
0.720801	1.637691
0.720898	1.637771
0.720996	1.637776
0.721094	1.637761
0.721191	1.637779
0.721289	1.637780
0.721387	1.637762
0.721484	1.637804
0.721582	1.637729
0.721680	1.637753
0.721777	1.637732
0.721875	1.637735
0.721973	1.637825
0.722070	1.637821
0.722168	1.637897
0.722266	1.637932
0.722363	1.637940
0.722461	1.637904
0.722559	1.637915
0.722656	1.637785
0.722754	1.637909
0.722852	1.637859
0.722949	1.637857
0.723047	1.637869
0.723145	1.637914
0.723242	1.637956
0.723340	1.637929
0.723437	1.637902
0.723535	1.637934
0.723633	1.637898
0.723730	1.637920
0.723828	1.637914
0.723926	1.637922
0.724023	1.637972
0.724121	1.637962
0.724219	1.637932
0.724316	1.637945
0.724414	1.637832
0.724512	1.637861
0.724609	1.637955
0.724707	1.637887
0.724805	1.637938
0.724902	1.637897
0.725000	1.637916
0.725098	1.637826
0.725195	1.637857
0.725293	1.637810
0.725391	1.637846
0.725488	1.637776
0.725586	1.637803
0.725684	1.637792
0.725781	1.637798
0.725879	1.637903
0.725977	1.637784
0.726074	1.637897
0.726172	1.637821
0.726270	1.637786
0.726367	1.637803
0.726465	1.637803
0.726562	1.637804
0.726660	1.637796
0.726758	1.637806
0.726855	1.637816
0.726953	1.637814
0.727051	1.637824
0.727148	1.637844
0.727246	1.637775
0.727344	1.637847
0.727441	1.637754
0.727539	1.637890
0.727637	1.637829
0.727734	1.637883
0.727832	1.637867
0.727930	1.637811
0.728027	1.637864
0.728125	1.637793
0.728223	1.637888
0.728320	1.637869
0.728418	1.637842
0.728516	1.637843
0.728613	1.637873
0.728711	1.637843
0.728809	1.637825
0.728906	1.637770
0.729004	1.637707
0.729102	1.637693
0.729199	1.637673
0.729297	1.637738
0.729395	1.637786
0.729492	1.637800
0.729590	1.637810
0.729687	1.637877
0.729785	1.637716
0.729883	1.637766
0.729980	1.637794
0.730078	1.637774
0.730176	1.637773
0.730273	1.637820
0.730371	1.637768
0.730469	1.637784
0.730566	1.637850
0.730664	1.637795
0.730762	1.637836
0.730859	1.637843
0.730957	1.637848
0.731055	1.637870
0.731152	1.637837
0.731250	1.637869
0.731348	1.637973
0.731445	1.637920
0.731543	1.637951
0.731641	1.637928
0.731738	1.637881
0.731836	1.637885
0.731934	1.637970
0.732031	1.638030
0.732129	1.638001
0.732227	1.638064
0.732324	1.638034
0.732422	1.638095
0.732520	1.638045
0.732617	1.638033
0.732715	1.638068
0.732812	1.638000
0.732910	1.638014
0.733008	1.637983
0.733105	1.638042
0.733203	1.637986
0.733301	1.638108
0.733398	1.638079
0.733496	1.638044
0.733594	1.638019
0.733691	1.638032
0.733789	1.638020
0.733887	1.638066
0.733984	1.638097
0.734082	1.638081
0.734180	1.637973
0.734277	1.638087
0.734375	1.638016
0.734473	1.638005
0.734570	1.638033
0.734668	1.638078
0.734766	1.638016
0.734863	1.637932
0.734961	1.637975
0.735059	1.637901
0.735156	1.638002
0.735254	1.637911
0.735352	1.638000
0.735449	1.637947
0.735547	1.637990
0.735645	1.637914
0.735742	1.637911
0.735840	1.637895
0.735937	1.637915
0.736035	1.637872
0.736133	1.637837
0.736230	1.637828
0.736328	1.637742
0.736426	1.637785
0.736523	1.637808
0.736621	1.637717
0.736719	1.637781
0.736816	1.637759
0.736914	1.637700
0.737012	1.637717
0.737109	1.637678
0.737207	1.637599
0.737305	1.637719
0.737402	1.637654
0.737500	1.637677
0.737598	1.637727
0.737695	1.637699
0.737793	1.637739
0.737891	1.637753
0.737988	1.637768
0.738086	1.637731
0.738184	1.637811
0.738281	1.637807
0.738379	1.637848
0.738477	1.637812
0.738574	1.637863
0.738672	1.637866
0.738770	1.637898
0.738867	1.637812
0.738965	1.637834
0.739062	1.637855
0.739160	1.637845
0.739258	1.637849
0.739355	1.637881
0.739453	1.637897
0.739551	1.637851
0.739648	1.637925
0.739746	1.637904
0.739844	1.637901
0.739941	1.637904
0.740039	1.637917
0.740137	1.637916
0.740234	1.637895
0.740332	1.637892
0.740430	1.637912
0.740527	1.637891
0.740625	1.637878
0.740723	1.637866
0.740820	1.637978
0.740918	1.637887
0.741016	1.637928
0.741113	1.637934
0.741211	1.637920
0.741309	1.637972
0.741406	1.637945
0.741504	1.637959
0.741602	1.637932
0.741699	1.637881
0.741797	1.637854
0.741895	1.637983
0.741992	1.638020
0.742090	1.638071
0.742187	1.638066
0.742285	1.638119
0.742383	1.638145
0.742480	1.638118
0.742578	1.638163
0.742676	1.638142
0.742773	1.638180
0.742871	1.638144
0.742969	1.638135
0.743066	1.638201
0.743164	1.638244
0.743262	1.638167
0.743359	1.638170
0.743457	1.638212
0.743555	1.638183
0.743652	1.638282
0.743750	1.638197
0.743848	1.638121
0.743945	1.638202
0.744043	1.638171
0.744141	1.638131
0.744238	1.638097
0.744336	1.638081
0.744434	1.638090
0.744531	1.638083
0.744629	1.638011
0.744727	1.638036
0.744824	1.638066
0.744922	1.637974
0.745020	1.637981
0.745117	1.637937
0.745215	1.637862
0.745312	1.637836
0.745410	1.637892
0.745508	1.637806
0.745605	1.637673
0.745703	1.637695
0.745801	1.637649
0.745898	1.637613
0.745996	1.637570
0.746094	1.637552
0.746191	1.637555
0.746289	1.637538
0.746387	1.637480
0.746484	1.637538
0.746582	1.637490
0.746680	1.637440
0.746777	1.637395
0.746875	1.637391
0.746973	1.637420
0.747070	1.637434
0.747168	1.637440
0.747266	1.637389
0.747363	1.637449
0.747461	1.637442
0.747559	1.637502
0.747656	1.637495
0.747754	1.637523
0.747852	1.637601
0.747949	1.637573
0.748047	1.637613
0.748145	1.637632
0.748242	1.637615
0.748340	1.637648
0.748437	1.637637
0.748535	1.637679
0.748633	1.637771
0.748730	1.637783
0.748828	1.637725
0.748926	1.637687
0.749023	1.637738
0.749121	1.637749
0.749219	1.637701
0.749316	1.637728
0.749414	1.637809
0.749512	1.637876
0.749609	1.637828
0.749707	1.637887
0.749805	1.637820
0.749902	1.637788
0.750000	1.637826
0.750098	1.637842
0.750195	1.637856
0.750293	1.637865
0.750391	1.637809
0.750488	1.637859
0.750586	1.637826
0.750684	1.637834
0.750781	1.637828
0.750879	1.637837
0.750977	1.637806
0.751074	1.637771
0.751172	1.637854
0.751270	1.637760
0.751367	1.637860
0.751465	1.637702
0.751562	1.637730
0.751660	1.637728
0.751758	1.637638
0.751855	1.637695
0.751953	1.637735
0.752051	1.637757
0.752148	1.637739
0.752246	1.637743
0.752344	1.637779
0.752441	1.637689
0.752539	1.637746
0.752637	1.637719
0.752734	1.637699
0.752832	1.637674
0.752930	1.637682
0.753027	1.637688
0.753125	1.637645
0.753223	1.637666
0.753320	1.637702
0.753418	1.637651
0.753516	1.637589
0.753613	1.637671
0.753711	1.637583
0.753809	1.637692
0.753906	1.637582
0.754004	1.637659
0.754102	1.637588
0.754199	1.637676
0.754297	1.637595
0.754395	1.637678
0.754492	1.637643
0.754590	1.637674
0.754687	1.637686
0.754785	1.637659
0.754883	1.637655
0.754980	1.637673
0.755078	1.637768
0.755176	1.637700
0.755273	1.637715
0.755371	1.637686
0.755469	1.637775
0.755566	1.637776
0.755664	1.637778
0.755762	1.637800
0.755859	1.637746
0.755957	1.637771
0.756055	1.637755
0.756152	1.637818
0.756250	1.637823
0.756348	1.637821
0.756445	1.637838
0.756543	1.637748
0.756641	1.637801
0.756738	1.637811
0.756836	1.637887
0.756934	1.637837
0.757031	1.637836
0.757129	1.637839
0.757227	1.637830
0.757324	1.637828
0.757422	1.637745
0.757520	1.637848
0.757617	1.637823
0.757715	1.637870
0.757812	1.637838
0.757910	1.637845
0.758008	1.637903
0.758105	1.637931
0.758203	1.637895
0.758301	1.637898
0.758398	1.637947
0.758496	1.637933
0.758594	1.637944
0.758691	1.637894
0.758789	1.637995
0.758887	1.637930
0.758984	1.637859
0.759082	1.637793
0.759180	1.637833
0.759277	1.637829
0.759375	1.637846
0.759473	1.637810
0.759570	1.637986
0.759668	1.637908
0.759766	1.637897
0.759863	1.637868
0.759961	1.637884
0.760059	1.637797
0.760156	1.637844
0.760254	1.637892
0.760352	1.637822
0.760449	1.637891
0.760547	1.637886
0.760645	1.637873
0.760742	1.637849
0.760840	1.637884
0.760937	1.637783
0.761035	1.637879
0.761133	1.637854
0.761230	1.637923
0.761328	1.637923
0.761426	1.637932
0.761523	1.637804
0.761621	1.637836
0.761719	1.637748
0.761816	1.637684
0.761914	1.637957
0.762012	1.637901
0.762109	1.637918
0.762207	1.637856
0.762305	1.637928
0.762402	1.637871
0.762500	1.637961
0.762598	1.637898
0.762695	1.637917
0.762793	1.637956
0.762891	1.637881
0.762988	1.637908
0.763086	1.637800
0.763184	1.637899
0.763281	1.637814
0.763379	1.637887
0.763477	1.637790
0.763574	1.637781
0.763672	1.637768
0.763770	1.637800
0.763867	1.637828
0.763965	1.637721
0.764062	1.637745
0.764160	1.637726
0.764258	1.637662
0.764355	1.637721
0.764453	1.637671
0.764551	1.637644
0.764648	1.637637
0.764746	1.637652
0.764844	1.637631
0.764941	1.637544
0.765039	1.637594
0.765137	1.637598
0.765234	1.637590
0.765332	1.637512
0.765430	1.637630
0.765527	1.637544
0.765625	1.637613
0.765723	1.637590
0.765820	1.637613
0.765918	1.637679
0.766016	1.637608
0.766113	1.637693
0.766211	1.637675
0.766309	1.637707
0.766406	1.637721
0.766504	1.637765
0.766602	1.637762
0.766699	1.637762
0.766797	1.637725
0.766895	1.637799
0.766992	1.637789
0.767090	1.637861
0.767187	1.637873
0.767285	1.637847
0.767383	1.637786
0.767480	1.637886
0.767578	1.637828
0.767676	1.637908
0.767773	1.637935
0.767871	1.637932
0.767969	1.637921
0.768066	1.637937
0.768164	1.637998
0.768262	1.637985
0.768359	1.638124
0.768457	1.638057
0.768555	1.638092
0.768652	1.638166
0.768750	1.638108
0.768848	1.638069
0.768945	1.638048
0.769043	1.638024
0.769141	1.638044
0.769238	1.638039
0.769336	1.638146
0.769434	1.638050
0.769531	1.638141
0.769629	1.638124
0.769727	1.638045
0.769824	1.638075
0.769922	1.638171
0.770020	1.638129
0.770117	1.638147
0.770215	1.638149
0.770312	1.638163
0.770410	1.638122
0.770508	1.638100
0.770605	1.638202
0.770703	1.638164
0.770801	1.638283
0.770898	1.638178
0.770996	1.638227
0.771094	1.638153
0.771191	1.638173
0.771289	1.638170
0.771387	1.638210
0.771484	1.638184
0.771582	1.638225
0.771680	1.638118
0.771777	1.638146
0.771875	1.638080
0.771973	1.638182
0.772070	1.638229
0.772168	1.638211
0.772266	1.638238
0.772363	1.638185
0.772461	1.638216
0.772559	1.638228
0.772656	1.638264
0.772754	1.638171
0.772852	1.638129
0.772949	1.638166
0.773047	1.638117
0.773145	1.638109
0.773242	1.638190
0.773340	1.638145
0.773437	1.638115
0.773535	1.638175
0.773633	1.638022
0.773730	1.638133
0.773828	1.638114
0.773926	1.638168
0.774023	1.638088
0.774121	1.638150
0.774219	1.638128
0.774316	1.638102
0.774414	1.638130
0.774512	1.638077
0.774609	1.638203
0.774707	1.638166
0.774805	1.638174
0.774902	1.638079
0.775000	1.638131
0.775098	1.638196
0.775195	1.638125
0.775293	1.638161
0.775391	1.638089
0.775488	1.638159
0.775586	1.638122
0.775684	1.638141
0.775781	1.638147
0.775879	1.638202
0.775977	1.638142
0.776074	1.638095
0.776172	1.638174
0.776270	1.638072
0.776367	1.638073
0.776465	1.637999
0.776562	1.638029
0.776660	1.637972
0.776758	1.637975
0.776855	1.638012
0.776953	1.637903
0.777051	1.637950
0.777148	1.637899
0.777246	1.637969
0.777344	1.637889
0.777441	1.637840
0.777539	1.637870
0.777637	1.637879
0.777734	1.637781
0.777832	1.637857
0.777930	1.637783
0.778027	1.637887
0.778125	1.637900
0.778223	1.637812
0.778320	1.637851
0.778418	1.637821
0.778516	1.637849
0.778613	1.637861
0.778711	1.637936
0.778809	1.637794
0.778906	1.637781
0.779004	1.637734
0.779102	1.637767
0.779199	1.637740
0.779297	1.637749
0.779395	1.637857
0.779492	1.637726
0.779590	1.637846
0.779687	1.637755
0.779785	1.637734
0.779883	1.637673
0.779980	1.637609
0.780078	1.637660
0.780176	1.637609
0.780273	1.637640
0.780371	1.637635
0.780469	1.637671
0.780566	1.637639
0.780664	1.637683
0.780762	1.637584
0.780859	1.637626
0.780957	1.637619
0.781055	1.637552
0.781152	1.637582
0.781250	1.637535
0.781348	1.637616
0.781445	1.637627
0.781543	1.637581
0.781641	1.637573
0.781738	1.637449
0.781836	1.637458
0.781934	1.637622
0.782031	1.637584
0.782129	1.637652
0.782227	1.637665
0.782324	1.637677
0.782422	1.637604
0.782520	1.637697
0.782617	1.637621
0.782715	1.637724
0.782812	1.637731
0.782910	1.637781
0.783008	1.637806
0.783105	1.637798
0.783203	1.637900
0.783301	1.637784
0.783398	1.637871
0.783496	1.637899
0.783594	1.637881
0.783691	1.637840
0.783789	1.637894
0.783887	1.637821
0.783984	1.637822
0.784082	1.637940
0.784180	1.637864
0.784277	1.637829
0.784375	1.637809
0.784473	1.637843
0.784570	1.637783
0.784668	1.637831
0.784766	1.637759
0.784863	1.637717
0.784961	1.637787
0.785059	1.637858
0.785156	1.637689
0.785254	1.637773
0.785352	1.637821
0.785449	1.637765
0.785547	1.637694
0.785645	1.637676
0.785742	1.637731
0.785840	1.637678
0.785937	1.637688
0.786035	1.637780
0.786133	1.637771
0.786230	1.637751
0.786328	1.637693
0.786426	1.637684
0.786523	1.637650
0.786621	1.637654
0.786719	1.637692
0.786816	1.637654
0.786914	1.637700
0.787012	1.637623
0.787109	1.637610
0.787207	1.637615
0.787305	1.637697
0.787402	1.637699
0.787500	1.637691
0.787598	1.637610
0.787695	1.637701
0.787793	1.637662
0.787891	1.637717
0.787988	1.637682
0.788086	1.637678
0.788184	1.637762
0.788281	1.637589
0.788379	1.637665
0.788477	1.637682
0.788574	1.637572
0.788672	1.637655
0.788770	1.637587
0.788867	1.637568
0.788965	1.637521
0.789062	1.637442
0.789160	1.637538
0.789258	1.637606
0.789355	1.637578
0.789453	1.637583
0.789551	1.637607
0.789648	1.637712
0.789746	1.637645
0.789844	1.637643
0.789941	1.637624
0.790039	1.637709
0.790137	1.637689
0.790234	1.637735
0.790332	1.637744
0.790430	1.637714
0.790527	1.637749
0.790625	1.637705
0.790723	1.637770
0.790820	1.637765
0.790918	1.637754
0.791016	1.637720
0.791113	1.637759
0.791211	1.637714
0.791309	1.637761
0.791406	1.637751
0.791504	1.637712
0.791602	1.637747
0.791699	1.637707
0.791797	1.637604
0.791895	1.637751
0.791992	1.637711
0.792090	1.637778
0.792187	1.637764
0.792285	1.637832
0.792383	1.637792
0.792480	1.637795
0.792578	1.637829
0.792676	1.637828
0.792773	1.637879
0.792871	1.637839
0.792969	1.637868
0.793066	1.637871
0.793164	1.637835
0.793262	1.637921
0.793359	1.637885
0.793457	1.637995
0.793555	1.637932
0.793652	1.637937
0.793750	1.637990
0.793848	1.637996
0.793945	1.638072
0.794043	1.638045
0.794141	1.638039
0.794238	1.638071
0.794336	1.638077
0.794434	1.638003
0.794531	1.638075
0.794629	1.638069
0.794727	1.638026
0.794824	1.638060
0.794922	1.638066
0.795020	1.638081
0.795117	1.638011
0.795215	1.638117
0.795312	1.638014
0.795410	1.638017
0.795508	1.638042
0.795605	1.638011
0.795703	1.637981
0.795801	1.637951
0.795898	1.637995
0.795996	1.637928
0.796094	1.637940
0.796191	1.637944
0.796289	1.637872
0.796387	1.637915
0.796484	1.637825
0.796582	1.637870
0.796680	1.637830
0.796777	1.637829
0.796875	1.637754
0.796973	1.637734
0.797070	1.637759
0.797168	1.637757
0.797266	1.637806
0.797363	1.637700
0.797461	1.637844
0.797559	1.637674
0.797656	1.637710
0.797754	1.637741
0.797852	1.637759
0.797949	1.637738
0.798047	1.637816
0.798145	1.637743
0.798242	1.637762
0.798340	1.637834
0.798437	1.637718
0.798535	1.637786
0.798633	1.637756
0.798730	1.637803
0.798828	1.637765
0.798926	1.637666
0.799023	1.637576
0.799121	1.637605
0.799219	1.637545
0.799316	1.637635
0.799414	1.637637
0.799512	1.637664
0.799609	1.637687
0.799707	1.637624
0.799805	1.637645
0.799902	1.637560
0.800000	1.637585
0.800098	1.637591
0.800195	1.637584
0.800293	1.637542
0.800391	1.637580
0.800488	1.637540
0.800586	1.637496
0.800684	1.637531
0.800781	1.637503
0.800879	1.637505
0.800977	1.637468
0.801074	1.637480
0.801172	1.637375
0.801270	1.637428
0.801367	1.637392
0.801465	1.637360
0.801562	1.637324
0.801660	1.637348
0.801758	1.637183
0.801855	1.637280
0.801953	1.637275
0.802051	1.637375
0.802148	1.637306
0.802246	1.637278
0.802344	1.637365
0.802441	1.637262
0.802539	1.637313
0.802637	1.637334
0.802734	1.637308
0.802832	1.637314
0.802930	1.637351
0.803027	1.637361
0.803125	1.637316
0.803223	1.637390
0.803320	1.637367
0.803418	1.637353
0.803516	1.637349
0.803613	1.637342
0.803711	1.637396
0.803809	1.637372
0.803906	1.637485
0.804004	1.637452
0.804102	1.637530
0.804199	1.637511
0.804297	1.637530
0.804395	1.637586
0.804492	1.637524
0.804590	1.637554
0.804687	1.637654
0.804785	1.637643
0.804883	1.637673
0.804980	1.637682
0.805078	1.637643
0.805176	1.637557
0.805273	1.637604
0.805371	1.637654
0.805469	1.637685
0.805566	1.637566
0.805664	1.637643
0.805762	1.637634
0.805859	1.637591
0.805957	1.637621
0.806055	1.637555
0.806152	1.637540
0.806250	1.637587
0.806348	1.637511
0.806445	1.637551
0.806543	1.637491
0.806641	1.637499
0.806738	1.637552
0.806836	1.637518
0.806934	1.637562
0.807031	1.637564
0.807129	1.637531
0.807227	1.637577
0.807324	1.637457
0.807422	1.637475
0.807520	1.637450
0.807617	1.637546
0.807715	1.637478
0.807812	1.637531
0.807910	1.637551
0.808008	1.637490
0.808105	1.637584
0.808203	1.637554
0.808301	1.637582
0.808398	1.637555
0.808496	1.637578
0.808594	1.637632
0.808691	1.637615
0.808789	1.637645
0.808887	1.637579
0.808984	1.637562
0.809082	1.637494
0.809180	1.637558
0.809277	1.637562
0.809375	1.637605
0.809473	1.637582
0.809570	1.637666
0.809668	1.637707
0.809766	1.637643
0.809863	1.637593
0.809961	1.637587
0.810059	1.637600
0.810156	1.637609
0.810254	1.637642
0.810352	1.637616
0.810449	1.637618
0.810547	1.637619
0.810645	1.637645
0.810742	1.637632
0.810840	1.637672
0.810937	1.637587
0.811035	1.637679
0.811133	1.637566
0.811230	1.637626
0.811328	1.637594
0.811426	1.637568
0.811523	1.637585
0.811621	1.637473
0.811719	1.637473
0.811816	1.637452
0.811914	1.637477
0.812012	1.637542
0.812109	1.637533
0.812207	1.637531
0.812305	1.637563
0.812402	1.637618
0.812500	1.637591
0.812598	1.637643
0.812695	1.637609
0.812793	1.637666
0.812891	1.637674
0.812988	1.637679
0.813086	1.637657
0.813184	1.637664
0.813281	1.637638
0.813379	1.637699
0.813477	1.637774
0.813574	1.637660
0.813672	1.637748
0.813770	1.637685
0.813867	1.637759
0.813965	1.637750
0.814062	1.637818
0.814160	1.637790
0.814258	1.637849
0.814355	1.637855
0.814453	1.637790
0.814551	1.637872
0.814648	1.637834
0.814746	1.637903
0.814844	1.637835
0.814941	1.637912
0.815039	1.637928
0.815137	1.637910
0.815234	1.637904
0.815332	1.637951
0.815430	1.638024
0.815527	1.637901
0.815625	1.637928
0.815723	1.638007
0.815820	1.637998
0.815918	1.637951
0.816016	1.637904
0.816113	1.637987
0.816211	1.637970
0.816309	1.638048
0.816406	1.638049
0.816504	1.637985
0.816602	1.637992
0.816699	1.637956
0.816797	1.637906
0.816895	1.637906
0.816992	1.637938
0.817090	1.637940
0.817187	1.637842
0.817285	1.637780
0.817383	1.637834
0.817480	1.637834
0.817578	1.637790
0.817676	1.637737
0.817773	1.637773
0.817871	1.637760
0.817969	1.637705
0.818066	1.637705
0.818164	1.637721
0.818262	1.637721
0.818359	1.637751
0.818457	1.637728
0.818555	1.637729
0.818652	1.637724
0.818750	1.637694
0.818848	1.637675
0.818945	1.637663
0.819043	1.637601
0.819141	1.637626
0.819238	1.637735
0.819336	1.637729
0.819434	1.637735
0.819531	1.637804
0.819629	1.637785
0.819727	1.637715
0.819824	1.637710
0.819922	1.637722
0.820020	1.637780
0.820117	1.637765
0.820215	1.637830
0.820312	1.637762
0.820410	1.637829
0.820508	1.637812
0.820605	1.637803
0.820703	1.637780
0.820801	1.637784
0.820898	1.637842
0.820996	1.637817
0.821094	1.637886
0.821191	1.637899
0.821289	1.637818
0.821387	1.637861
0.821484	1.637869
0.821582	1.637839
0.821680	1.637824
0.821777	1.637701
0.821875	1.637890
0.821973	1.637853
0.822070	1.637895
0.822168	1.637889
0.822266	1.637935
0.822363	1.637931
0.822461	1.637940
0.822559	1.637948
0.822656	1.637994
0.822754	1.637848
0.822852	1.637898
0.822949	1.637922
0.823047	1.637916
0.823145	1.638030
0.823242	1.637964
0.823340	1.637879
0.823437	1.637903
0.823535	1.637970
0.823633	1.637972
0.823730	1.637953
0.823828	1.637839
0.823926	1.637882
0.824023	1.637798
0.824121	1.637800
0.824219	1.637809
0.824316	1.637717
0.824414	1.637720
0.824512	1.637751
0.824609	1.637635
0.824707	1.637673
0.824805	1.637620
0.824902	1.637671
0.825000	1.637719
0.825098	1.637626
0.825195	1.637660
0.825293	1.637652
0.825391	1.637656
0.825488	1.637609
0.825586	1.637661
0.825684	1.637708
0.825781	1.637774
0.825879	1.637733
0.825977	1.637727
0.826074	1.637820
0.826172	1.637748
0.826270	1.637767
0.826367	1.637793
0.826465	1.637789
0.826562	1.637734
0.826660	1.637829
0.826758	1.637775
0.826855	1.637803
0.826953	1.637749
0.827051	1.637804
0.827148	1.637788
0.827246	1.637856
0.827344	1.637789
0.827441	1.637803
0.827539	1.637776
0.827637	1.637788
0.827734	1.637833
0.827832	1.637758
0.827930	1.637730
0.828027	1.637785
0.828125	1.637761
0.828223	1.637721
0.828320	1.637704
0.828418	1.637765
0.828516	1.637751
0.828613	1.637693
0.828711	1.637717
0.828809	1.637615
0.828906	1.637631
0.829004	1.637549
0.829102	1.637464
0.829199	1.637417
0.829297	1.637436
0.829395	1.637440
0.829492	1.637488
0.829590	1.637458
0.829687	1.637498
0.829785	1.637433
0.829883	1.637448
0.829980	1.637434
0.830078	1.637505
0.830176	1.637427
0.830273	1.637475
0.830371	1.637453
0.830469	1.637494
0.830566	1.637463
0.830664	1.637497
0.830762	1.637510
0.830859	1.637496
0.830957	1.637571
0.831055	1.637472
0.831152	1.637616
0.831250	1.637538
0.831348	1.637566
0.831445	1.637526
0.831543	1.637541
0.831641	1.637534
0.831738	1.637455
0.831836	1.637526
0.831934	1.637554
0.832031	1.637590
0.832129	1.637610
0.832227	1.637585
0.832324	1.637601
0.832422	1.637634
0.832520	1.637596
0.832617	1.637720
0.832715	1.637701
0.832812	1.637702
0.832910	1.637747
0.833008	1.637708
0.833105	1.637692
0.833203	1.637765
0.833301	1.637734
0.833398	1.637779
0.833496	1.637796
0.833594	1.637733
0.833691	1.637774
0.833789	1.637699
0.833887	1.637845
0.833984	1.637770
0.834082	1.637753
0.834180	1.637832
0.834277	1.637804
0.834375	1.637829
0.834473	1.637831
0.834570	1.637803
0.834668	1.637807
0.834766	1.637818
0.834863	1.637762
0.834961	1.637819
0.835059	1.637853
0.835156	1.637873
0.835254	1.637903
0.835352	1.637987
0.835449	1.637934
0.835547	1.637889
0.835645	1.637959
0.835742	1.637926
0.835840	1.637924
0.835937	1.637972
0.836035	1.637927
0.836133	1.637979
0.836230	1.637920
0.836328	1.637988
0.836426	1.637931
0.836523	1.637990
0.836621	1.637970
0.836719	1.638044
0.836816	1.638078
0.836914	1.638014
0.837012	1.638011
0.837109	1.637995
0.837207	1.638009
0.837305	1.638034
0.837402	1.638012
0.837500	1.638086
0.837598	1.638061
0.837695	1.638003
0.837793	1.638086
0.837891	1.638100
0.837988	1.638105
0.838086	1.638136
0.838184	1.638089
0.838281	1.638184
0.838379	1.638192
0.838477	1.638192
0.838574	1.638178
0.838672	1.638140
0.838770	1.638108
0.838867	1.638061
0.838965	1.638060
0.839062	1.638029
0.839160	1.638050
0.839258	1.638066
0.839355	1.638144
0.839453	1.638069
0.839551	1.638105
0.839648	1.638014
0.839746	1.638061
0.839844	1.638033
0.839941	1.638023
0.840039	1.638027
0.840137	1.638017
0.840234	1.638056
0.840332	1.637964
0.840430	1.637950
0.840527	1.637957
0.840625	1.637918
0.840723	1.637898
0.840820	1.637942
0.840918	1.637849
0.841016	1.637878
0.841113	1.637810
0.841211	1.637783
0.841309	1.637821
0.841406	1.637777
0.841504	1.637732
0.841602	1.637728
0.841699	1.637588
0.841797	1.637578
0.841895	1.637685
0.841992	1.637623
0.842090	1.637729
0.842187	1.637717
0.842285	1.637694
0.842383	1.637690
0.842480	1.637589
0.842578	1.637671
0.842676	1.637592
0.842773	1.637665
0.842871	1.637582
0.842969	1.637684
0.843066	1.637601
0.843164	1.637621
0.843262	1.637672
0.843359	1.637725
0.843457	1.637681
0.843555	1.637657
0.843652	1.637702
0.843750	1.637685
0.843848	1.637638
0.843945	1.637663
0.844043	1.637637
0.844141	1.637635
0.844238	1.637641
0.844336	1.637704
0.844434	1.637680
0.844531	1.637684
0.844629	1.637619
0.844727	1.637746
0.844824	1.637668
0.844922	1.637665
0.845020	1.637681
0.845117	1.637690
0.845215	1.637690
0.845312	1.637742
0.845410	1.637760
0.845508	1.637700
0.845605	1.637715
0.845703	1.637692
0.845801	1.637738
0.845898	1.637737
0.845996	1.637737
0.846094	1.637729
0.846191	1.637739
0.846289	1.637762
0.846387	1.637718
0.846484	1.637738
0.846582	1.637766
0.846680	1.637785
0.846777	1.637716
0.846875	1.637783
0.846973	1.637712
0.847070	1.637768
0.847168	1.637742
0.847266	1.637741
0.847363	1.637770
0.847461	1.637729
0.847559	1.637704
0.847656	1.637731
0.847754	1.637740
0.847852	1.637769
0.847949	1.637772
0.848047	1.637748
0.848145	1.637719
0.848242	1.637745
0.848340	1.637745
0.848437	1.637764
0.848535	1.637724
0.848633	1.637673
0.848730	1.637840
0.848828	1.637721
0.848926	1.637695
0.849023	1.637704
0.849121	1.637669
0.849219	1.637677
0.849316	1.637725
0.849414	1.637818
0.849512	1.637828
0.849609	1.637831
0.849707	1.637780
0.849805	1.637795
0.849902	1.637821
0.850000	1.637904
0.850098	1.637827
0.850195	1.637886
0.850293	1.637909
0.850391	1.637924
0.850488	1.637974
0.850586	1.637965
0.850684	1.637978
0.850781	1.637986
0.850879	1.638033
0.850977	1.637987
0.851074	1.638065
0.851172	1.638013
0.851270	1.638114
0.851367	1.638031
0.851465	1.638063
0.851562	1.638047
0.851660	1.637913
0.851758	1.637948
0.851855	1.638062
0.851953	1.638052
0.852051	1.638115
0.852148	1.638069
0.852246	1.637990
0.852344	1.638034
0.852441	1.637986
0.852539	1.637978
0.852637	1.638042
0.852734	1.638048
0.852832	1.637971
0.852930	1.638040
0.853027	1.638023
0.853125	1.637982
0.853223	1.638048
0.853320	1.637979
0.853418	1.637941
0.853516	1.637908
0.853613	1.637944
0.853711	1.637962
0.853809	1.637972
0.853906	1.637940
0.854004	1.638005
0.854102	1.637919
0.854199	1.637973
0.854297	1.638022
0.854395	1.637892
0.854492	1.637978
0.854590	1.638004
0.854687	1.638030
0.854785	1.638072
0.854883	1.637989
0.854980	1.638124
0.855078	1.638034
0.855176	1.638088
0.855273	1.638045
0.855371	1.638065
0.855469	1.638107
0.855566	1.638055
0.855664	1.638100
0.855762	1.638114
0.855859	1.638130
0.855957	1.638073
0.856055	1.638175
0.856152	1.638144
0.856250	1.638147
0.856348	1.638169
0.856445	1.638147
0.856543	1.638163
0.856641	1.638171
0.856738	1.638208
0.856836	1.638122
0.856934	1.638156
0.857031	1.638267
0.857129	1.638141
0.857227	1.638199
0.857324	1.638122
0.857422	1.638204
0.857520	1.638227
0.857617	1.638197
0.857715	1.638114
0.857812	1.638136
0.857910	1.638211
0.858008	1.638168
0.858105	1.638203
0.858203	1.638186
0.858301	1.638216
0.858398	1.638267
0.858496	1.638191
0.858594	1.638160
0.858691	1.638165
0.858789	1.638120
0.858887	1.638130
0.858984	1.638061
0.859082	1.638043
0.859180	1.638039
0.859277	1.638122
0.859375	1.638160
0.859473	1.638163
0.859570	1.638126
0.859668	1.638100
0.859766	1.637992
0.859863	1.638124
0.859961	1.638108
0.860059	1.638096
0.860156	1.638138
0.860254	1.638024
0.860352	1.638103
0.860449	1.638015
0.860547	1.638068
0.860645	1.638082
0.860742	1.638102
0.860840	1.638083
0.860937	1.638027
0.861035	1.638089
0.861133	1.638036
0.861230	1.638034
0.861328	1.638009
0.861426	1.637986
0.861523	1.638039
0.861621	1.638028
0.861719	1.637953
0.861816	1.637988
0.861914	1.638042
0.862012	1.638070
0.862109	1.638039
0.862207	1.638075
0.862305	1.638085
0.862402	1.638103
0.862500	1.638103
0.862598	1.638132
0.862695	1.638111
0.862793	1.638096
0.862891	1.638120
0.862988	1.638101
0.863086	1.638094
0.863184	1.638166
0.863281	1.638093
0.863379	1.638112
0.863477	1.638059
0.863574	1.638114
0.863672	1.638117
0.863770	1.638207
0.863867	1.638128
0.863965	1.638108
0.864062	1.638131
0.864160	1.638083
0.864258	1.638141
0.864355	1.638097
0.864453	1.638152
0.864551	1.638052
0.864648	1.638061
0.864746	1.638039
0.864844	1.638016
0.864941	1.638020
0.865039	1.637956
0.865137	1.637969
0.865234	1.637968
0.865332	1.637901
0.865430	1.637896
0.865527	1.637818
0.865625	1.637855
0.865723	1.637829
0.865820	1.637803
0.865918	1.637837
0.866016	1.637897
0.866113	1.637818
0.866211	1.637763
0.866309	1.637818
0.866406	1.637741
0.866504	1.637812
0.866602	1.637824
0.866699	1.637831
0.866797	1.637874
0.866895	1.637866
0.866992	1.637825
0.867090	1.637806
0.867187	1.637892
0.867285	1.637789
0.867383	1.637838
0.867480	1.637929
0.867578	1.637942
0.867676	1.637845
0.867773	1.638042
0.867871	1.638025
0.867969	1.637998
0.868066	1.638058
0.868164	1.638114
0.868262	1.638056
0.868359	1.638160
0.868457	1.638111
0.868555	1.638167
0.868652	1.638184
0.868750	1.638132
0.868848	1.638078
0.868945	1.638065
0.869043	1.638112
0.869141	1.637974
0.869238	1.638101
0.869336	1.638063
0.869434	1.638037
0.869531	1.638101
0.869629	1.637947
0.869727	1.637952
0.869824	1.637903
0.869922	1.637895
0.870020	1.637899
0.870117	1.637884
0.870215	1.637915
0.870312	1.637914
0.870410	1.637861
0.870508	1.637910
0.870605	1.637879
0.870703	1.637908
0.870801	1.637887
0.870898	1.637843
0.870996	1.637888
0.871094	1.637926
0.871191	1.637903
0.871289	1.637866
0.871387	1.637905
0.871484	1.637873
0.871582	1.637826
0.871680	1.637852
0.871777	1.637848
0.871875	1.637883
0.871973	1.637849
0.872070	1.637970
0.872168	1.637915
0.872266	1.637876
0.872363	1.637975
0.872461	1.637938
0.872559	1.637973
0.872656	1.637982
0.872754	1.637994
0.872852	1.637995
0.872949	1.638006
0.873047	1.638050
0.873145	1.638010
0.873242	1.638066
0.873340	1.638097
0.873437	1.638078
0.873535	1.638106
0.873633	1.638081
0.873730	1.638052
0.873828	1.638102
0.873926	1.638070
0.874023	1.638080
0.874121	1.638056
0.874219	1.638079
0.874316	1.638073
0.874414	1.638062
0.874512	1.638068
0.874609	1.638112
0.874707	1.638038
0.874805	1.638080
0.874902	1.638080
0.875000	1.638047
0.875098	1.638096
0.875195	1.638036
0.875293	1.638146
0.875391	1.638070
0.875488	1.638130
0.875586	1.638058
0.875684	1.638091
0.875781	1.638057
0.875879	1.638036
0.875977	1.638124
0.876074	1.638050
0.876172	1.638041
0.876270	1.637996
0.876367	1.638027
0.876465	1.638041
0.876562	1.637967
0.876660	1.638028
0.876758	1.637954
0.876855	1.637942
0.876953	1.637956
0.877051	1.637934
0.877148	1.637950
0.877246	1.637942
0.877344	1.637936
0.877441	1.637929
0.877539	1.637950
0.877637	1.637899
0.877734	1.637937
0.877832	1.637893
0.877930	1.637975
0.878027	1.637926
0.878125	1.638036
0.878223	1.637936
0.878320	1.638011
0.878418	1.638011
0.878516	1.637964
0.878613	1.638017
0.878711	1.638014
0.878809	1.637929
0.878906	1.637959
0.879004	1.637939
0.879102	1.637974
0.879199	1.637892
0.879297	1.637960
0.879395	1.637902
0.879492	1.637998
0.879590	1.638032
0.879687	1.637968
0.879785	1.637920
0.879883	1.637971
0.879980	1.638012
0.880078	1.637967
0.880176	1.637967
0.880273	1.637886
0.880371	1.637911
0.880469	1.638009
0.880566	1.637955
0.880664	1.637984
0.880762	1.637984
0.880859	1.637917
0.880957	1.637923
0.881055	1.637942
0.881152	1.637920
0.881250	1.637970
0.881348	1.637973
0.881445	1.637878
0.881543	1.638008
0.881641	1.637779
0.881738	1.637782
0.881836	1.637814
0.881934	1.637960
0.882031	1.637883
0.882129	1.637832
0.882227	1.637912
0.882324	1.637936
0.882422	1.638012
0.882520	1.637921
0.882617	1.637951
0.882715	1.637986
0.882812	1.637992
0.882910	1.638004
0.883008	1.638046
0.883105	1.637963
0.883203	1.637972
0.883301	1.637980
0.883398	1.638000
0.883496	1.638059
0.883594	1.638056
0.883691	1.637978
0.883789	1.638053
0.883887	1.638019
0.883984	1.637976
0.884082	1.638012
0.884180	1.638035
0.884277	1.637947
0.884375	1.637973
0.884473	1.637933
0.884570	1.637898
0.884668	1.637876
0.884766	1.637870
0.884863	1.637923
0.884961	1.637898
0.885059	1.637802
0.885156	1.637848
0.885254	1.637789
0.885352	1.637771
0.885449	1.637751
0.885547	1.637641
0.885645	1.637730
0.885742	1.637660
0.885840	1.637686
0.885937	1.637709
0.886035	1.637671
0.886133	1.637620
0.886230	1.637591
0.886328	1.637651
0.886426	1.637583
0.886523	1.637538
0.886621	1.637535
0.886719	1.637585
0.886816	1.637538
0.886914	1.637573
0.887012	1.637529
0.887109	1.637594
0.887207	1.637565
0.887305	1.637636
0.887402	1.637553
0.887500	1.637538
0.887598	1.637629
0.887695	1.637596
0.887793	1.637666
0.887891	1.637748
0.887988	1.637668
0.888086	1.637780
0.888184	1.637711
0.888281	1.637772
0.888379	1.637814
0.888477	1.637742
0.888574	1.637829
0.888672	1.637869
0.888770	1.637782
0.888867	1.637800
0.888965	1.637687
0.889062	1.637721
0.889160	1.637780
0.889258	1.637856
0.889355	1.637868
0.889453	1.637884
0.889551	1.637953
0.889648	1.637876
0.889746	1.637890
0.889844	1.637879
0.889941	1.637917
0.890039	1.637884
0.890137	1.637967
0.890234	1.637906
0.890332	1.637944
0.890430	1.637895
0.890527	1.638005
0.890625	1.637948
0.890723	1.637888
0.890820	1.637993
0.890918	1.637923
0.891016	1.637913
0.891113	1.637904
0.891211	1.637929
0.891309	1.637940
0.891406	1.637978
0.891504	1.637826
0.891602	1.637898
0.891699	1.637708
0.891797	1.637799
0.891895	1.637844
0.891992	1.637824
0.892090	1.637939
0.892187	1.637848
0.892285	1.637811
0.892383	1.637795
0.892480	1.637823
0.892578	1.637789
0.892676	1.637734
0.892773	1.637779
0.892871	1.637807
0.892969	1.637757
0.893066	1.637789
0.893164	1.637748
0.893262	1.637793
0.893359	1.637793
0.893457	1.637784
0.893555	1.637774
0.893652	1.637795
0.893750	1.637795
0.893848	1.637768
0.893945	1.637729
0.894043	1.637825
0.894141	1.637794
0.894238	1.637721
0.894336	1.637781
0.894434	1.637697
0.894531	1.637706
0.894629	1.637703
0.894727	1.637668
0.894824	1.637646
0.894922	1.637688
0.895020	1.637696
0.895117	1.637721
0.895215	1.637706
0.895312	1.637671
0.895410	1.637675
0.895508	1.637662
0.895605	1.637507
0.895703	1.637563
0.895801	1.637621
0.895898	1.637577
0.895996	1.637607
0.896094	1.637566
0.896191	1.637649
0.896289	1.637500
0.896387	1.637558
0.896484	1.637640
0.896582	1.637534
0.896680	1.637598
0.896777	1.637654
0.896875	1.637624
0.896973	1.637649
0.897070	1.637610
0.897168	1.637671
0.897266	1.637656
0.897363	1.637707
0.897461	1.637717
0.897559	1.637746
0.897656	1.637723
0.897754	1.637741
0.897852	1.637803
0.897949	1.637843
0.898047	1.637904
0.898145	1.637883
0.898242	1.637865
0.898340	1.637882
0.898437	1.637913
0.898535	1.637933
0.898633	1.637999
0.898730	1.637888
0.898828	1.637983
0.898926	1.637947
0.899023	1.637976
0.899121	1.637942
0.899219	1.637905
0.899316	1.638072
0.899414	1.638062
0.899512	1.638012
0.899609	1.638063
0.899707	1.638102
0.899805	1.638048
0.899902	1.638052
0.900000	1.638044
0.900098	1.638077
0.900195	1.638031
0.900293	1.638089
0.900391	1.638075
0.900488	1.638097
0.900586	1.638023
0.900684	1.638098
0.900781	1.638000
0.900879	1.638069
0.900977	1.638006
0.901074	1.638064
0.901172	1.638056
0.901270	1.638073
0.901367	1.638051
0.901465	1.638008
0.901562	1.638044
0.901660	1.637923
0.901758	1.637892
0.901855	1.638060
0.901953	1.638105
0.902051	1.638146
0.902148	1.638105
0.902246	1.638130
0.902344	1.638169
0.902441	1.638171
0.902539	1.638118
0.902637	1.638228
0.902734	1.638160
0.902832	1.638154
0.902930	1.638187
0.903027	1.638150
0.903125	1.638156
0.903223	1.638177
0.903320	1.638153
0.903418	1.638110
0.903516	1.638025
0.903613	1.637996
0.903711	1.638033
0.903809	1.638008
0.903906	1.637988
0.904004	1.638008
0.904102	1.637890
0.904199	1.637949
0.904297	1.637881
0.904395	1.637859
0.904492	1.637881
0.904590	1.637824
0.904687	1.637792
0.904785	1.637885
0.904883	1.637810
0.904980	1.637753
0.905078	1.637734
0.905176	1.637777
0.905273	1.637710
0.905371	1.637669
0.905469	1.637685
0.905566	1.637715
0.905664	1.637718
0.905762	1.637742
0.905859	1.637786
0.905957	1.637771
0.906055	1.637793
0.906152	1.637762
0.906250	1.637749
0.906348	1.637740
0.906445	1.637845
0.906543	1.637812
0.906641	1.637836
0.906738	1.637796
0.906836	1.637812
0.906934	1.637861
0.907031	1.637840
0.907129	1.637887
0.907227	1.637901
0.907324	1.637837
0.907422	1.637827
0.907520	1.637862
0.907617	1.637826
0.907715	1.637873
0.907812	1.637926
0.907910	1.637913
0.908008	1.637851
0.908105	1.637906
0.908203	1.637922
0.908301	1.637968
0.908398	1.638004
0.908496	1.637944
0.908594	1.637983
0.908691	1.637930
0.908789	1.637955
0.908887	1.637860
0.908984	1.637820
0.909082	1.637848
0.909180	1.637823
0.909277	1.637845
0.909375	1.637870
0.909473	1.637864
0.909570	1.637968
0.909668	1.637911
0.909766	1.637897
0.909863	1.637875
0.909961	1.637817
0.910059	1.637914
0.910156	1.637811
0.910254	1.637854
0.910352	1.637862
0.910449	1.637743
0.910547	1.637717
0.910645	1.637856
0.910742	1.637866
0.910840	1.637844
0.910937	1.637801
0.911035	1.637753
0.911133	1.637805
0.911230	1.637814
0.911328	1.637752
0.911426	1.637786
0.911523	1.637756
0.911621	1.637738
0.911719	1.637676
0.911816	1.637748
0.911914	1.637772
0.912012	1.637901
0.912109	1.637895
0.912207	1.637865
0.912305	1.637826
0.912402	1.637841
0.912500	1.637915
0.912598	1.637792
0.912695	1.637942
0.912793	1.637839
0.912891	1.637890
0.912988	1.637877
0.913086	1.637848
0.913184	1.637846
0.913281	1.637859
0.913379	1.637800
0.913477	1.637818
0.913574	1.637785
0.913672	1.637830
0.913770	1.637901
0.913867	1.637793
0.913965	1.637833
0.914062	1.637876
0.914160	1.637791
0.914258	1.637855
0.914355	1.637844
0.914453	1.637776
0.914551	1.637915
0.914648	1.637808
0.914746	1.637795
0.914844	1.637763
0.914941	1.637850
0.915039	1.637788
0.915137	1.637790
0.915234	1.637866
0.915332	1.637831
0.915430	1.637893
0.915527	1.637839
0.915625	1.637900
0.915723	1.637893
0.915820	1.637863
0.915918	1.637904
0.916016	1.637858
0.916113	1.637983
0.916211	1.637889
0.916309	1.637944
0.916406	1.637876
0.916504	1.637881
0.916602	1.637953
0.916699	1.637936
0.916797	1.637935
0.916895	1.637975
0.916992	1.638000
0.917090	1.637955
0.917187	1.637988
0.917285	1.638036
0.917383	1.637998
0.917480	1.638003
0.917578	1.638039
0.917676	1.638081
0.917773	1.638133
0.917871	1.638099
0.917969	1.638168
0.918066	1.638183
0.918164	1.638141
0.918262	1.638192
0.918359	1.638181
0.918457	1.638268
0.918555	1.638278
0.918652	1.638336
0.918750	1.638242
0.918848	1.638237
0.918945	1.638299
0.919043	1.638213
0.919141	1.638185
0.919238	1.638219
0.919336	1.638275
0.919434	1.638361
0.919531	1.638317
0.919629	1.638272
0.919727	1.638239
0.919824	1.638226
0.919922	1.638293
0.920020	1.638249
0.920117	1.638207
0.920215	1.638323
0.920312	1.638277
0.920410	1.638200
0.920508	1.638254
0.920605	1.638268
0.920703	1.638221
0.920801	1.638279
0.920898	1.638196
0.920996	1.638184
0.921094	1.638206
0.921191	1.638096
0.921289	1.638190
0.921387	1.638091
0.921484	1.638131
0.921582	1.638080
0.921680	1.637934
0.921777	1.638000
0.921875	1.638076
0.921973	1.638077
0.922070	1.638011
0.922168	1.638056
0.922266	1.638036
0.922363	1.637929
0.922461	1.637978
0.922559	1.637922
0.922656	1.638037
0.922754	1.637936
0.922852	1.638039
0.922949	1.637989
0.923047	1.638010
0.923145	1.637967
0.923242	1.637997
0.923340	1.637961
0.923437	1.637987
0.923535	1.637951
0.923633	1.638037
0.923730	1.637925
0.923828	1.637937
0.923926	1.638012
0.924023	1.637960
0.924121	1.637984
0.924219	1.637994
0.924316	1.638027
0.924414	1.638010
0.924512	1.638098
0.924609	1.638006
0.924707	1.638073
0.924805	1.638016
0.924902	1.638063
0.925000	1.638025
0.925098	1.637985
0.925195	1.638018
0.925293	1.638037
0.925391	1.637956
0.925488	1.637962
0.925586	1.637957
0.925684	1.637983
0.925781	1.638015
0.925879	1.637965
0.925977	1.637897
0.926074	1.637974
0.926172	1.637912
0.926270	1.638017
0.926367	1.637875
0.926465	1.637947
0.926562	1.637971
0.926660	1.637953
0.926758	1.637914
0.926855	1.637903
0.926953	1.637895
0.927051	1.637905
0.927148	1.637864
0.927246	1.637876
0.927344	1.637853
0.927441	1.637900
0.927539	1.637903
0.927637	1.637933
0.927734	1.637927
0.927832	1.637888
0.927930	1.638041
0.928027	1.637972
0.928125	1.638097
0.928223	1.638071
0.928320	1.638136
0.928418	1.638174
0.928516	1.638281
0.928613	1.638189
0.928711	1.638179
0.928809	1.638186
0.928906	1.638194
0.929004	1.638180
0.929102	1.638238
0.929199	1.638312
0.929297	1.638376
0.929395	1.638396
0.929492	1.638392
0.929590	1.638391
0.929687	1.638396
0.929785	1.638330
0.929883	1.638380
0.929980	1.638448
0.930078	1.638363
0.930176	1.638522
0.930273	1.638414
0.930371	1.638394
0.930469	1.638427
0.930566	1.638415
0.930664	1.638436
0.930762	1.638332
0.930859	1.638471
0.930957	1.638368
0.931055	1.638396
0.931152	1.638372
0.931250	1.638374
0.931348	1.638363
0.931445	1.638329
0.931543	1.638325
0.931641	1.638191
0.931738	1.638196
0.931836	1.638305
0.931934	1.638338
0.932031	1.638305
0.932129	1.638293
0.932227	1.638351
0.932324	1.638293
0.932422	1.638249
0.932520	1.638220
0.932617	1.638250
0.932715	1.638311
0.932812	1.638209
0.932910	1.638304
0.933008	1.638205
0.933105	1.638202
0.933203	1.638175
0.933301	1.638149
0.933398	1.638166
0.933496	1.638147
0.933594	1.638183
0.933691	1.638217
0.933789	1.638122
0.933887	1.638152
0.933984	1.638134
0.934082	1.638098
0.934180	1.638120
0.934277	1.637996
0.934375	1.638066
0.934473	1.637984
0.934570	1.638022
0.934668	1.637972
0.934766	1.637988
0.934863	1.637940
0.934961	1.638000
0.935059	1.637995
0.935156	1.637939
0.935254	1.637876
0.935352	1.637887
0.935449	1.637773
0.935547	1.637904
0.935645	1.637743
0.935742	1.637859
0.935840	1.637760
0.935937	1.637761
0.936035	1.637705
0.936133	1.637705
0.936230	1.637696
0.936328	1.637671
0.936426	1.637759
0.936523	1.637763
0.936621	1.637666
0.936719	1.637705
0.936816	1.637721
0.936914	1.637699
0.937012	1.637781
0.937109	1.637699
0.937207	1.637729
0.937305	1.637744
0.937402	1.637729
0.937500	1.637704
0.937598	1.637760
0.937695	1.637772
0.937793	1.637811
0.937891	1.637810
0.937988	1.637832
0.938086	1.637856
0.938184	1.637899
0.938281	1.637908
0.938379	1.637865
0.938477	1.637934
0.938574	1.637936
0.938672	1.637998
0.938770	1.637937
0.938867	1.637939
0.938965	1.637931
0.939062	1.637934
0.939160	1.637930
0.939258	1.637884
0.939355	1.638003
0.939453	1.637981
0.939551	1.638022
0.939648	1.637984
0.939746	1.637966
0.939844	1.637898
0.939941	1.637934
0.940039	1.637942
0.940137	1.637929
0.940234	1.637969
0.940332	1.637892
0.940430	1.637945
0.940527	1.637941
0.940625	1.637892
0.940723	1.637910
0.940820	1.637962
0.940918	1.637901
0.941016	1.637943
0.941113	1.637909
0.941211	1.637912
0.941309	1.637928
0.941406	1.637934
0.941504	1.637859
0.941602	1.637863
0.941699	1.637884
0.941797	1.637915
0.941895	1.638081
0.941992	1.638035
0.942090	1.638054
0.942187	1.637984
0.942285	1.638061
0.942383	1.638081
0.942480	1.638113
0.942578	1.638147
0.942676	1.638137
0.942773	1.638132
0.942871	1.638197
0.942969	1.638254
0.943066	1.638237
0.943164	1.638246
0.943262	1.638197
0.943359	1.638279
0.943457	1.638291
0.943555	1.638313
0.943652	1.638278
0.943750	1.638327
0.943848	1.638326
0.943945	1.638377
0.944043	1.638270
0.944141	1.638369
0.944238	1.638336
0.944336	1.638329
0.944434	1.638321
0.944531	1.638288
0.944629	1.638352
0.944727	1.638351
0.944824	1.638346
0.944922	1.638315
0.945020	1.638382
0.945117	1.638367
0.945215	1.638300
0.945312	1.638372
0.945410	1.638332
0.945508	1.638293
0.945605	1.638333
0.945703	1.638318
0.945801	1.638288
0.945898	1.638270
0.945996	1.638288
0.946094	1.638241
0.946191	1.638264
0.946289	1.638276
0.946387	1.638291
0.946484	1.638246
0.946582	1.638245
0.946680	1.638274
0.946777	1.638306
0.946875	1.638267
0.946973	1.638279
0.947070	1.638333
0.947168	1.638335
0.947266	1.638457
0.947363	1.638366
0.947461	1.638381
0.947559	1.638377
0.947656	1.638458
0.947754	1.638424
0.947852	1.638405
0.947949	1.638434
0.948047	1.638477
0.948145	1.638513
0.948242	1.638468
0.948340	1.638457
0.948437	1.638523
0.948535	1.638485
0.948633	1.638487
0.948730	1.638507
0.948828	1.638368
0.948926	1.638385
0.949023	1.638366
0.949121	1.638454
0.949219	1.638398
0.949316	1.638397
0.949414	1.638441
0.949512	1.638452
0.949609	1.638491
0.949707	1.638360
0.949805	1.638350
0.949902	1.638272
0.950000	1.638366
0.950098	1.638341
0.950195	1.638301
0.950293	1.638340
0.950391	1.638295
0.950488	1.638237
0.950586	1.638191
0.950684	1.638290
0.950781	1.638220
0.950879	1.638194
0.950977	1.638321
0.951074	1.638160
0.951172	1.638245
0.951270	1.638214
0.951367	1.638185
0.951465	1.638081
0.951562	1.638136
0.951660	1.638075
0.951758	1.638044
0.951855	1.638164
0.951953	1.638178
0.952051	1.638163
0.952148	1.638108
0.952246	1.638164
0.952344	1.638120
0.952441	1.638221
0.952539	1.638136
0.952637	1.638145
0.952734	1.638154
0.952832	1.638112
0.952930	1.638165
0.953027	1.638137
0.953125	1.638126
0.953223	1.638091
0.953320	1.638114
0.953418	1.638200
0.953516	1.638138
0.953613	1.638148
0.953711	1.638070
0.953809	1.638203
0.953906	1.638139
0.954004	1.638089
0.954102	1.638112
0.954199	1.638135
0.954297	1.638163
0.954395	1.638149
0.954492	1.638158
0.954590	1.638196
0.954687	1.638127
0.954785	1.638146
0.954883	1.638138
0.954980	1.638134
0.955078	1.638214
0.955176	1.638111
0.955273	1.638157
0.955371	1.638187
0.955469	1.638155
0.955566	1.638301
0.955664	1.638203
0.955762	1.638269
0.955859	1.638241
0.955957	1.638288
0.956055	1.638218
0.956152	1.638277
0.956250	1.638323
0.956348	1.638308
0.956445	1.638304
0.956543	1.638311
0.956641	1.638352
0.956738	1.638336
0.956836	1.638333
0.956934	1.638352
0.957031	1.638341
0.957129	1.638326
0.957227	1.638359
0.957324	1.638343
0.957422	1.638380
0.957520	1.638369
0.957617	1.638357
0.957715	1.638341
0.957812	1.638357
0.957910	1.638306
0.958008	1.638372
0.958105	1.638398
0.958203	1.638322
0.958301	1.638432
0.958398	1.638335
0.958496	1.638382
0.958594	1.638356
0.958691	1.638330
0.958789	1.638323
0.958887	1.638365
0.958984	1.638270
0.959082	1.638169
0.959180	1.638236
0.959277	1.638262
0.959375	1.638240
0.959473	1.638318
0.959570	1.638254
0.959668	1.638222
0.959766	1.638175
0.959863	1.638197
0.959961	1.638144
0.960059	1.638098
0.960156	1.638142
0.960254	1.638139
0.960352	1.638104
0.960449	1.638006
0.960547	1.638068
0.960645	1.638010
0.960742	1.638043
0.960840	1.637997
0.960937	1.637992
0.961035	1.637942
0.961133	1.638004
0.961230	1.637922
0.961328	1.637938
0.961426	1.637928
0.961523	1.637917
0.961621	1.637802
0.961719	1.637702
0.961816	1.637883
0.961914	1.637822
0.962012	1.637885
0.962109	1.637831
0.962207	1.637858
0.962305	1.637848
0.962402	1.637901
0.962500	1.637909
0.962598	1.637854
0.962695	1.637884
0.962793	1.637889
0.962891	1.637903
0.962988	1.637933
0.963086	1.637931
0.963184	1.637898
0.963281	1.637944
0.963379	1.637953
0.963477	1.637962
0.963574	1.638041
0.963672	1.638011
0.963770	1.638039
0.963867	1.637993
0.963965	1.638025
0.964062	1.638075
0.964160	1.638042
0.964258	1.638009
0.964355	1.638058
0.964453	1.637986
0.964551	1.637980
0.964648	1.638079
0.964746	1.638058
0.964844	1.638139
0.964941	1.638100
0.965039	1.638058
0.965137	1.638005
0.965234	1.638033
0.965332	1.638041
0.965430	1.638018
0.965527	1.638074
0.965625	1.638082
0.965723	1.638110
0.965820	1.638100
0.965918	1.638081
0.966016	1.638086
0.966113	1.638017
0.966211	1.638143
0.966309	1.638214
0.966406	1.638187
0.966504	1.638150
0.966602	1.638177
0.966699	1.638228
0.966797	1.638193
0.966895	1.638209
0.966992	1.638280
0.967090	1.638188
0.967187	1.638202
0.967285	1.638221
0.967383	1.638194
0.967480	1.638257
0.967578	1.638183
0.967676	1.638227
0.967773	1.638219
0.967871	1.638288
0.967969	1.638316
0.968066	1.638278
0.968164	1.638254
0.968262	1.638230
0.968359	1.638322
0.968457	1.638251
0.968555	1.638316
0.968652	1.638305
0.968750	1.638231
0.968848	1.638138
0.968945	1.638183
0.969043	1.638091
0.969141	1.638125
0.969238	1.638135
0.969336	1.638128
0.969434	1.638139
0.969531	1.638217
0.969629	1.638131
0.969727	1.638169
0.969824	1.638135
0.969922	1.638120
0.970020	1.638108
0.970117	1.638197
0.970215	1.638124
0.970312	1.638167
0.970410	1.638190
0.970508	1.638206
0.970605	1.638147
0.970703	1.638128
0.970801	1.638241
0.970898	1.638245
0.970996	1.638250
0.971094	1.638189
0.971191	1.638255
0.971289	1.638091
0.971387	1.638162
0.971484	1.638145
0.971582	1.638160
0.971680	1.638034
0.971777	1.638108
0.971875	1.638151
0.971973	1.638120
0.972070	1.638034
0.972168	1.638066
0.972266	1.638063
0.972363	1.638082
0.972461	1.638049
0.972559	1.637989
0.972656	1.638049
0.972754	1.638003
0.972852	1.638063
0.972949	1.637972
0.973047	1.638046
0.973145	1.637997
0.973242	1.637994
0.973340	1.637992
0.973437	1.637996
0.973535	1.637976
0.973633	1.637925
0.973730	1.637973
0.973828	1.638003
0.973926	1.637910
0.974023	1.638018
0.974121	1.637936
0.974219	1.637995
0.974316	1.638016
0.974414	1.637988
0.974512	1.638034
0.974609	1.638033
0.974707	1.638081
0.974805	1.638056
0.974902	1.638064
0.975000	1.638061
0.975098	1.638139
0.975195	1.638116
0.975293	1.638113
0.975391	1.638110
0.975488	1.638134
0.975586	1.638102
0.975684	1.638094
0.975781	1.638073
0.975879	1.638117
0.975977	1.638131
0.976074	1.638129
0.976172	1.638133
0.976270	1.638176
0.976367	1.638056
0.976465	1.638080

