LabVIEW Measurement	
Writer_Version	2
Reader_Version	2
Separator	Tab
Decimal_Separator	.
Multi_Headings	Yes
X_Columns	One
Time_Pref	Absolute
Operator	W-Tunnel
Date	1904/01/01
Time	01:00:00
***End_of_Header***	
	
Channels	1	
Samples	10000	
Date	2024/05/17	
Time	18:28:39.8813783562495560306	
Y_Unit_Label	Volts	
X_Dimension	Time	
X0	0.0000000000000000E+0	
Delta_X	9.765625E-5	
***End_of_Header***		
X_Value	Voltage	Comment
0.000000	1.641403
9.765625E-5	1.641360
0.000195	1.641430
0.000293	1.641440
0.000391	1.641478
0.000488	1.641456
0.000586	1.641407
0.000684	1.641424
0.000781	1.641369
0.000879	1.641359
0.000977	1.641489
0.001074	1.641341
0.001172	1.641389
0.001270	1.641365
0.001367	1.641402
0.001465	1.641433
0.001562	1.641349
0.001660	1.641221
0.001758	1.641352
0.001855	1.641343
0.001953	1.641393
0.002051	1.641478
0.002148	1.641382
0.002246	1.641467
0.002344	1.641454
0.002441	1.641416
0.002539	1.641475
0.002637	1.641469
0.002734	1.641398
0.002832	1.641431
0.002930	1.641409
0.003027	1.641488
0.003125	1.641451
0.003223	1.641466
0.003320	1.641440
0.003418	1.641486
0.003516	1.641401
0.003613	1.641425
0.003711	1.641463
0.003809	1.641478
0.003906	1.641467
0.004004	1.641497
0.004102	1.641455
0.004199	1.641503
0.004297	1.641383
0.004395	1.641535
0.004492	1.641425
0.004590	1.641392
0.004687	1.641385
0.004785	1.641402
0.004883	1.641377
0.004980	1.641372
0.005078	1.641399
0.005176	1.641443
0.005273	1.641387
0.005371	1.641425
0.005469	1.641462
0.005566	1.641359
0.005664	1.641395
0.005762	1.641374
0.005859	1.641328
0.005957	1.641336
0.006055	1.641406
0.006152	1.641346
0.006250	1.641357
0.006348	1.641370
0.006445	1.641385
0.006543	1.641374
0.006641	1.641361
0.006738	1.641396
0.006836	1.641358
0.006934	1.641467
0.007031	1.641370
0.007129	1.641392
0.007227	1.641370
0.007324	1.641395
0.007422	1.641381
0.007520	1.641394
0.007617	1.641314
0.007715	1.641435
0.007812	1.641359
0.007910	1.641394
0.008008	1.641458
0.008105	1.641383
0.008203	1.641417
0.008301	1.641403
0.008398	1.641411
0.008496	1.641452
0.008594	1.641449
0.008691	1.641417
0.008789	1.641384
0.008887	1.641349
0.008984	1.641365
0.009082	1.641341
0.009180	1.641357
0.009277	1.641405
0.009375	1.641423
0.009473	1.641446
0.009570	1.641413
0.009668	1.641431
0.009766	1.641367
0.009863	1.641338
0.009961	1.641381
0.010059	1.641441
0.010156	1.641354
0.010254	1.641368
0.010352	1.641309
0.010449	1.641366
0.010547	1.641339
0.010645	1.641300
0.010742	1.641345
0.010840	1.641399
0.010937	1.641400
0.011035	1.641326
0.011133	1.641402
0.011230	1.641338
0.011328	1.641339
0.011426	1.641424
0.011523	1.641295
0.011621	1.641319
0.011719	1.641204
0.011816	1.641289
0.011914	1.641356
0.012012	1.641324
0.012109	1.641316
0.012207	1.641359
0.012305	1.641309
0.012402	1.641425
0.012500	1.641267
0.012598	1.641363
0.012695	1.641247
0.012793	1.641313
0.012891	1.641314
0.012988	1.641298
0.013086	1.641325
0.013184	1.641344
0.013281	1.641353
0.013379	1.641402
0.013477	1.641340
0.013574	1.641255
0.013672	1.641321
0.013770	1.641316
0.013867	1.641294
0.013965	1.641316
0.014062	1.641237
0.014160	1.641304
0.014258	1.641400
0.014355	1.641305
0.014453	1.641294
0.014551	1.641297
0.014648	1.641253
0.014746	1.641300
0.014844	1.641392
0.014941	1.641297
0.015039	1.641265
0.015137	1.641291
0.015234	1.641293
0.015332	1.641327
0.015430	1.641275
0.015527	1.641258
0.015625	1.641284
0.015723	1.641286
0.015820	1.641314
0.015918	1.641277
0.016016	1.641239
0.016113	1.641306
0.016211	1.641283
0.016309	1.641336
0.016406	1.641250
0.016504	1.641288
0.016602	1.641279
0.016699	1.641325
0.016797	1.641269
0.016895	1.641383
0.016992	1.641259
0.017090	1.641330
0.017187	1.641267
0.017285	1.641258
0.017383	1.641339
0.017480	1.641322
0.017578	1.641241
0.017676	1.641341
0.017773	1.641316
0.017871	1.641314
0.017969	1.641322
0.018066	1.641345
0.018164	1.641389
0.018262	1.641393
0.018359	1.641352
0.018457	1.641378
0.018555	1.641455
0.018652	1.641397
0.018750	1.641435
0.018848	1.641336
0.018945	1.641391
0.019043	1.641343
0.019141	1.641262
0.019238	1.641297
0.019336	1.641311
0.019434	1.641356
0.019531	1.641473
0.019629	1.641373
0.019727	1.641341
0.019824	1.641264
0.019922	1.641316
0.020020	1.641383
0.020117	1.641331
0.020215	1.641325
0.020312	1.641366
0.020410	1.641277
0.020508	1.641376
0.020605	1.641390
0.020703	1.641315
0.020801	1.641381
0.020898	1.641353
0.020996	1.641352
0.021094	1.641302
0.021191	1.641352
0.021289	1.641266
0.021387	1.641314
0.021484	1.641278
0.021582	1.641244
0.021680	1.641109
0.021777	1.641238
0.021875	1.641203
0.021973	1.641353
0.022070	1.641288
0.022168	1.641250
0.022266	1.641297
0.022363	1.641209
0.022461	1.641243
0.022559	1.641255
0.022656	1.641310
0.022754	1.641298
0.022852	1.641256
0.022949	1.641280
0.023047	1.641251
0.023145	1.641226
0.023242	1.641290
0.023340	1.641226
0.023437	1.641302
0.023535	1.641325
0.023633	1.641220
0.023730	1.641247
0.023828	1.641302
0.023926	1.641215
0.024023	1.641255
0.024121	1.641322
0.024219	1.641241
0.024316	1.641285
0.024414	1.641261
0.024512	1.641289
0.024609	1.641291
0.024707	1.641315
0.024805	1.641265
0.024902	1.641291
0.025000	1.641191
0.025098	1.641300
0.025195	1.641266
0.025293	1.641273
0.025391	1.641247
0.025488	1.641328
0.025586	1.641287
0.025684	1.641302
0.025781	1.641332
0.025879	1.641297
0.025977	1.641322
0.026074	1.641286
0.026172	1.641264
0.026270	1.641332
0.026367	1.641283
0.026465	1.641283
0.026562	1.641259
0.026660	1.641292
0.026758	1.641319
0.026855	1.641311
0.026953	1.641318
0.027051	1.641262
0.027148	1.641308
0.027246	1.641238
0.027344	1.641222
0.027441	1.641297
0.027539	1.641341
0.027637	1.641282
0.027734	1.641300
0.027832	1.641311
0.027930	1.641307
0.028027	1.641331
0.028125	1.641313
0.028223	1.641360
0.028320	1.641331
0.028418	1.641392
0.028516	1.641325
0.028613	1.641403
0.028711	1.641340
0.028809	1.641258
0.028906	1.641323
0.029004	1.641307
0.029102	1.641279
0.029199	1.641251
0.029297	1.641264
0.029395	1.641309
0.029492	1.641295
0.029590	1.641247
0.029687	1.641232
0.029785	1.641269
0.029883	1.641286
0.029980	1.641256
0.030078	1.641284
0.030176	1.641303
0.030273	1.641214
0.030371	1.641274
0.030469	1.641336
0.030566	1.641228
0.030664	1.641294
0.030762	1.641278
0.030859	1.641266
0.030957	1.641204
0.031055	1.641288
0.031152	1.641254
0.031250	1.641187
0.031348	1.641231
0.031445	1.641226
0.031543	1.641233
0.031641	1.641024
0.031738	1.641081
0.031836	1.641139
0.031934	1.641160
0.032031	1.641132
0.032129	1.641107
0.032227	1.641218
0.032324	1.641125
0.032422	1.641104
0.032520	1.641125
0.032617	1.641201
0.032715	1.641117
0.032812	1.641209
0.032910	1.641200
0.033008	1.641170
0.033105	1.641171
0.033203	1.641132
0.033301	1.641164
0.033398	1.641200
0.033496	1.641196
0.033594	1.641153
0.033691	1.641157
0.033789	1.641203
0.033887	1.641167
0.033984	1.641125
0.034082	1.641088
0.034180	1.641156
0.034277	1.641106
0.034375	1.641207
0.034473	1.641103
0.034570	1.641153
0.034668	1.641138
0.034766	1.641115
0.034863	1.641151
0.034961	1.641273
0.035059	1.641177
0.035156	1.641170
0.035254	1.641188
0.035352	1.641195
0.035449	1.641167
0.035547	1.641082
0.035645	1.641227
0.035742	1.641217
0.035840	1.641178
0.035937	1.641144
0.036035	1.641257
0.036133	1.641134
0.036230	1.641136
0.036328	1.641200
0.036426	1.641170
0.036523	1.641154
0.036621	1.641154
0.036719	1.641211
0.036816	1.641131
0.036914	1.641234
0.037012	1.641126
0.037109	1.641226
0.037207	1.641172
0.037305	1.641195
0.037402	1.641208
0.037500	1.641223
0.037598	1.641204
0.037695	1.641258
0.037793	1.641307
0.037891	1.641306
0.037988	1.641377
0.038086	1.641377
0.038184	1.641422
0.038281	1.641400
0.038379	1.641378
0.038477	1.641442
0.038574	1.641319
0.038672	1.641421
0.038770	1.641384
0.038867	1.641325
0.038965	1.641280
0.039062	1.641272
0.039160	1.641328
0.039258	1.641355
0.039355	1.641322
0.039453	1.641480
0.039551	1.641313
0.039648	1.641395
0.039746	1.641338
0.039844	1.641349
0.039941	1.641321
0.040039	1.641323
0.040137	1.641388
0.040234	1.641403
0.040332	1.641416
0.040430	1.641374
0.040527	1.641379
0.040625	1.641314
0.040723	1.641380
0.040820	1.641329
0.040918	1.641394
0.041016	1.641343
0.041113	1.641385
0.041211	1.641343
0.041309	1.641295
0.041406	1.641219
0.041504	1.641188
0.041602	1.641192
0.041699	1.641119
0.041797	1.641231
0.041895	1.641316
0.041992	1.641278
0.042090	1.641198
0.042187	1.641246
0.042285	1.641192
0.042383	1.641257
0.042480	1.641195
0.042578	1.641170
0.042676	1.641295
0.042773	1.641166
0.042871	1.641173
0.042969	1.641168
0.043066	1.641189
0.043164	1.641200
0.043262	1.641138
0.043359	1.641245
0.043457	1.641214
0.043555	1.641154
0.043652	1.641197
0.043750	1.641156
0.043848	1.641162
0.043945	1.641094
0.044043	1.641118
0.044141	1.641088
0.044238	1.641059
0.044336	1.641155
0.044434	1.641060
0.044531	1.641223
0.044629	1.641104
0.044727	1.641103
0.044824	1.641137
0.044922	1.641067
0.045020	1.641057
0.045117	1.641120
0.045215	1.641102
0.045312	1.641115
0.045410	1.641095
0.045508	1.641070
0.045605	1.641051
0.045703	1.641095
0.045801	1.641120
0.045898	1.641079
0.045996	1.641137
0.046094	1.641078
0.046191	1.641122
0.046289	1.641107
0.046387	1.641097
0.046484	1.641084
0.046582	1.641073
0.046680	1.641098
0.046777	1.641029
0.046875	1.641062
0.046973	1.641114
0.047070	1.641067
0.047168	1.641119
0.047266	1.641084
0.047363	1.641088
0.047461	1.641104
0.047559	1.641101
0.047656	1.641116
0.047754	1.641136
0.047852	1.641132
0.047949	1.641095
0.048047	1.641108
0.048145	1.641143
0.048242	1.641145
0.048340	1.641269
0.048437	1.641153
0.048535	1.641201
0.048633	1.641225
0.048730	1.641178
0.048828	1.641035
0.048926	1.641139
0.049023	1.641029
0.049121	1.641080
0.049219	1.641126
0.049316	1.641144
0.049414	1.641125
0.049512	1.641134
0.049609	1.641168
0.049707	1.641095
0.049805	1.641103
0.049902	1.641165
0.050000	1.641155
0.050098	1.641123
0.050195	1.641109
0.050293	1.641111
0.050391	1.641123
0.050488	1.641124
0.050586	1.641155
0.050684	1.641122
0.050781	1.641074
0.050879	1.641153
0.050977	1.641128
0.051074	1.641143
0.051172	1.641133
0.051270	1.641145
0.051367	1.641131
0.051465	1.641056
0.051562	1.641128
0.051660	1.640963
0.051758	1.640998
0.051855	1.641118
0.051953	1.641114
0.052051	1.641205
0.052148	1.641101
0.052246	1.641097
0.052344	1.641098
0.052441	1.641126
0.052539	1.641215
0.052637	1.641134
0.052734	1.641126
0.052832	1.641088
0.052930	1.641173
0.053027	1.641158
0.053125	1.641090
0.053223	1.641082
0.053320	1.641134
0.053418	1.641159
0.053516	1.641081
0.053613	1.641086
0.053711	1.641197
0.053809	1.641088
0.053906	1.641178
0.054004	1.641128
0.054102	1.641108
0.054199	1.641176
0.054297	1.641096
0.054395	1.641136
0.054492	1.641175
0.054590	1.641126
0.054687	1.641105
0.054785	1.641123
0.054883	1.641134
0.054980	1.641085
0.055078	1.641123
0.055176	1.641151
0.055273	1.641049
0.055371	1.641183
0.055469	1.641101
0.055566	1.641164
0.055664	1.641200
0.055762	1.641100
0.055859	1.641107
0.055957	1.641170
0.056055	1.641102
0.056152	1.641105
0.056250	1.641096
0.056348	1.641087
0.056445	1.641115
0.056543	1.641117
0.056641	1.641153
0.056738	1.641109
0.056836	1.641178
0.056934	1.641137
0.057031	1.641075
0.057129	1.641176
0.057227	1.641162
0.057324	1.641157
0.057422	1.641137
0.057520	1.641150
0.057617	1.641122
0.057715	1.641086
0.057812	1.641156
0.057910	1.641140
0.058008	1.641142
0.058105	1.641219
0.058203	1.641121
0.058301	1.641188
0.058398	1.641162
0.058496	1.641172
0.058594	1.641164
0.058691	1.641162
0.058789	1.641053
0.058887	1.641026
0.058984	1.641035
0.059082	1.640996
0.059180	1.641037
0.059277	1.641017
0.059375	1.641147
0.059473	1.641121
0.059570	1.641098
0.059668	1.641086
0.059766	1.641010
0.059863	1.641032
0.059961	1.641024
0.060059	1.641088
0.060156	1.641040
0.060254	1.641048
0.060352	1.641085
0.060449	1.641003
0.060547	1.641001
0.060645	1.641040
0.060742	1.640913
0.060840	1.640990
0.060937	1.640941
0.061035	1.641002
0.061133	1.640963
0.061230	1.640973
0.061328	1.641007
0.061426	1.640917
0.061523	1.640937
0.061621	1.640879
0.061719	1.640841
0.061816	1.640934
0.061914	1.640924
0.062012	1.640944
0.062109	1.640967
0.062207	1.640835
0.062305	1.640885
0.062402	1.640902
0.062500	1.640891
0.062598	1.640927
0.062695	1.640934
0.062793	1.640946
0.062891	1.640902
0.062988	1.640863
0.063086	1.640840
0.063184	1.640882
0.063281	1.640880
0.063379	1.640867
0.063477	1.640887
0.063574	1.640877
0.063672	1.640928
0.063770	1.640836
0.063867	1.640899
0.063965	1.640879
0.064062	1.640883
0.064160	1.640837
0.064258	1.640898
0.064355	1.640894
0.064453	1.640893
0.064551	1.640876
0.064648	1.640931
0.064746	1.640912
0.064844	1.640854
0.064941	1.640852
0.065039	1.640923
0.065137	1.640848
0.065234	1.640935
0.065332	1.640886
0.065430	1.640933
0.065527	1.640893
0.065625	1.640943
0.065723	1.640863
0.065820	1.640993
0.065918	1.640905
0.066016	1.640924
0.066113	1.641044
0.066211	1.640930
0.066309	1.640928
0.066406	1.641034
0.066504	1.640930
0.066602	1.640968
0.066699	1.641012
0.066797	1.640985
0.066895	1.641030
0.066992	1.641013
0.067090	1.641000
0.067187	1.641020
0.067285	1.641015
0.067383	1.640993
0.067480	1.640960
0.067578	1.640940
0.067676	1.641023
0.067773	1.641022
0.067871	1.641018
0.067969	1.641020
0.068066	1.641044
0.068164	1.641111
0.068262	1.641023
0.068359	1.641071
0.068457	1.641063
0.068555	1.641165
0.068652	1.641086
0.068750	1.641082
0.068848	1.641047
0.068945	1.641042
0.069043	1.641035
0.069141	1.640970
0.069238	1.640988
0.069336	1.641102
0.069434	1.641003
0.069531	1.641110
0.069629	1.641054
0.069727	1.640957
0.069824	1.641092
0.069922	1.640916
0.070020	1.641038
0.070117	1.640960
0.070215	1.640975
0.070312	1.640996
0.070410	1.641012
0.070508	1.641003
0.070605	1.641012
0.070703	1.640952
0.070801	1.640994
0.070898	1.640977
0.070996	1.640944
0.071094	1.640924
0.071191	1.640923
0.071289	1.640913
0.071387	1.640898
0.071484	1.640872
0.071582	1.640914
0.071680	1.640799
0.071777	1.640830
0.071875	1.640915
0.071973	1.640956
0.072070	1.640968
0.072168	1.640824
0.072266	1.640919
0.072363	1.640803
0.072461	1.640837
0.072559	1.640862
0.072656	1.640929
0.072754	1.640841
0.072852	1.640852
0.072949	1.640803
0.073047	1.640800
0.073145	1.640885
0.073242	1.640769
0.073340	1.640896
0.073437	1.640871
0.073535	1.640889
0.073633	1.640865
0.073730	1.640854
0.073828	1.640804
0.073926	1.640899
0.074023	1.640833
0.074121	1.640896
0.074219	1.640889
0.074316	1.640880
0.074414	1.640824
0.074512	1.640824
0.074609	1.640868
0.074707	1.640915
0.074805	1.640869
0.074902	1.640872
0.075000	1.640829
0.075098	1.640826
0.075195	1.640832
0.075293	1.640851
0.075391	1.640816
0.075488	1.640767
0.075586	1.640837
0.075684	1.640805
0.075781	1.640796
0.075879	1.640774
0.075977	1.640821
0.076074	1.640849
0.076172	1.640830
0.076270	1.640818
0.076367	1.640823
0.076465	1.640801
0.076562	1.640784
0.076660	1.640760
0.076758	1.640756
0.076855	1.640797
0.076953	1.640736
0.077051	1.640768
0.077148	1.640794
0.077246	1.640760
0.077344	1.640737
0.077441	1.640682
0.077539	1.640796
0.077637	1.640686
0.077734	1.640761
0.077832	1.640778
0.077930	1.640772
0.078027	1.640808
0.078125	1.640826
0.078223	1.640823
0.078320	1.640827
0.078418	1.640823
0.078516	1.640839
0.078613	1.640799
0.078711	1.640789
0.078809	1.640854
0.078906	1.640824
0.079004	1.640787
0.079102	1.640758
0.079199	1.640768
0.079297	1.640781
0.079395	1.640788
0.079492	1.640931
0.079590	1.640872
0.079687	1.640813
0.079785	1.640813
0.079883	1.640820
0.079980	1.640877
0.080078	1.640844
0.080176	1.640795
0.080273	1.640859
0.080371	1.640840
0.080469	1.640892
0.080566	1.640861
0.080664	1.640830
0.080762	1.640874
0.080859	1.640911
0.080957	1.640919
0.081055	1.640920
0.081152	1.640842
0.081250	1.640873
0.081348	1.640856
0.081445	1.640830
0.081543	1.640829
0.081641	1.640736
0.081738	1.640725
0.081836	1.640823
0.081934	1.640824
0.082031	1.640876
0.082129	1.640908
0.082227	1.640841
0.082324	1.640841
0.082422	1.640854
0.082520	1.640857
0.082617	1.640859
0.082715	1.640810
0.082812	1.640840
0.082910	1.640907
0.083008	1.640810
0.083105	1.640858
0.083203	1.640819
0.083301	1.640825
0.083398	1.640791
0.083496	1.640840
0.083594	1.640779
0.083691	1.640867
0.083789	1.640863
0.083887	1.640797
0.083984	1.640843
0.084082	1.640758
0.084180	1.640849
0.084277	1.640791
0.084375	1.640782
0.084473	1.640779
0.084570	1.640815
0.084668	1.640724
0.084766	1.640846
0.084863	1.640781
0.084961	1.640837
0.085059	1.640807
0.085156	1.640779
0.085254	1.640793
0.085352	1.640829
0.085449	1.640817
0.085547	1.640789
0.085645	1.640797
0.085742	1.640716
0.085840	1.640747
0.085937	1.640777
0.086035	1.640732
0.086133	1.640799
0.086230	1.640777
0.086328	1.640792
0.086426	1.640833
0.086523	1.640774
0.086621	1.640769
0.086719	1.640807
0.086816	1.640747
0.086914	1.640780
0.087012	1.640774
0.087109	1.640763
0.087207	1.640760
0.087305	1.640750
0.087402	1.640770
0.087500	1.640760
0.087598	1.640794
0.087695	1.640823
0.087793	1.640836
0.087891	1.640895
0.087988	1.640880
0.088086	1.640869
0.088184	1.640945
0.088281	1.640908
0.088379	1.640954
0.088477	1.640892
0.088574	1.640892
0.088672	1.640953
0.088770	1.640915
0.088867	1.640831
0.088965	1.640927
0.089062	1.640743
0.089160	1.640821
0.089258	1.640854
0.089355	1.640881
0.089453	1.640881
0.089551	1.640918
0.089648	1.640827
0.089746	1.640902
0.089844	1.640861
0.089941	1.640891
0.090039	1.640846
0.090137	1.640846
0.090234	1.640965
0.090332	1.640862
0.090430	1.640915
0.090527	1.640871
0.090625	1.640872
0.090723	1.640911
0.090820	1.640856
0.090918	1.640906
0.091016	1.640884
0.091113	1.640857
0.091211	1.640881
0.091309	1.640855
0.091406	1.640893
0.091504	1.640817
0.091602	1.640857
0.091699	1.640733
0.091797	1.640835
0.091895	1.640850
0.091992	1.640872
0.092090	1.640865
0.092187	1.640907
0.092285	1.640946
0.092383	1.640923
0.092480	1.640965
0.092578	1.640972
0.092676	1.640821
0.092773	1.640941
0.092871	1.640916
0.092969	1.640927
0.093066	1.640934
0.093164	1.640992
0.093262	1.641014
0.093359	1.640948
0.093457	1.641064
0.093555	1.640952
0.093652	1.641018
0.093750	1.640932
0.093848	1.641052
0.093945	1.641040
0.094043	1.641085
0.094141	1.641090
0.094238	1.641104
0.094336	1.641089
0.094434	1.641150
0.094531	1.641073
0.094629	1.641016
0.094727	1.641107
0.094824	1.641038
0.094922	1.641106
0.095020	1.641028
0.095117	1.641009
0.095215	1.641137
0.095312	1.641031
0.095410	1.641009
0.095508	1.641112
0.095605	1.641078
0.095703	1.641058
0.095801	1.641132
0.095898	1.641153
0.095996	1.641141
0.096094	1.641062
0.096191	1.641118
0.096289	1.641115
0.096387	1.641081
0.096484	1.641168
0.096582	1.641085
0.096680	1.641082
0.096777	1.641109
0.096875	1.641087
0.096973	1.641177
0.097070	1.641150
0.097168	1.641186
0.097266	1.641210
0.097363	1.641162
0.097461	1.641132
0.097559	1.641170
0.097656	1.641173
0.097754	1.641150
0.097852	1.641237
0.097949	1.641206
0.098047	1.641281
0.098145	1.641210
0.098242	1.641275
0.098340	1.641190
0.098437	1.641264
0.098535	1.641244
0.098633	1.641251
0.098730	1.641254
0.098828	1.641147
0.098926	1.641230
0.099023	1.641162
0.099121	1.641066
0.099219	1.641103
0.099316	1.641161
0.099414	1.641217
0.099512	1.641211
0.099609	1.641129
0.099707	1.641194
0.099805	1.641192
0.099902	1.641175
0.100000	1.641219
0.100098	1.641201
0.100195	1.641203
0.100293	1.641210
0.100391	1.641118
0.100488	1.641220
0.100586	1.641190
0.100684	1.641211
0.100781	1.641249
0.100879	1.641182
0.100977	1.641177
0.101074	1.641185
0.101172	1.641181
0.101270	1.641143
0.101367	1.641213
0.101465	1.641169
0.101562	1.641085
0.101660	1.641087
0.101758	1.641036
0.101855	1.641118
0.101953	1.641124
0.102051	1.641186
0.102148	1.641127
0.102246	1.641181
0.102344	1.641174
0.102441	1.641166
0.102539	1.641189
0.102637	1.641199
0.102734	1.641142
0.102832	1.641136
0.102930	1.641221
0.103027	1.641131
0.103125	1.641187
0.103223	1.641156
0.103320	1.641226
0.103418	1.641173
0.103516	1.641121
0.103613	1.641106
0.103711	1.641113
0.103809	1.641143
0.103906	1.641155
0.104004	1.641063
0.104102	1.641237
0.104199	1.641105
0.104297	1.641101
0.104395	1.641150
0.104492	1.641128
0.104590	1.641181
0.104687	1.641182
0.104785	1.641170
0.104883	1.641206
0.104980	1.641128
0.105078	1.641200
0.105176	1.641154
0.105273	1.641216
0.105371	1.641215
0.105469	1.641200
0.105566	1.641233
0.105664	1.641121
0.105762	1.641260
0.105859	1.641200
0.105957	1.641142
0.106055	1.641258
0.106152	1.641187
0.106250	1.641211
0.106348	1.641214
0.106445	1.641202
0.106543	1.641228
0.106641	1.641217
0.106738	1.641236
0.106836	1.641198
0.106934	1.641253
0.107031	1.641239
0.107129	1.641211
0.107227	1.641263
0.107324	1.641244
0.107422	1.641353
0.107520	1.641258
0.107617	1.641245
0.107715	1.641272
0.107812	1.641235
0.107910	1.641274
0.108008	1.641316
0.108105	1.641338
0.108203	1.641327
0.108301	1.641308
0.108398	1.641340
0.108496	1.641318
0.108594	1.641305
0.108691	1.641317
0.108789	1.641330
0.108887	1.641245
0.108984	1.641309
0.109082	1.641178
0.109180	1.641295
0.109277	1.641230
0.109375	1.641308
0.109473	1.641391
0.109570	1.641309
0.109668	1.641360
0.109766	1.641350
0.109863	1.641244
0.109961	1.641327
0.110059	1.641289
0.110156	1.641280
0.110254	1.641263
0.110352	1.641324
0.110449	1.641270
0.110547	1.641318
0.110645	1.641280
0.110742	1.641307
0.110840	1.641305
0.110937	1.641255
0.111035	1.641379
0.111133	1.641228
0.111230	1.641340
0.111328	1.641270
0.111426	1.641328
0.111523	1.641266
0.111621	1.641242
0.111719	1.641125
0.111816	1.641234
0.111914	1.641284
0.112012	1.641324
0.112109	1.641261
0.112207	1.641315
0.112305	1.641336
0.112402	1.641255
0.112500	1.641288
0.112598	1.641185
0.112695	1.641272
0.112793	1.641220
0.112891	1.641243
0.112988	1.641226
0.113086	1.641202
0.113184	1.641246
0.113281	1.641267
0.113379	1.641309
0.113477	1.641224
0.113574	1.641259
0.113672	1.641220
0.113770	1.641245
0.113867	1.641212
0.113965	1.641195
0.114062	1.641263
0.114160	1.641297
0.114258	1.641242
0.114355	1.641270
0.114453	1.641258
0.114551	1.641327
0.114648	1.641235
0.114746	1.641313
0.114844	1.641319
0.114941	1.641298
0.115039	1.641283
0.115137	1.641292
0.115234	1.641301
0.115332	1.641257
0.115430	1.641355
0.115527	1.641305
0.115625	1.641345
0.115723	1.641260
0.115820	1.641341
0.115918	1.641308
0.116016	1.641294
0.116113	1.641305
0.116211	1.641319
0.116309	1.641284
0.116406	1.641358
0.116504	1.641388
0.116602	1.641377
0.116699	1.641392
0.116797	1.641330
0.116895	1.641365
0.116992	1.641346
0.117090	1.641421
0.117187	1.641347
0.117285	1.641380
0.117383	1.641380
0.117480	1.641351
0.117578	1.641408
0.117676	1.641378
0.117773	1.641395
0.117871	1.641405
0.117969	1.641449
0.118066	1.641390
0.118164	1.641442
0.118262	1.641489
0.118359	1.641413
0.118457	1.641497
0.118555	1.641519
0.118652	1.641523
0.118750	1.641496
0.118848	1.641458
0.118945	1.641409
0.119043	1.641406
0.119141	1.641319
0.119238	1.641422
0.119336	1.641467
0.119434	1.641497
0.119531	1.641513
0.119629	1.641397
0.119727	1.641421
0.119824	1.641475
0.119922	1.641446
0.120020	1.641411
0.120117	1.641451
0.120215	1.641399
0.120312	1.641468
0.120410	1.641466
0.120508	1.641450
0.120605	1.641510
0.120703	1.641445
0.120801	1.641446
0.120898	1.641382
0.120996	1.641456
0.121094	1.641335
0.121191	1.641424
0.121289	1.641390
0.121387	1.641415
0.121484	1.641390
0.121582	1.641295
0.121680	1.641303
0.121777	1.641256
0.121875	1.641372
0.121973	1.641362
0.122070	1.641406
0.122168	1.641344
0.122266	1.641316
0.122363	1.641381
0.122461	1.641363
0.122559	1.641314
0.122656	1.641262
0.122754	1.641372
0.122852	1.641370
0.122949	1.641387
0.123047	1.641326
0.123145	1.641315
0.123242	1.641313
0.123340	1.641378
0.123437	1.641366
0.123535	1.641338
0.123633	1.641276
0.123730	1.641322
0.123828	1.641290
0.123926	1.641224
0.124023	1.641270
0.124121	1.641236
0.124219	1.641281
0.124316	1.641294
0.124414	1.641254
0.124512	1.641255
0.124609	1.641208
0.124707	1.641250
0.124805	1.641223
0.124902	1.641280
0.125000	1.641212
0.125098	1.641204
0.125195	1.641251
0.125293	1.641231
0.125391	1.641208
0.125488	1.641230
0.125586	1.641289
0.125684	1.641200
0.125781	1.641225
0.125879	1.641153
0.125977	1.641168
0.126074	1.641156
0.126172	1.641201
0.126270	1.641104
0.126367	1.641128
0.126465	1.641132
0.126562	1.641097
0.126660	1.641060
0.126758	1.641139
0.126855	1.641098
0.126953	1.641101
0.127051	1.641109
0.127148	1.641134
0.127246	1.641150
0.127344	1.641069
0.127441	1.641116
0.127539	1.641100
0.127637	1.641037
0.127734	1.641039
0.127832	1.641132
0.127930	1.641131
0.128027	1.641166
0.128125	1.641154
0.128223	1.641115
0.128320	1.641161
0.128418	1.641129
0.128516	1.641132
0.128613	1.641194
0.128711	1.641234
0.128809	1.641111
0.128906	1.641170
0.129004	1.641131
0.129102	1.641095
0.129199	1.641088
0.129297	1.641135
0.129395	1.641092
0.129492	1.641112
0.129590	1.641150
0.129687	1.641112
0.129785	1.641084
0.129883	1.641110
0.129980	1.641117
0.130078	1.641126
0.130176	1.641136
0.130273	1.641131
0.130371	1.641140
0.130469	1.641096
0.130566	1.641140
0.130664	1.641106
0.130762	1.641198
0.130859	1.641158
0.130957	1.641108
0.131055	1.641164
0.131152	1.641111
0.131250	1.641159
0.131348	1.641062
0.131445	1.641049
0.131543	1.641134
0.131641	1.641029
0.131738	1.641006
0.131836	1.641101
0.131934	1.641092
0.132031	1.641114
0.132129	1.641015
0.132227	1.641081
0.132324	1.641115
0.132422	1.641158
0.132520	1.641159
0.132617	1.641076
0.132715	1.641121
0.132812	1.641113
0.132910	1.641240
0.133008	1.641112
0.133105	1.641161
0.133203	1.641153
0.133301	1.641143
0.133398	1.641141
0.133496	1.641144
0.133594	1.641110
0.133691	1.641144
0.133789	1.641142
0.133887	1.641170
0.133984	1.641112
0.134082	1.641138
0.134180	1.641107
0.134277	1.641130
0.134375	1.641120
0.134473	1.641088
0.134570	1.641133
0.134668	1.641120
0.134766	1.641100
0.134863	1.641165
0.134961	1.641115
0.135059	1.641110
0.135156	1.641096
0.135254	1.641034
0.135352	1.641071
0.135449	1.641028
0.135547	1.641143
0.135645	1.641037
0.135742	1.641104
0.135840	1.641074
0.135937	1.641103
0.136035	1.641154
0.136133	1.641104
0.136230	1.641008
0.136328	1.641104
0.136426	1.641003
0.136523	1.641051
0.136621	1.641117
0.136719	1.641076
0.136816	1.641044
0.136914	1.641075
0.137012	1.641059
0.137109	1.641035
0.137207	1.641017
0.137305	1.640998
0.137402	1.641043
0.137500	1.641015
0.137598	1.641093
0.137695	1.641025
0.137793	1.641081
0.137891	1.641114
0.137988	1.641057
0.138086	1.641098
0.138184	1.641114
0.138281	1.641101
0.138379	1.641067
0.138477	1.641131
0.138574	1.641136
0.138672	1.641088
0.138770	1.641075
0.138867	1.641057
0.138965	1.640998
0.139062	1.641045
0.139160	1.640947
0.139258	1.641107
0.139355	1.640952
0.139453	1.641120
0.139551	1.641037
0.139648	1.640993
0.139746	1.640982
0.139844	1.640933
0.139941	1.640953
0.140039	1.640918
0.140137	1.641051
0.140234	1.640987
0.140332	1.641017
0.140430	1.640983
0.140527	1.640962
0.140625	1.641025
0.140723	1.640926
0.140820	1.640982
0.140918	1.640904
0.141016	1.640974
0.141113	1.640879
0.141211	1.640941
0.141309	1.640914
0.141406	1.640917
0.141504	1.640951
0.141602	1.640808
0.141699	1.640741
0.141797	1.640845
0.141895	1.640883
0.141992	1.640972
0.142090	1.640799
0.142187	1.640914
0.142285	1.640957
0.142383	1.640866
0.142480	1.640920
0.142578	1.640910
0.142676	1.640909
0.142773	1.640939
0.142871	1.640861
0.142969	1.640929
0.143066	1.640849
0.143164	1.640840
0.143262	1.640859
0.143359	1.640916
0.143457	1.640870
0.143555	1.640905
0.143652	1.640859
0.143750	1.640843
0.143848	1.640814
0.143945	1.640845
0.144043	1.640884
0.144141	1.640833
0.144238	1.640906
0.144336	1.640878
0.144434	1.640847
0.144531	1.640866
0.144629	1.640821
0.144727	1.640859
0.144824	1.640876
0.144922	1.640803
0.145020	1.640854
0.145117	1.640901
0.145215	1.640801
0.145312	1.640887
0.145410	1.640865
0.145508	1.640923
0.145605	1.640927
0.145703	1.640864
0.145801	1.640894
0.145898	1.640845
0.145996	1.640892
0.146094	1.640888
0.146191	1.640862
0.146289	1.640839
0.146387	1.640827
0.146484	1.640847
0.146582	1.640923
0.146680	1.640888
0.146777	1.640885
0.146875	1.640879
0.146973	1.640926
0.147070	1.640918
0.147168	1.640927
0.147266	1.640832
0.147363	1.640884
0.147461	1.640892
0.147559	1.640977
0.147656	1.640879
0.147754	1.640966
0.147852	1.640968
0.147949	1.641021
0.148047	1.640949
0.148145	1.641007
0.148242	1.640968
0.148340	1.641018
0.148437	1.640982
0.148535	1.641017
0.148633	1.641081
0.148730	1.640998
0.148828	1.640901
0.148926	1.640891
0.149023	1.640897
0.149121	1.640863
0.149219	1.640901
0.149316	1.640981
0.149414	1.640987
0.149512	1.641032
0.149609	1.640986
0.149707	1.640913
0.149805	1.640972
0.149902	1.640951
0.150000	1.640944
0.150098	1.640951
0.150195	1.640929
0.150293	1.640996
0.150391	1.640962
0.150488	1.640954
0.150586	1.640975
0.150684	1.640915
0.150781	1.640920
0.150879	1.640924
0.150977	1.640918
0.151074	1.640886
0.151172	1.640885
0.151270	1.640907
0.151367	1.640970
0.151465	1.640921
0.151562	1.640871
0.151660	1.640815
0.151758	1.640771
0.151855	1.640871
0.151953	1.640902
0.152051	1.640827
0.152148	1.640896
0.152246	1.640862
0.152344	1.640861
0.152441	1.640928
0.152539	1.640832
0.152637	1.640872
0.152734	1.640901
0.152832	1.640909
0.152930	1.640806
0.153027	1.640846
0.153125	1.640917
0.153223	1.640845
0.153320	1.640802
0.153418	1.640779
0.153516	1.640818
0.153613	1.640828
0.153711	1.640806
0.153809	1.640845
0.153906	1.640862
0.154004	1.640818
0.154102	1.640814
0.154199	1.640832
0.154297	1.640777
0.154395	1.640855
0.154492	1.640765
0.154590	1.640766
0.154687	1.640786
0.154785	1.640791
0.154883	1.640826
0.154980	1.640772
0.155078	1.640823
0.155176	1.640756
0.155273	1.640867
0.155371	1.640757
0.155469	1.640763
0.155566	1.640791
0.155664	1.640741
0.155762	1.640726
0.155859	1.640755
0.155957	1.640733
0.156055	1.640776
0.156152	1.640768
0.156250	1.640743
0.156348	1.640805
0.156445	1.640685
0.156543	1.640768
0.156641	1.640705
0.156738	1.640763
0.156836	1.640774
0.156934	1.640730
0.157031	1.640688
0.157129	1.640751
0.157227	1.640756
0.157324	1.640740
0.157422	1.640630
0.157520	1.640724
0.157617	1.640705
0.157715	1.640774
0.157812	1.640711
0.157910	1.640736
0.158008	1.640794
0.158105	1.640753
0.158203	1.640706
0.158301	1.640776
0.158398	1.640790
0.158496	1.640684
0.158594	1.640802
0.158691	1.640823
0.158789	1.640728
0.158887	1.640733
0.158984	1.640684
0.159082	1.640694
0.159180	1.640684
0.159277	1.640744
0.159375	1.640708
0.159473	1.640744
0.159570	1.640727
0.159668	1.640675
0.159766	1.640776
0.159863	1.640706
0.159961	1.640721
0.160059	1.640671
0.160156	1.640705
0.160254	1.640689
0.160352	1.640702
0.160449	1.640768
0.160547	1.640699
0.160645	1.640738
0.160742	1.640644
0.160840	1.640725
0.160937	1.640662
0.161035	1.640660
0.161133	1.640639
0.161230	1.640689
0.161328	1.640747
0.161426	1.640671
0.161523	1.640664
0.161621	1.640556
0.161719	1.640533
0.161816	1.640564
0.161914	1.640655
0.162012	1.640646
0.162109	1.640676
0.162207	1.640659
0.162305	1.640674
0.162402	1.640545
0.162500	1.640666
0.162598	1.640593
0.162695	1.640592
0.162793	1.640595
0.162891	1.640566
0.162988	1.640601
0.163086	1.640584
0.163184	1.640630
0.163281	1.640603
0.163379	1.640564
0.163477	1.640568
0.163574	1.640573
0.163672	1.640545
0.163770	1.640557
0.163867	1.640619
0.163965	1.640514
0.164062	1.640540
0.164160	1.640527
0.164258	1.640498
0.164355	1.640630
0.164453	1.640490
0.164551	1.640530
0.164648	1.640514
0.164746	1.640538
0.164844	1.640444
0.164941	1.640499
0.165039	1.640462
0.165137	1.640479
0.165234	1.640458
0.165332	1.640492
0.165430	1.640425
0.165527	1.640409
0.165625	1.640472
0.165723	1.640417
0.165820	1.640465
0.165918	1.640434
0.166016	1.640496
0.166113	1.640497
0.166211	1.640437
0.166309	1.640470
0.166406	1.640456
0.166504	1.640412
0.166602	1.640409
0.166699	1.640412
0.166797	1.640399
0.166895	1.640388
0.166992	1.640345
0.167090	1.640445
0.167187	1.640355
0.167285	1.640410
0.167383	1.640395
0.167480	1.640428
0.167578	1.640379
0.167676	1.640328
0.167773	1.640458
0.167871	1.640503
0.167969	1.640407
0.168066	1.640420
0.168164	1.640405
0.168262	1.640409
0.168359	1.640503
0.168457	1.640459
0.168555	1.640577
0.168652	1.640490
0.168750	1.640456
0.168848	1.640473
0.168945	1.640433
0.169043	1.640424
0.169141	1.640370
0.169238	1.640426
0.169336	1.640470
0.169434	1.640482
0.169531	1.640558
0.169629	1.640437
0.169727	1.640432
0.169824	1.640436
0.169922	1.640474
0.170020	1.640458
0.170117	1.640507
0.170215	1.640481
0.170312	1.640450
0.170410	1.640416
0.170508	1.640522
0.170605	1.640458
0.170703	1.640436
0.170801	1.640439
0.170898	1.640509
0.170996	1.640541
0.171094	1.640462
0.171191	1.640547
0.171289	1.640551
0.171387	1.640509
0.171484	1.640561
0.171582	1.640460
0.171680	1.640422
0.171777	1.640445
0.171875	1.640507
0.171973	1.640517
0.172070	1.640539
0.172168	1.640539
0.172266	1.640525
0.172363	1.640531
0.172461	1.640583
0.172559	1.640541
0.172656	1.640563
0.172754	1.640586
0.172852	1.640561
0.172949	1.640658
0.173047	1.640572
0.173145	1.640582
0.173242	1.640700
0.173340	1.640656
0.173437	1.640655
0.173535	1.640608
0.173633	1.640702
0.173730	1.640607
0.173828	1.640710
0.173926	1.640730
0.174023	1.640692
0.174121	1.640630
0.174219	1.640749
0.174316	1.640650
0.174414	1.640694
0.174512	1.640623
0.174609	1.640777
0.174707	1.640701
0.174805	1.640743
0.174902	1.640737
0.175000	1.640747
0.175098	1.640760
0.175195	1.640754
0.175293	1.640744
0.175391	1.640733
0.175488	1.640767
0.175586	1.640666
0.175684	1.640750
0.175781	1.640774
0.175879	1.640755
0.175977	1.640742
0.176074	1.640743
0.176172	1.640719
0.176270	1.640686
0.176367	1.640696
0.176465	1.640721
0.176562	1.640762
0.176660	1.640733
0.176758	1.640704
0.176855	1.640721
0.176953	1.640767
0.177051	1.640757
0.177148	1.640703
0.177246	1.640713
0.177344	1.640748
0.177441	1.640771
0.177539	1.640705
0.177637	1.640754
0.177734	1.640780
0.177832	1.640685
0.177930	1.640826
0.178027	1.640838
0.178125	1.640857
0.178223	1.640785
0.178320	1.640826
0.178418	1.640828
0.178516	1.640807
0.178613	1.640860
0.178711	1.640825
0.178809	1.640766
0.178906	1.640793
0.179004	1.640736
0.179102	1.640696
0.179199	1.640748
0.179297	1.640760
0.179395	1.640736
0.179492	1.640812
0.179590	1.640856
0.179687	1.640726
0.179785	1.640769
0.179883	1.640747
0.179980	1.640791
0.180078	1.640730
0.180176	1.640774
0.180273	1.640738
0.180371	1.640713
0.180469	1.640733
0.180566	1.640776
0.180664	1.640749
0.180762	1.640804
0.180859	1.640811
0.180957	1.640851
0.181055	1.640744
0.181152	1.640780
0.181250	1.640805
0.181348	1.640759
0.181445	1.640780
0.181543	1.640756
0.181641	1.640709
0.181738	1.640677
0.181836	1.640835
0.181934	1.640799
0.182031	1.640821
0.182129	1.640921
0.182227	1.640833
0.182324	1.640875
0.182422	1.640987
0.182520	1.640899
0.182617	1.640849
0.182715	1.640907
0.182812	1.640983
0.182910	1.640881
0.183008	1.640938
0.183105	1.640952
0.183203	1.640972
0.183301	1.641006
0.183398	1.640948
0.183496	1.640946
0.183594	1.640992
0.183691	1.641014
0.183789	1.640920
0.183887	1.641040
0.183984	1.641075
0.184082	1.640961
0.184180	1.641032
0.184277	1.641043
0.184375	1.641062
0.184473	1.640987
0.184570	1.641083
0.184668	1.641070
0.184766	1.641080
0.184863	1.641120
0.184961	1.641092
0.185059	1.641076
0.185156	1.641067
0.185254	1.641101
0.185352	1.641101
0.185449	1.641103
0.185547	1.641140
0.185645	1.641158
0.185742	1.641132
0.185840	1.641177
0.185937	1.641234
0.186035	1.641184
0.186133	1.641184
0.186230	1.641225
0.186328	1.641214
0.186426	1.641154
0.186523	1.641207
0.186621	1.641241
0.186719	1.641214
0.186816	1.641185
0.186914	1.641190
0.187012	1.641225
0.187109	1.641256
0.187207	1.641240
0.187305	1.641278
0.187402	1.641288
0.187500	1.641237
0.187598	1.641275
0.187695	1.641295
0.187793	1.641308
0.187891	1.641238
0.187988	1.641358
0.188086	1.641342
0.188184	1.641394
0.188281	1.641400
0.188379	1.641392
0.188477	1.641406
0.188574	1.641407
0.188672	1.641392
0.188770	1.641367
0.188867	1.641291
0.188965	1.641327
0.189062	1.641245
0.189160	1.641311
0.189258	1.641352
0.189355	1.641306
0.189453	1.641287
0.189551	1.641410
0.189648	1.641291
0.189746	1.641317
0.189844	1.641338
0.189941	1.641329
0.190039	1.641284
0.190137	1.641352
0.190234	1.641327
0.190332	1.641399
0.190430	1.641332
0.190527	1.641388
0.190625	1.641347
0.190723	1.641381
0.190820	1.641323
0.190918	1.641286
0.191016	1.641329
0.191113	1.641330
0.191211	1.641241
0.191309	1.641355
0.191406	1.641283
0.191504	1.641287
0.191602	1.641229
0.191699	1.641222
0.191797	1.641223
0.191895	1.641287
0.191992	1.641306
0.192090	1.641296
0.192187	1.641305
0.192285	1.641303
0.192383	1.641354
0.192480	1.641304
0.192578	1.641352
0.192676	1.641304
0.192773	1.641336
0.192871	1.641403
0.192969	1.641384
0.193066	1.641395
0.193164	1.641381
0.193262	1.641364
0.193359	1.641333
0.193457	1.641377
0.193555	1.641317
0.193652	1.641282
0.193750	1.641299
0.193848	1.641303
0.193945	1.641389
0.194043	1.641342
0.194141	1.641314
0.194238	1.641368
0.194336	1.641441
0.194434	1.641295
0.194531	1.641342
0.194629	1.641422
0.194727	1.641369
0.194824	1.641367
0.194922	1.641374
0.195020	1.641388
0.195117	1.641366
0.195215	1.641345
0.195312	1.641364
0.195410	1.641402
0.195508	1.641421
0.195605	1.641442
0.195703	1.641424
0.195801	1.641448
0.195898	1.641411
0.195996	1.641418
0.196094	1.641424
0.196191	1.641438
0.196289	1.641469
0.196387	1.641441
0.196484	1.641607
0.196582	1.641482
0.196680	1.641519
0.196777	1.641497
0.196875	1.641519
0.196973	1.641537
0.197070	1.641485
0.197168	1.641547
0.197266	1.641563
0.197363	1.641568
0.197461	1.641521
0.197559	1.641591
0.197656	1.641493
0.197754	1.641640
0.197852	1.641652
0.197949	1.641549
0.198047	1.641665
0.198145	1.641606
0.198242	1.641677
0.198340	1.641698
0.198437	1.641663
0.198535	1.641662
0.198633	1.641718
0.198730	1.641697
0.198828	1.641711
0.198926	1.641619
0.199023	1.641625
0.199121	1.641616
0.199219	1.641685
0.199316	1.641698
0.199414	1.641667
0.199512	1.641705
0.199609	1.641696
0.199707	1.641699
0.199805	1.641738
0.199902	1.641737
0.200000	1.641718
0.200098	1.641752
0.200195	1.641726
0.200293	1.641818
0.200391	1.641730
0.200488	1.641806
0.200586	1.641738
0.200684	1.641768
0.200781	1.641777
0.200879	1.641759
0.200977	1.641796
0.201074	1.641746
0.201172	1.641808
0.201270	1.641738
0.201367	1.641787
0.201465	1.641758
0.201562	1.641717
0.201660	1.641794
0.201758	1.641594
0.201855	1.641779
0.201953	1.641748
0.202051	1.641767
0.202148	1.641792
0.202246	1.641757
0.202344	1.641793
0.202441	1.641826
0.202539	1.641848
0.202637	1.641791
0.202734	1.641837
0.202832	1.641762
0.202930	1.641801
0.203027	1.641779
0.203125	1.641762
0.203223	1.641776
0.203320	1.641774
0.203418	1.641779
0.203516	1.641733
0.203613	1.641747
0.203711	1.641724
0.203809	1.641749
0.203906	1.641707
0.204004	1.641743
0.204102	1.641793
0.204199	1.641740
0.204297	1.641748
0.204395	1.641698
0.204492	1.641805
0.204590	1.641732
0.204687	1.641724
0.204785	1.641685
0.204883	1.641754
0.204980	1.641640
0.205078	1.641776
0.205176	1.641721
0.205273	1.641773
0.205371	1.641790
0.205469	1.641693
0.205566	1.641684
0.205664	1.641788
0.205762	1.641718
0.205859	1.641787
0.205957	1.641773
0.206055	1.641733
0.206152	1.641726
0.206250	1.641716
0.206348	1.641823
0.206445	1.641777
0.206543	1.641770
0.206641	1.641793
0.206738	1.641787
0.206836	1.641736
0.206934	1.641671
0.207031	1.641769
0.207129	1.641677
0.207227	1.641706
0.207324	1.641701
0.207422	1.641680
0.207520	1.641696
0.207617	1.641767
0.207715	1.641728
0.207812	1.641749
0.207910	1.641807
0.208008	1.641781
0.208105	1.641801
0.208203	1.641790
0.208301	1.641771
0.208398	1.641798
0.208496	1.641762
0.208594	1.641737
0.208691	1.641862
0.208789	1.641771
0.208887	1.641707
0.208984	1.641721
0.209082	1.641680
0.209180	1.641739
0.209277	1.641698
0.209375	1.641758
0.209473	1.641763
0.209570	1.641796
0.209668	1.641774
0.209766	1.641723
0.209863	1.641713
0.209961	1.641809
0.210059	1.641662
0.210156	1.641737
0.210254	1.641724
0.210352	1.641779
0.210449	1.641720
0.210547	1.641732
0.210645	1.641732
0.210742	1.641748
0.210840	1.641712
0.210937	1.641732
0.211035	1.641746
0.211133	1.641734
0.211230	1.641696
0.211328	1.641797
0.211426	1.641671
0.211523	1.641701
0.211621	1.641644
0.211719	1.641604
0.211816	1.641602
0.211914	1.641746
0.212012	1.641759
0.212109	1.641730
0.212207	1.641721
0.212305	1.641768
0.212402	1.641693
0.212500	1.641701
0.212598	1.641702
0.212695	1.641745
0.212793	1.641713
0.212891	1.641684
0.212988	1.641766
0.213086	1.641688
0.213184	1.641760
0.213281	1.641766
0.213379	1.641750
0.213477	1.641762
0.213574	1.641806
0.213672	1.641838
0.213770	1.641769
0.213867	1.641817
0.213965	1.641807
0.214062	1.641829
0.214160	1.641830
0.214258	1.641857
0.214355	1.641790
0.214453	1.641791
0.214551	1.641850
0.214648	1.641799
0.214746	1.641881
0.214844	1.641881
0.214941	1.641850
0.215039	1.641844
0.215137	1.641862
0.215234	1.641854
0.215332	1.641817
0.215430	1.641857
0.215527	1.641832
0.215625	1.641869
0.215723	1.641961
0.215820	1.641881
0.215918	1.641812
0.216016	1.641928
0.216113	1.641878
0.216211	1.641951
0.216309	1.641874
0.216406	1.641944
0.216504	1.641911
0.216602	1.641891
0.216699	1.641944
0.216797	1.641921
0.216895	1.641892
0.216992	1.641848
0.217090	1.641892
0.217187	1.641935
0.217285	1.641906
0.217383	1.641836
0.217480	1.641884
0.217578	1.641889
0.217676	1.641899
0.217773	1.641907
0.217871	1.641906
0.217969	1.641881
0.218066	1.641921
0.218164	1.641890
0.218262	1.642026
0.218359	1.641945
0.218457	1.641947
0.218555	1.641975
0.218652	1.641942
0.218750	1.641978
0.218848	1.641926
0.218945	1.641906
0.219043	1.641887
0.219141	1.641843
0.219238	1.641826
0.219336	1.641932
0.219434	1.641925
0.219531	1.641886
0.219629	1.641882
0.219727	1.641866
0.219824	1.641924
0.219922	1.641895
0.220020	1.641856
0.220117	1.641939
0.220215	1.641932
0.220312	1.641878
0.220410	1.641855
0.220508	1.641951
0.220605	1.641954
0.220703	1.641893
0.220801	1.641940
0.220898	1.641773
0.220996	1.641821
0.221094	1.641824
0.221191	1.641920
0.221289	1.641894
0.221387	1.641854
0.221484	1.641849
0.221582	1.641807
0.221680	1.641735
0.221777	1.641714
0.221875	1.641798
0.221973	1.641745
0.222070	1.641789
0.222168	1.641761
0.222266	1.641775
0.222363	1.641829
0.222461	1.641828
0.222559	1.641858
0.222656	1.641888
0.222754	1.641839
0.222852	1.641798
0.222949	1.641857
0.223047	1.641874
0.223145	1.641852
0.223242	1.641845
0.223340	1.641787
0.223437	1.641836
0.223535	1.641823
0.223633	1.641886
0.223730	1.641810
0.223828	1.641748
0.223926	1.641820
0.224023	1.641775
0.224121	1.641785
0.224219	1.641744
0.224316	1.641807
0.224414	1.641754
0.224512	1.641870
0.224609	1.641772
0.224707	1.641792
0.224805	1.641677
0.224902	1.641756
0.225000	1.641789
0.225098	1.641785
0.225195	1.641762
0.225293	1.641823
0.225391	1.641792
0.225488	1.641789
0.225586	1.641791
0.225684	1.641772
0.225781	1.641796
0.225879	1.641790
0.225977	1.641761
0.226074	1.641743
0.226172	1.641769
0.226270	1.641764
0.226367	1.641793
0.226465	1.641751
0.226562	1.641727
0.226660	1.641694
0.226758	1.641808
0.226855	1.641775
0.226953	1.641790
0.227051	1.641728
0.227148	1.641756
0.227246	1.641748
0.227344	1.641763
0.227441	1.641746
0.227539	1.641742
0.227637	1.641767
0.227734	1.641735
0.227832	1.641771
0.227930	1.641762
0.228027	1.641749
0.228125	1.641755
0.228223	1.641809
0.228320	1.641785
0.228418	1.641849
0.228516	1.641717
0.228613	1.641875
0.228711	1.641785
0.228809	1.641857
0.228906	1.641681
0.229004	1.641713
0.229102	1.641735
0.229199	1.641693
0.229297	1.641771
0.229395	1.641788
0.229492	1.641773
0.229590	1.641790
0.229687	1.641777
0.229785	1.641716
0.229883	1.641676
0.229980	1.641663
0.230078	1.641662
0.230176	1.641635
0.230273	1.641746
0.230371	1.641727
0.230469	1.641701
0.230566	1.641621
0.230664	1.641660
0.230762	1.641658
0.230859	1.641679
0.230957	1.641691
0.231055	1.641662
0.231152	1.641716
0.231250	1.641557
0.231348	1.641677
0.231445	1.641605
0.231543	1.641579
0.231641	1.641590
0.231738	1.641352
0.231836	1.641502
0.231934	1.641516
0.232031	1.641558
0.232129	1.641540
0.232227	1.641533
0.232324	1.641474
0.232422	1.641571
0.232520	1.641500
0.232617	1.641529
0.232715	1.641471
0.232812	1.641487
0.232910	1.641488
0.233008	1.641507
0.233105	1.641507
0.233203	1.641467
0.233301	1.641464
0.233398	1.641458
0.233496	1.641497
0.233594	1.641453
0.233691	1.641465
0.233789	1.641479
0.233887	1.641424
0.233984	1.641484
0.234082	1.641388
0.234180	1.641435
0.234277	1.641389
0.234375	1.641418
0.234473	1.641367
0.234570	1.641350
0.234668	1.641373
0.234766	1.641354
0.234863	1.641361
0.234961	1.641395
0.235059	1.641408
0.235156	1.641381
0.235254	1.641336
0.235352	1.641410
0.235449	1.641313
0.235547	1.641303
0.235645	1.641273
0.235742	1.641293
0.235840	1.641305
0.235937	1.641302
0.236035	1.641305
0.236133	1.641341
0.236230	1.641280
0.236328	1.641322
0.236426	1.641280
0.236523	1.641267
0.236621	1.641305
0.236719	1.641264
0.236816	1.641226
0.236914	1.641325
0.237012	1.641260
0.237109	1.641242
0.237207	1.641299
0.237305	1.641136
0.237402	1.641261
0.237500	1.641286
0.237598	1.641296
0.237695	1.641261
0.237793	1.641202
0.237891	1.641277
0.237988	1.641211
0.238086	1.641242
0.238184	1.641262
0.238281	1.641235
0.238379	1.641309
0.238477	1.641291
0.238574	1.641303
0.238672	1.641249
0.238770	1.641311
0.238867	1.641278
0.238965	1.641195
0.239062	1.641212
0.239160	1.641207
0.239258	1.641289
0.239355	1.641197
0.239453	1.641291
0.239551	1.641268
0.239648	1.641280
0.239746	1.641250
0.239844	1.641257
0.239941	1.641186
0.240039	1.641351
0.240137	1.641223
0.240234	1.641306
0.240332	1.641228
0.240430	1.641261
0.240527	1.641298
0.240625	1.641285
0.240723	1.641231
0.240820	1.641284
0.240918	1.641261
0.241016	1.641161
0.241113	1.641229
0.241211	1.641218
0.241309	1.641293
0.241406	1.641272
0.241504	1.641251
0.241602	1.641232
0.241699	1.641140
0.241797	1.641165
0.241895	1.641260
0.241992	1.641261
0.242090	1.641267
0.242187	1.641226
0.242285	1.641322
0.242383	1.641298
0.242480	1.641277
0.242578	1.641251
0.242676	1.641253
0.242773	1.641251
0.242871	1.641238
0.242969	1.641240
0.243066	1.641215
0.243164	1.641220
0.243262	1.641195
0.243359	1.641235
0.243457	1.641169
0.243555	1.641273
0.243652	1.641181
0.243750	1.641132
0.243848	1.641189
0.243945	1.641209
0.244043	1.641173
0.244141	1.641154
0.244238	1.641208
0.244336	1.641190
0.244434	1.641244
0.244531	1.641154
0.244629	1.641179
0.244727	1.641162
0.244824	1.641175
0.244922	1.641092
0.245020	1.641162
0.245117	1.641141
0.245215	1.641095
0.245312	1.641114
0.245410	1.641105
0.245508	1.641109
0.245605	1.641143
0.245703	1.641073
0.245801	1.641048
0.245898	1.641117
0.245996	1.641079
0.246094	1.641062
0.246191	1.641032
0.246289	1.641055
0.246387	1.641051
0.246484	1.640998
0.246582	1.641056
0.246680	1.641014
0.246777	1.641027
0.246875	1.641021
0.246973	1.641070
0.247070	1.640967
0.247168	1.640995
0.247266	1.640950
0.247363	1.640958
0.247461	1.640943
0.247559	1.640951
0.247656	1.640940
0.247754	1.640981
0.247852	1.640907
0.247949	1.641003
0.248047	1.640985
0.248145	1.641009
0.248242	1.640970
0.248340	1.640969
0.248437	1.640981
0.248535	1.640961
0.248633	1.641062
0.248730	1.641039
0.248828	1.640970
0.248926	1.640889
0.249023	1.640896
0.249121	1.640851
0.249219	1.640956
0.249316	1.640938
0.249414	1.641008
0.249512	1.640973
0.249609	1.640954
0.249707	1.640943
0.249805	1.640920
0.249902	1.640941
0.250000	1.640895
0.250098	1.640964
0.250195	1.640937
0.250293	1.640959
0.250391	1.640941
0.250488	1.640934
0.250586	1.640914
0.250684	1.640956
0.250781	1.641000
0.250879	1.641029
0.250977	1.640929
0.251074	1.640910
0.251172	1.640976
0.251270	1.640950
0.251367	1.640966
0.251465	1.640962
0.251562	1.640936
0.251660	1.640910
0.251758	1.640746
0.251855	1.640913
0.251953	1.640975
0.252051	1.640971
0.252148	1.640991
0.252246	1.640914
0.252344	1.640976
0.252441	1.640981
0.252539	1.640882
0.252637	1.640984
0.252734	1.640936
0.252832	1.641009
0.252930	1.641029
0.253027	1.640939
0.253125	1.640954
0.253223	1.640984
0.253320	1.640929
0.253418	1.640974
0.253516	1.640967
0.253613	1.641053
0.253711	1.641085
0.253809	1.641106
0.253906	1.641012
0.254004	1.641001
0.254102	1.641050
0.254199	1.641032
0.254297	1.641071
0.254395	1.641021
0.254492	1.640916
0.254590	1.641067
0.254687	1.640994
0.254785	1.641047
0.254883	1.641056
0.254980	1.641073
0.255078	1.641066
0.255176	1.641029
0.255273	1.641089
0.255371	1.640982
0.255469	1.641010
0.255566	1.641086
0.255664	1.641037
0.255762	1.641066
0.255859	1.641012
0.255957	1.641101
0.256055	1.641067
0.256152	1.641146
0.256250	1.641083
0.256348	1.641098
0.256445	1.641119
0.256543	1.641170
0.256641	1.641132
0.256738	1.641105
0.256836	1.641177
0.256934	1.641086
0.257031	1.641072
0.257129	1.641045
0.257227	1.641085
0.257324	1.641027
0.257422	1.641146
0.257520	1.641120
0.257617	1.641152
0.257715	1.641199
0.257812	1.641126
0.257910	1.641200
0.258008	1.641194
0.258105	1.641202
0.258203	1.641195
0.258301	1.641134
0.258398	1.641185
0.258496	1.641206
0.258594	1.641228
0.258691	1.641249
0.258789	1.641183
0.258887	1.641198
0.258984	1.641152
0.259082	1.641119
0.259180	1.641117
0.259277	1.641179
0.259375	1.641112
0.259473	1.641174
0.259570	1.641185
0.259668	1.641101
0.259766	1.641182
0.259863	1.641078
0.259961	1.641160
0.260059	1.641144
0.260156	1.641054
0.260254	1.641115
0.260352	1.641125
0.260449	1.641145
0.260547	1.641141
0.260645	1.641059
0.260742	1.641110
0.260840	1.641088
0.260937	1.641074
0.261035	1.641017
0.261133	1.641007
0.261230	1.641079
0.261328	1.641057
0.261426	1.640967
0.261523	1.641070
0.261621	1.641009
0.261719	1.640951
0.261816	1.640881
0.261914	1.641102
0.262012	1.640952
0.262109	1.640990
0.262207	1.640971
0.262305	1.640979
0.262402	1.640977
0.262500	1.641007
0.262598	1.640905
0.262695	1.640976
0.262793	1.641037
0.262891	1.641056
0.262988	1.641028
0.263086	1.640977
0.263184	1.641013
0.263281	1.640960
0.263379	1.641001
0.263477	1.640906
0.263574	1.641012
0.263672	1.640916
0.263770	1.641022
0.263867	1.640995
0.263965	1.640999
0.264062	1.640954
0.264160	1.640985
0.264258	1.641019
0.264355	1.641009
0.264453	1.641004
0.264551	1.641059
0.264648	1.640999
0.264746	1.640998
0.264844	1.640997
0.264941	1.640968
0.265039	1.641086
0.265137	1.641044
0.265234	1.640956
0.265332	1.641059
0.265430	1.641068
0.265527	1.641106
0.265625	1.641049
0.265723	1.641028
0.265820	1.641164
0.265918	1.641081
0.266016	1.641083
0.266113	1.641042
0.266211	1.641060
0.266309	1.641120
0.266406	1.641007
0.266504	1.641069
0.266602	1.641031
0.266699	1.641099
0.266797	1.641029
0.266895	1.641122
0.266992	1.641065
0.267090	1.641115
0.267187	1.641162
0.267285	1.641114
0.267383	1.641093
0.267480	1.641057
0.267578	1.641106
0.267676	1.641206
0.267773	1.641126
0.267871	1.641184
0.267969	1.641248
0.268066	1.641201
0.268164	1.641236
0.268262	1.641223
0.268359	1.641215
0.268457	1.641255
0.268555	1.641264
0.268652	1.641250
0.268750	1.641320
0.268848	1.641247
0.268945	1.641085
0.269043	1.641165
0.269141	1.641152
0.269238	1.641179
0.269336	1.641221
0.269434	1.641195
0.269531	1.641234
0.269629	1.641231
0.269727	1.641199
0.269824	1.641167
0.269922	1.641183
0.270020	1.641231
0.270117	1.641156
0.270215	1.641208
0.270312	1.641300
0.270410	1.641120
0.270508	1.641245
0.270605	1.641232
0.270703	1.641211
0.270801	1.641209
0.270898	1.641158
0.270996	1.641176
0.271094	1.641156
0.271191	1.641154
0.271289	1.641204
0.271387	1.641212
0.271484	1.641215
0.271582	1.641156
0.271680	1.641099
0.271777	1.641048
0.271875	1.641164
0.271973	1.641146
0.272070	1.641136
0.272168	1.641139
0.272266	1.641126
0.272363	1.641151
0.272461	1.641110
0.272559	1.641230
0.272656	1.641172
0.272754	1.641087
0.272852	1.641195
0.272949	1.641198
0.273047	1.641228
0.273145	1.641189
0.273242	1.641179
0.273340	1.641204
0.273437	1.641163
0.273535	1.641204
0.273633	1.641248
0.273730	1.641182
0.273828	1.641181
0.273926	1.641222
0.274023	1.641162
0.274121	1.641207
0.274219	1.641247
0.274316	1.641228
0.274414	1.641165
0.274512	1.641217
0.274609	1.641173
0.274707	1.641190
0.274805	1.641176
0.274902	1.641217
0.275000	1.641233
0.275098	1.641192
0.275195	1.641262
0.275293	1.641247
0.275391	1.641252
0.275488	1.641186
0.275586	1.641230
0.275684	1.641269
0.275781	1.641241
0.275879	1.641208
0.275977	1.641263
0.276074	1.641258
0.276172	1.641308
0.276270	1.641253
0.276367	1.641283
0.276465	1.641235
0.276562	1.641306
0.276660	1.641279
0.276758	1.641314
0.276855	1.641263
0.276953	1.641327
0.277051	1.641360
0.277148	1.641334
0.277246	1.641306
0.277344	1.641357
0.277441	1.641372
0.277539	1.641334
0.277637	1.641349
0.277734	1.641361
0.277832	1.641430
0.277930	1.641458
0.278027	1.641452
0.278125	1.641405
0.278223	1.641450
0.278320	1.641513
0.278418	1.641506
0.278516	1.641507
0.278613	1.641556
0.278711	1.641531
0.278809	1.641460
0.278906	1.641464
0.279004	1.641457
0.279102	1.641439
0.279199	1.641325
0.279297	1.641446
0.279395	1.641467
0.279492	1.641472
0.279590	1.641519
0.279687	1.641483
0.279785	1.641512
0.279883	1.641476
0.279980	1.641511
0.280078	1.641568
0.280176	1.641480
0.280273	1.641511
0.280371	1.641510
0.280469	1.641544
0.280566	1.641529
0.280664	1.641505
0.280762	1.641529
0.280859	1.641533
0.280957	1.641441
0.281055	1.641522
0.281152	1.641485
0.281250	1.641528
0.281348	1.641482
0.281445	1.641516
0.281543	1.641503
0.281641	1.641405
0.281738	1.641385
0.281836	1.641430
0.281934	1.641519
0.282031	1.641448
0.282129	1.641503
0.282227	1.641436
0.282324	1.641465
0.282422	1.641395
0.282520	1.641518
0.282617	1.641475
0.282715	1.641523
0.282812	1.641507
0.282910	1.641474
0.283008	1.641437
0.283105	1.641463
0.283203	1.641493
0.283301	1.641538
0.283398	1.641403
0.283496	1.641493
0.283594	1.641403
0.283691	1.641399
0.283789	1.641431
0.283887	1.641414
0.283984	1.641421
0.284082	1.641354
0.284180	1.641438
0.284277	1.641433
0.284375	1.641297
0.284473	1.641425
0.284570	1.641446
0.284668	1.641412
0.284766	1.641450
0.284863	1.641412
0.284961	1.641397
0.285059	1.641455
0.285156	1.641433
0.285254	1.641455
0.285352	1.641472
0.285449	1.641543
0.285547	1.641516
0.285645	1.641436
0.285742	1.641427
0.285840	1.641347
0.285937	1.641457
0.286035	1.641404
0.286133	1.641431
0.286230	1.641400
0.286328	1.641430
0.286426	1.641455
0.286523	1.641493
0.286621	1.641457
0.286719	1.641426
0.286816	1.641386
0.286914	1.641432
0.287012	1.641485
0.287109	1.641417
0.287207	1.641510
0.287305	1.641486
0.287402	1.641494
0.287500	1.641467
0.287598	1.641539
0.287695	1.641485
0.287793	1.641466
0.287891	1.641514
0.287988	1.641585
0.288086	1.641514
0.288184	1.641510
0.288281	1.641441
0.288379	1.641586
0.288477	1.641471
0.288574	1.641535
0.288672	1.641503
0.288770	1.641545
0.288867	1.641482
0.288965	1.641516
0.289062	1.641428
0.289160	1.641430
0.289258	1.641493
0.289355	1.641492
0.289453	1.641513
0.289551	1.641499
0.289648	1.641488
0.289746	1.641557
0.289844	1.641544
0.289941	1.641545
0.290039	1.641538
0.290137	1.641577
0.290234	1.641565
0.290332	1.641524
0.290430	1.641503
0.290527	1.641503
0.290625	1.641568
0.290723	1.641467
0.290820	1.641546
0.290918	1.641576
0.291016	1.641503
0.291113	1.641506
0.291211	1.641494
0.291309	1.641431
0.291406	1.641569
0.291504	1.641488
0.291602	1.641547
0.291699	1.641411
0.291797	1.641416
0.291895	1.641408
0.291992	1.641521
0.292090	1.641443
0.292187	1.641560
0.292285	1.641546
0.292383	1.641490
0.292480	1.641519
0.292578	1.641472
0.292676	1.641461
0.292773	1.641467
0.292871	1.641469
0.292969	1.641498
0.293066	1.641522
0.293164	1.641447
0.293262	1.641559
0.293359	1.641417
0.293457	1.641471
0.293555	1.641491
0.293652	1.641494
0.293750	1.641471
0.293848	1.641488
0.293945	1.641496
0.294043	1.641474
0.294141	1.641554
0.294238	1.641483
0.294336	1.641574
0.294434	1.641543
0.294531	1.641553
0.294629	1.641514
0.294727	1.641538
0.294824	1.641502
0.294922	1.641529
0.295020	1.641500
0.295117	1.641492
0.295215	1.641533
0.295312	1.641408
0.295410	1.641509
0.295508	1.641533
0.295605	1.641521
0.295703	1.641560
0.295801	1.641530
0.295898	1.641645
0.295996	1.641482
0.296094	1.641530
0.296191	1.641444
0.296289	1.641469
0.296387	1.641549
0.296484	1.641499
0.296582	1.641519
0.296680	1.641494
0.296777	1.641536
0.296875	1.641518
0.296973	1.641511
0.297070	1.641458
0.297168	1.641554
0.297266	1.641478
0.297363	1.641511
0.297461	1.641525
0.297559	1.641494
0.297656	1.641451
0.297754	1.641527
0.297852	1.641485
0.297949	1.641487
0.298047	1.641524
0.298145	1.641565
0.298242	1.641572
0.298340	1.641524
0.298437	1.641584
0.298535	1.641536
0.298633	1.641644
0.298730	1.641608
0.298828	1.641480
0.298926	1.641549
0.299023	1.641464
0.299121	1.641468
0.299219	1.641493
0.299316	1.641496
0.299414	1.641560
0.299512	1.641493
0.299609	1.641571
0.299707	1.641561
0.299805	1.641546
0.299902	1.641461
0.300000	1.641496
0.300098	1.641488
0.300195	1.641463
0.300293	1.641526
0.300391	1.641508
0.300488	1.641484
0.300586	1.641498
0.300684	1.641525
0.300781	1.641427
0.300879	1.641493
0.300977	1.641511
0.301074	1.641458
0.301172	1.641449
0.301270	1.641430
0.301367	1.641427
0.301465	1.641347
0.301562	1.641392
0.301660	1.641354
0.301758	1.641255
0.301855	1.641361
0.301953	1.641352
0.302051	1.641397
0.302148	1.641427
0.302246	1.641393
0.302344	1.641436
0.302441	1.641374
0.302539	1.641386
0.302637	1.641344
0.302734	1.641364
0.302832	1.641325
0.302930	1.641414
0.303027	1.641311
0.303125	1.641384
0.303223	1.641392
0.303320	1.641315
0.303418	1.641346
0.303516	1.641360
0.303613	1.641331
0.303711	1.641297
0.303809	1.641369
0.303906	1.641313
0.304004	1.641333
0.304102	1.641347
0.304199	1.641398
0.304297	1.641374
0.304395	1.641358
0.304492	1.641339
0.304590	1.641373
0.304687	1.641354
0.304785	1.641276
0.304883	1.641422
0.304980	1.641338
0.305078	1.641307
0.305176	1.641362
0.305273	1.641374
0.305371	1.641355
0.305469	1.641339
0.305566	1.641367
0.305664	1.641309
0.305762	1.641344
0.305859	1.641287
0.305957	1.641378
0.306055	1.641316
0.306152	1.641358
0.306250	1.641438
0.306348	1.641404
0.306445	1.641353
0.306543	1.641352
0.306641	1.641392
0.306738	1.641457
0.306836	1.641377
0.306934	1.641425
0.307031	1.641405
0.307129	1.641375
0.307227	1.641423
0.307324	1.641453
0.307422	1.641487
0.307520	1.641359
0.307617	1.641507
0.307715	1.641461
0.307812	1.641475
0.307910	1.641512
0.308008	1.641558
0.308105	1.641568
0.308203	1.641510
0.308301	1.641568
0.308398	1.641541
0.308496	1.641574
0.308594	1.641581
0.308691	1.641543
0.308789	1.641576
0.308887	1.641634
0.308984	1.641556
0.309082	1.641495
0.309180	1.641535
0.309277	1.641514
0.309375	1.641580
0.309473	1.641544
0.309570	1.641667
0.309668	1.641563
0.309766	1.641578
0.309863	1.641547
0.309961	1.641517
0.310059	1.641622
0.310156	1.641582
0.310254	1.641576
0.310352	1.641593
0.310449	1.641536
0.310547	1.641613
0.310645	1.641577
0.310742	1.641541
0.310840	1.641594
0.310937	1.641535
0.311035	1.641506
0.311133	1.641513
0.311230	1.641454
0.311328	1.641507
0.311426	1.641450
0.311523	1.641576
0.311621	1.641511
0.311719	1.641392
0.311816	1.641372
0.311914	1.641480
0.312012	1.641590
0.312109	1.641471
0.312207	1.641521
0.312305	1.641460
0.312402	1.641508
0.312500	1.641469
0.312598	1.641471
0.312695	1.641484
0.312793	1.641436
0.312891	1.641552
0.312988	1.641429
0.313086	1.641536
0.313184	1.641471
0.313281	1.641421
0.313379	1.641476
0.313477	1.641439
0.313574	1.641508
0.313672	1.641455
0.313770	1.641459
0.313867	1.641457
0.313965	1.641374
0.314062	1.641472
0.314160	1.641408
0.314258	1.641393
0.314355	1.641412
0.314453	1.641362
0.314551	1.641422
0.314648	1.641325
0.314746	1.641375
0.314844	1.641332
0.314941	1.641422
0.315039	1.641326
0.315137	1.641356
0.315234	1.641313
0.315332	1.641300
0.315430	1.641300
0.315527	1.641295
0.315625	1.641364
0.315723	1.641298
0.315820	1.641334
0.315918	1.641273
0.316016	1.641355
0.316113	1.641306
0.316211	1.641234
0.316309	1.641316
0.316406	1.641293
0.316504	1.641231
0.316602	1.641344
0.316699	1.641233
0.316797	1.641266
0.316895	1.641261
0.316992	1.641230
0.317090	1.641226
0.317187	1.641226
0.317285	1.641275
0.317383	1.641286
0.317480	1.641209
0.317578	1.641254
0.317676	1.641235
0.317773	1.641289
0.317871	1.641305
0.317969	1.641307
0.318066	1.641323
0.318164	1.641256
0.318262	1.641325
0.318359	1.641323
0.318457	1.641364
0.318555	1.641286
0.318652	1.641338
0.318750	1.641278
0.318848	1.641247
0.318945	1.641289
0.319043	1.641218
0.319141	1.641217
0.319238	1.641182
0.319336	1.641272
0.319434	1.641299
0.319531	1.641317
0.319629	1.641329
0.319727	1.641275
0.319824	1.641270
0.319922	1.641247
0.320020	1.641270
0.320117	1.641341
0.320215	1.641334
0.320312	1.641346
0.320410	1.641267
0.320508	1.641323
0.320605	1.641274
0.320703	1.641307
0.320801	1.641303
0.320898	1.641313
0.320996	1.641313
0.321094	1.641350
0.321191	1.641284
0.321289	1.641275
0.321387	1.641320
0.321484	1.641313
0.321582	1.641306
0.321680	1.641308
0.321777	1.641162
0.321875	1.641318
0.321973	1.641327
0.322070	1.641378
0.322168	1.641273
0.322266	1.641344
0.322363	1.641363
0.322461	1.641320
0.322559	1.641336
0.322656	1.641389
0.322754	1.641334
0.322852	1.641352
0.322949	1.641410
0.323047	1.641333
0.323145	1.641409
0.323242	1.641358
0.323340	1.641417
0.323437	1.641410
0.323535	1.641332
0.323633	1.641328
0.323730	1.641434
0.323828	1.641297
0.323926	1.641374
0.324023	1.641397
0.324121	1.641344
0.324219	1.641373
0.324316	1.641359
0.324414	1.641356
0.324512	1.641392
0.324609	1.641345
0.324707	1.641352
0.324805	1.641313
0.324902	1.641392
0.325000	1.641386
0.325098	1.641361
0.325195	1.641422
0.325293	1.641383
0.325391	1.641454
0.325488	1.641390
0.325586	1.641475
0.325684	1.641384
0.325781	1.641381
0.325879	1.641381
0.325977	1.641334
0.326074	1.641400
0.326172	1.641408
0.326270	1.641306
0.326367	1.641389
0.326465	1.641381
0.326562	1.641475
0.326660	1.641383
0.326758	1.641405
0.326855	1.641373
0.326953	1.641389
0.327051	1.641427
0.327148	1.641419
0.327246	1.641374
0.327344	1.641400
0.327441	1.641397
0.327539	1.641344
0.327637	1.641423
0.327734	1.641366
0.327832	1.641449
0.327930	1.641493
0.328027	1.641412
0.328125	1.641497
0.328223	1.641519
0.328320	1.641509
0.328418	1.641424
0.328516	1.641439
0.328613	1.641465
0.328711	1.641465
0.328809	1.641400
0.328906	1.641399
0.329004	1.641370
0.329102	1.641363
0.329199	1.641283
0.329297	1.641413
0.329395	1.641302
0.329492	1.641450
0.329590	1.641373
0.329687	1.641322
0.329785	1.641326
0.329883	1.641359
0.329980	1.641264
0.330078	1.641385
0.330176	1.641325
0.330273	1.641308
0.330371	1.641324
0.330469	1.641340
0.330566	1.641347
0.330664	1.641342
0.330762	1.641292
0.330859	1.641286
0.330957	1.641318
0.331055	1.641226
0.331152	1.641311
0.331250	1.641279
0.331348	1.641238
0.331445	1.641232
0.331543	1.641187
0.331641	1.641217
0.331738	1.641087
0.331836	1.641129
0.331934	1.641198
0.332031	1.641217
0.332129	1.641219
0.332227	1.641245
0.332324	1.641165
0.332422	1.641171
0.332520	1.641197
0.332617	1.641143
0.332715	1.641178
0.332812	1.641144
0.332910	1.641170
0.333008	1.641209
0.333105	1.641129
0.333203	1.641146
0.333301	1.641134
0.333398	1.641185
0.333496	1.641023
0.333594	1.641192
0.333691	1.641168
0.333789	1.641144
0.333887	1.641114
0.333984	1.641089
0.334082	1.641222
0.334180	1.641177
0.334277	1.641167
0.334375	1.641153
0.334473	1.641143
0.334570	1.641132
0.334668	1.641282
0.334766	1.641187
0.334863	1.641171
0.334961	1.641206
0.335059	1.641162
0.335156	1.641145
0.335254	1.641175
0.335352	1.641148
0.335449	1.641187
0.335547	1.641181
0.335645	1.641205
0.335742	1.641231
0.335840	1.641168
0.335937	1.641187
0.336035	1.641156
0.336133	1.641234
0.336230	1.641158
0.336328	1.641216
0.336426	1.641150
0.336523	1.641248
0.336621	1.641142
0.336719	1.641259
0.336816	1.641259
0.336914	1.641176
0.337012	1.641198
0.337109	1.641209
0.337207	1.641236
0.337305	1.641226
0.337402	1.641184
0.337500	1.641183
0.337598	1.641183
0.337695	1.641175
0.337793	1.641261
0.337891	1.641233
0.337988	1.641220
0.338086	1.641252
0.338184	1.641236
0.338281	1.641227
0.338379	1.641231
0.338477	1.641286
0.338574	1.641231
0.338672	1.641338
0.338770	1.641231
0.338867	1.641220
0.338965	1.641202
0.339062	1.641223
0.339160	1.641128
0.339258	1.641230
0.339355	1.641204
0.339453	1.641181
0.339551	1.641295
0.339648	1.641237
0.339746	1.641198
0.339844	1.641200
0.339941	1.641194
0.340039	1.641216
0.340137	1.641186
0.340234	1.641250
0.340332	1.641205
0.340430	1.641232
0.340527	1.641220
0.340625	1.641186
0.340723	1.641200
0.340820	1.641251
0.340918	1.641207
0.341016	1.641214
0.341113	1.641194
0.341211	1.641293
0.341309	1.641154
0.341406	1.641206
0.341504	1.641215
0.341602	1.641127
0.341699	1.641039
0.341797	1.641054
0.341895	1.641179
0.341992	1.641152
0.342090	1.641183
0.342187	1.641147
0.342285	1.641048
0.342383	1.641148
0.342480	1.641122
0.342578	1.641151
0.342676	1.641227
0.342773	1.641050
0.342871	1.641176
0.342969	1.641123
0.343066	1.641154
0.343164	1.641076
0.343262	1.641129
0.343359	1.641135
0.343457	1.641101
0.343555	1.641103
0.343652	1.641070
0.343750	1.641096
0.343848	1.641086
0.343945	1.641106
0.344043	1.641054
0.344141	1.641028
0.344238	1.641112
0.344336	1.641048
0.344434	1.641115
0.344531	1.641056
0.344629	1.640994
0.344727	1.641070
0.344824	1.641065
0.344922	1.640986
0.345020	1.641103
0.345117	1.641075
0.345215	1.641071
0.345312	1.641083
0.345410	1.641050
0.345508	1.641093
0.345605	1.641059
0.345703	1.640988
0.345801	1.641072
0.345898	1.640963
0.345996	1.641064
0.346094	1.640965
0.346191	1.640961
0.346289	1.641002
0.346387	1.641003
0.346484	1.641057
0.346582	1.641028
0.346680	1.640966
0.346777	1.640988
0.346875	1.640974
0.346973	1.641054
0.347070	1.640906
0.347168	1.641041
0.347266	1.640989
0.347363	1.641070
0.347461	1.640994
0.347559	1.640962
0.347656	1.641001
0.347754	1.641041
0.347852	1.641035
0.347949	1.641084
0.348047	1.641103
0.348145	1.641070
0.348242	1.641077
0.348340	1.641104
0.348437	1.641133
0.348535	1.641065
0.348633	1.641161
0.348730	1.641159
0.348828	1.641111
0.348926	1.641162
0.349023	1.641133
0.349121	1.641042
0.349219	1.641095
0.349316	1.641077
0.349414	1.641142
0.349512	1.641156
0.349609	1.641184
0.349707	1.641140
0.349805	1.641109
0.349902	1.641172
0.350000	1.641136
0.350098	1.641115
0.350195	1.641153
0.350293	1.641153
0.350391	1.641106
0.350488	1.641123
0.350586	1.641189
0.350684	1.641171
0.350781	1.641115
0.350879	1.641172
0.350977	1.641112
0.351074	1.641136
0.351172	1.641144
0.351270	1.641070
0.351367	1.641107
0.351465	1.641131
0.351562	1.641110
0.351660	1.641062
0.351758	1.640927
0.351855	1.641003
0.351953	1.641029
0.352051	1.641124
0.352148	1.641153
0.352246	1.641059
0.352344	1.641155
0.352441	1.641126
0.352539	1.641087
0.352637	1.641066
0.352734	1.641109
0.352832	1.641045
0.352930	1.641122
0.353027	1.641094
0.353125	1.641127
0.353223	1.641129
0.353320	1.641125
0.353418	1.641100
0.353516	1.641155
0.353613	1.641140
0.353711	1.641123
0.353809	1.641183
0.353906	1.641154
0.354004	1.641149
0.354102	1.641217
0.354199	1.641120
0.354297	1.641099
0.354395	1.641184
0.354492	1.641103
0.354590	1.641098
0.354687	1.641115
0.354785	1.641206
0.354883	1.641168
0.354980	1.641207
0.355078	1.641169
0.355176	1.641164
0.355273	1.641185
0.355371	1.641109
0.355469	1.641217
0.355566	1.641177
0.355664	1.641198
0.355762	1.641159
0.355859	1.641144
0.355957	1.641187
0.356055	1.641197
0.356152	1.641232
0.356250	1.641202
0.356348	1.641179
0.356445	1.641198
0.356543	1.641136
0.356641	1.641145
0.356738	1.641172
0.356836	1.641199
0.356934	1.641183
0.357031	1.641212
0.357129	1.641215
0.357227	1.641242
0.357324	1.641173
0.357422	1.641290
0.357520	1.641183
0.357617	1.641222
0.357715	1.641225
0.357812	1.641310
0.357910	1.641244
0.358008	1.641281
0.358105	1.641363
0.358203	1.641333
0.358301	1.641361
0.358398	1.641338
0.358496	1.641353
0.358594	1.641341
0.358691	1.641375
0.358789	1.641405
0.358887	1.641333
0.358984	1.641321
0.359082	1.641297
0.359180	1.641194
0.359277	1.641286
0.359375	1.641386
0.359473	1.641339
0.359570	1.641308
0.359668	1.641340
0.359766	1.641309
0.359863	1.641343
0.359961	1.641364
0.360059	1.641337
0.360156	1.641320
0.360254	1.641382
0.360352	1.641361
0.360449	1.641303
0.360547	1.641356
0.360645	1.641316
0.360742	1.641377
0.360840	1.641345
0.360937	1.641386
0.361035	1.641255
0.361133	1.641366
0.361230	1.641337
0.361328	1.641364
0.361426	1.641381
0.361523	1.641266
0.361621	1.641303
0.361719	1.641259
0.361816	1.641259
0.361914	1.641394
0.362012	1.641331
0.362109	1.641410
0.362207	1.641345
0.362305	1.641410
0.362402	1.641359
0.362500	1.641338
0.362598	1.641353
0.362695	1.641380
0.362793	1.641362
0.362891	1.641453
0.362988	1.641439
0.363086	1.641370
0.363184	1.641375
0.363281	1.641297
0.363379	1.641412
0.363477	1.641317
0.363574	1.641325
0.363672	1.641437
0.363770	1.641410
0.363867	1.641386
0.363965	1.641410
0.364062	1.641349
0.364160	1.641410
0.364258	1.641426
0.364355	1.641349
0.364453	1.641416
0.364551	1.641370
0.364648	1.641375
0.364746	1.641369
0.364844	1.641348
0.364941	1.641374
0.365039	1.641427
0.365137	1.641313
0.365234	1.641317
0.365332	1.641300
0.365430	1.641410
0.365527	1.641288
0.365625	1.641436
0.365723	1.641383
0.365820	1.641412
0.365918	1.641357
0.366016	1.641353
0.366113	1.641352
0.366211	1.641361
0.366309	1.641292
0.366406	1.641323
0.366504	1.641327
0.366602	1.641406
0.366699	1.641317
0.366797	1.641320
0.366895	1.641372
0.366992	1.641305
0.367090	1.641373
0.367187	1.641375
0.367285	1.641308
0.367383	1.641395
0.367480	1.641326
0.367578	1.641400
0.367676	1.641318
0.367773	1.641325
0.367871	1.641375
0.367969	1.641406
0.368066	1.641384
0.368164	1.641377
0.368262	1.641364
0.368359	1.641450
0.368457	1.641456
0.368555	1.641372
0.368652	1.641407
0.368750	1.641397
0.368848	1.641379
0.368945	1.641372
0.369043	1.641265
0.369141	1.641286
0.369238	1.641289
0.369336	1.641253
0.369434	1.641379
0.369531	1.641338
0.369629	1.641381
0.369727	1.641327
0.369824	1.641359
0.369922	1.641195
0.370020	1.641331
0.370117	1.641344
0.370215	1.641257
0.370312	1.641283
0.370410	1.641311
0.370508	1.641339
0.370605	1.641218
0.370703	1.641323
0.370801	1.641234
0.370898	1.641323
0.370996	1.641226
0.371094	1.641341
0.371191	1.641272
0.371289	1.641300
0.371387	1.641327
0.371484	1.641230
0.371582	1.641239
0.371680	1.641187
0.371777	1.641130
0.371875	1.641250
0.371973	1.641280
0.372070	1.641313
0.372168	1.641250
0.372266	1.641254
0.372363	1.641244
0.372461	1.641331
0.372559	1.641255
0.372656	1.641319
0.372754	1.641273
0.372852	1.641261
0.372949	1.641263
0.373047	1.641363
0.373145	1.641310
0.373242	1.641329
0.373340	1.641334
0.373437	1.641327
0.373535	1.641306
0.373633	1.641239
0.373730	1.641267
0.373828	1.641272
0.373926	1.641319
0.374023	1.641344
0.374121	1.641313
0.374219	1.641347
0.374316	1.641312
0.374414	1.641282
0.374512	1.641397
0.374609	1.641351
0.374707	1.641364
0.374805	1.641439
0.374902	1.641397
0.375000	1.641395
0.375098	1.641465
0.375195	1.641400
0.375293	1.641382
0.375391	1.641376
0.375488	1.641419
0.375586	1.641378
0.375684	1.641414
0.375781	1.641435
0.375879	1.641352
0.375977	1.641414
0.376074	1.641439
0.376172	1.641388
0.376270	1.641406
0.376367	1.641472
0.376465	1.641480
0.376562	1.641492
0.376660	1.641423
0.376758	1.641437
0.376855	1.641414
0.376953	1.641499
0.377051	1.641448
0.377148	1.641554
0.377246	1.641491
0.377344	1.641497
0.377441	1.641441
0.377539	1.641519
0.377637	1.641499
0.377734	1.641468
0.377832	1.641512
0.377930	1.641472
0.378027	1.641596
0.378125	1.641491
0.378223	1.641596
0.378320	1.641525
0.378418	1.641582
0.378516	1.641500
0.378613	1.641585
0.378711	1.641485
0.378809	1.641605
0.378906	1.641496
0.379004	1.641545
0.379102	1.641514
0.379199	1.641407
0.379297	1.641594
0.379395	1.641474
0.379492	1.641557
0.379590	1.641585
0.379687	1.641515
0.379785	1.641450
0.379883	1.641514
0.379980	1.641451
0.380078	1.641463
0.380176	1.641381
0.380273	1.641509
0.380371	1.641402
0.380469	1.641463
0.380566	1.641431
0.380664	1.641435
0.380762	1.641464
0.380859	1.641469
0.380957	1.641362
0.381055	1.641393
0.381152	1.641452
0.381250	1.641424
0.381348	1.641393
0.381445	1.641386
0.381543	1.641352
0.381641	1.641400
0.381738	1.641319
0.381836	1.641289
0.381934	1.641392
0.382031	1.641364
0.382129	1.641419
0.382227	1.641373
0.382324	1.641360
0.382422	1.641277
0.382520	1.641358
0.382617	1.641325
0.382715	1.641312
0.382812	1.641312
0.382910	1.641294
0.383008	1.641330
0.383105	1.641355
0.383203	1.641350
0.383301	1.641320
0.383398	1.641361
0.383496	1.641304
0.383594	1.641327
0.383691	1.641341
0.383789	1.641361
0.383887	1.641347
0.383984	1.641313
0.384082	1.641347
0.384180	1.641321
0.384277	1.641280
0.384375	1.641291
0.384473	1.641317
0.384570	1.641301
0.384668	1.641289
0.384766	1.641352
0.384863	1.641254
0.384961	1.641301
0.385059	1.641348
0.385156	1.641236
0.385254	1.641296
0.385352	1.641356
0.385449	1.641442
0.385547	1.641315
0.385645	1.641355
0.385742	1.641366
0.385840	1.641366
0.385937	1.641318
0.386035	1.641344
0.386133	1.641320
0.386230	1.641375
0.386328	1.641334
0.386426	1.641378
0.386523	1.641316
0.386621	1.641342
0.386719	1.641270
0.386816	1.641331
0.386914	1.641317
0.387012	1.641391
0.387109	1.641356
0.387207	1.641385
0.387305	1.641367
0.387402	1.641338
0.387500	1.641355
0.387598	1.641400
0.387695	1.641428
0.387793	1.641400
0.387891	1.641442
0.387988	1.641403
0.388086	1.641450
0.388184	1.641403
0.388281	1.641447
0.388379	1.641455
0.388477	1.641489
0.388574	1.641480
0.388672	1.641512
0.388770	1.641539
0.388867	1.641436
0.388965	1.641386
0.389062	1.641400
0.389160	1.641367
0.389258	1.641326
0.389355	1.641465
0.389453	1.641432
0.389551	1.641450
0.389648	1.641499
0.389746	1.641399
0.389844	1.641372
0.389941	1.641375
0.390039	1.641365
0.390137	1.641384
0.390234	1.641385
0.390332	1.641447
0.390430	1.641374
0.390527	1.641413
0.390625	1.641340
0.390723	1.641332
0.390820	1.641347
0.390918	1.641352
0.391016	1.641304
0.391113	1.641306
0.391211	1.641362
0.391309	1.641278
0.391406	1.641411
0.391504	1.641245
0.391602	1.641354
0.391699	1.641253
0.391797	1.641222
0.391895	1.641231
0.391992	1.641241
0.392090	1.641215
0.392187	1.641261
0.392285	1.641275
0.392383	1.641277
0.392480	1.641224
0.392578	1.641238
0.392676	1.641276
0.392773	1.641287
0.392871	1.641256
0.392969	1.641294
0.393066	1.641267
0.393164	1.641233
0.393262	1.641288
0.393359	1.641209
0.393457	1.641286
0.393555	1.641224
0.393652	1.641219
0.393750	1.641234
0.393848	1.641214
0.393945	1.641236
0.394043	1.641153
0.394141	1.641237
0.394238	1.641239
0.394336	1.641201
0.394434	1.641194
0.394531	1.641201
0.394629	1.641260
0.394727	1.641217
0.394824	1.641179
0.394922	1.641186
0.395020	1.641131
0.395117	1.641191
0.395215	1.641167
0.395312	1.641153
0.395410	1.641201
0.395508	1.641140
0.395605	1.641129
0.395703	1.641161
0.395801	1.641156
0.395898	1.641134
0.395996	1.641121
0.396094	1.641153
0.396191	1.641194
0.396289	1.641194
0.396387	1.641175
0.396484	1.641158
0.396582	1.641225
0.396680	1.641179
0.396777	1.641200
0.396875	1.641192
0.396973	1.641153
0.397070	1.641081
0.397168	1.641164
0.397266	1.641090
0.397363	1.641174
0.397461	1.641162
0.397559	1.641126
0.397656	1.641093
0.397754	1.641198
0.397852	1.641184
0.397949	1.641227
0.398047	1.641228
0.398145	1.641219
0.398242	1.641313
0.398340	1.641307
0.398437	1.641291
0.398535	1.641263
0.398633	1.641263
0.398730	1.641272
0.398828	1.641309
0.398926	1.641279
0.399023	1.641170
0.399121	1.641143
0.399219	1.641187
0.399316	1.641204
0.399414	1.641223
0.399512	1.641189
0.399609	1.641205
0.399707	1.641283
0.399805	1.641214
0.399902	1.641247
0.400000	1.641204
0.400098	1.641309
0.400195	1.641191
0.400293	1.641211
0.400391	1.641252
0.400488	1.641215
0.400586	1.641270
0.400684	1.641237
0.400781	1.641195
0.400879	1.641245
0.400977	1.641184
0.401074	1.641253
0.401172	1.641156
0.401270	1.641255
0.401367	1.641181
0.401465	1.641219
0.401562	1.641191
0.401660	1.641100
0.401758	1.641074
0.401855	1.641089
0.401953	1.641177
0.402051	1.641186
0.402148	1.641215
0.402246	1.641190
0.402344	1.641225
0.402441	1.641204
0.402539	1.641211
0.402637	1.641213
0.402734	1.641207
0.402832	1.641245
0.402930	1.641204
0.403027	1.641185
0.403125	1.641169
0.403223	1.641192
0.403320	1.641236
0.403418	1.641200
0.403516	1.641132
0.403613	1.641155
0.403711	1.641212
0.403809	1.641186
0.403906	1.641136
0.404004	1.641192
0.404102	1.641216
0.404199	1.641239
0.404297	1.641217
0.404395	1.641206
0.404492	1.641205
0.404590	1.641209
0.404687	1.641122
0.404785	1.641165
0.404883	1.641074
0.404980	1.641125
0.405078	1.641160
0.405176	1.641120
0.405273	1.641164
0.405371	1.641122
0.405469	1.641114
0.405566	1.641126
0.405664	1.641172
0.405762	1.641070
0.405859	1.641081
0.405957	1.641108
0.406055	1.641072
0.406152	1.641132
0.406250	1.641087
0.406348	1.641194
0.406445	1.641085
0.406543	1.641152
0.406641	1.641132
0.406738	1.641072
0.406836	1.641065
0.406934	1.641148
0.407031	1.641037
0.407129	1.641079
0.407227	1.641126
0.407324	1.641103
0.407422	1.641062
0.407520	1.641078
0.407617	1.641101
0.407715	1.641097
0.407812	1.641058
0.407910	1.641162
0.408008	1.641176
0.408105	1.641204
0.408203	1.641076
0.408301	1.641161
0.408398	1.641151
0.408496	1.641139
0.408594	1.641188
0.408691	1.641118
0.408789	1.641206
0.408887	1.641167
0.408984	1.641111
0.409082	1.641159
0.409180	1.641018
0.409277	1.641165
0.409375	1.641122
0.409473	1.641089
0.409570	1.641156
0.409668	1.641180
0.409766	1.641112
0.409863	1.641112
0.409961	1.641148
0.410059	1.641136
0.410156	1.641154
0.410254	1.641147
0.410352	1.641139
0.410449	1.641128
0.410547	1.641187
0.410645	1.641133
0.410742	1.641187
0.410840	1.641137
0.410937	1.641145
0.411035	1.641131
0.411133	1.641120
0.411230	1.641120
0.411328	1.641168
0.411426	1.641147
0.411523	1.641144
0.411621	1.641087
0.411719	1.641077
0.411816	1.641019
0.411914	1.641073
0.412012	1.641129
0.412109	1.641122
0.412207	1.641050
0.412305	1.641181
0.412402	1.641085
0.412500	1.641172
0.412598	1.641118
0.412695	1.641154
0.412793	1.641187
0.412891	1.641067
0.412988	1.641223
0.413086	1.641155
0.413184	1.641062
0.413281	1.641203
0.413379	1.641176
0.413477	1.641229
0.413574	1.641158
0.413672	1.641213
0.413770	1.641190
0.413867	1.641179
0.413965	1.641186
0.414062	1.641184
0.414160	1.641158
0.414258	1.641154
0.414355	1.641128
0.414453	1.641195
0.414551	1.641133
0.414648	1.641173
0.414746	1.641183
0.414844	1.641154
0.414941	1.641128
0.415039	1.641158
0.415137	1.641137
0.415234	1.641137
0.415332	1.641175
0.415430	1.641140
0.415527	1.641094
0.415625	1.641181
0.415723	1.641128
0.415820	1.641122
0.415918	1.641201
0.416016	1.641116
0.416113	1.641239
0.416211	1.641087
0.416309	1.641095
0.416406	1.641151
0.416504	1.641162
0.416602	1.641154
0.416699	1.641099
0.416797	1.641133
0.416895	1.641130
0.416992	1.641129
0.417090	1.641102
0.417187	1.641202
0.417285	1.641139
0.417383	1.641107
0.417480	1.641107
0.417578	1.641106
0.417676	1.641197
0.417773	1.641208
0.417871	1.641123
0.417969	1.641179
0.418066	1.641212
0.418164	1.641140
0.418262	1.641227
0.418359	1.641209
0.418457	1.641277
0.418555	1.641289
0.418652	1.641175
0.418750	1.641280
0.418848	1.641204
0.418945	1.641113
0.419043	1.641164
0.419141	1.641172
0.419238	1.641034
0.419336	1.641196
0.419434	1.641145
0.419531	1.641148
0.419629	1.641192
0.419727	1.641156
0.419824	1.641192
0.419922	1.641148
0.420020	1.641171
0.420117	1.641156
0.420215	1.641161
0.420312	1.641158
0.420410	1.641117
0.420508	1.641121
0.420605	1.641189
0.420703	1.641071
0.420801	1.641124
0.420898	1.641128
0.420996	1.641129
0.421094	1.641122
0.421191	1.641160
0.421289	1.641137
0.421387	1.641093
0.421484	1.641095
0.421582	1.641079
0.421680	1.640979
0.421777	1.640913
0.421875	1.640989
0.421973	1.641062
0.422070	1.641077
0.422168	1.640995
0.422266	1.641045
0.422363	1.641004
0.422461	1.641010
0.422559	1.641039
0.422656	1.641007
0.422754	1.641018
0.422852	1.640974
0.422949	1.640970
0.423047	1.640896
0.423145	1.640971
0.423242	1.640886
0.423340	1.640943
0.423437	1.640862
0.423535	1.640895
0.423633	1.640903
0.423730	1.640863
0.423828	1.640924
0.423926	1.640864
0.424023	1.640915
0.424121	1.640853
0.424219	1.640810
0.424316	1.640842
0.424414	1.640790
0.424512	1.640760
0.424609	1.640901
0.424707	1.640887
0.424805	1.640907
0.424902	1.640833
0.425000	1.640862
0.425098	1.640795
0.425195	1.640823
0.425293	1.640827
0.425391	1.640852
0.425488	1.640882
0.425586	1.640869
0.425684	1.640846
0.425781	1.640790
0.425879	1.640818
0.425977	1.640825
0.426074	1.640808
0.426172	1.640744
0.426270	1.640783
0.426367	1.640810
0.426465	1.640803
0.426562	1.640774
0.426660	1.640763
0.426758	1.640824
0.426855	1.640785
0.426953	1.640849
0.427051	1.640740
0.427148	1.640787
0.427246	1.640809
0.427344	1.640830
0.427441	1.640765
0.427539	1.640880
0.427637	1.640822
0.427734	1.640909
0.427832	1.640825
0.427930	1.640805
0.428027	1.640874
0.428125	1.640837
0.428223	1.640824
0.428320	1.640877
0.428418	1.640918
0.428516	1.640897
0.428613	1.640945
0.428711	1.640915
0.428809	1.640945
0.428906	1.640809
0.429004	1.640877
0.429102	1.640763
0.429199	1.640777
0.429297	1.640903
0.429395	1.640851
0.429492	1.640896
0.429590	1.640907
0.429687	1.640913
0.429785	1.640833
0.429883	1.640879
0.429980	1.640807
0.430078	1.640851
0.430176	1.640955
0.430273	1.640885
0.430371	1.640904
0.430469	1.640878
0.430566	1.640895
0.430664	1.640905
0.430762	1.640855
0.430859	1.640882
0.430957	1.640921
0.431055	1.640888
0.431152	1.640943
0.431250	1.640888
0.431348	1.640938
0.431445	1.640953
0.431543	1.640936
0.431641	1.640860
0.431738	1.640824
0.431836	1.640857
0.431934	1.640835
0.432031	1.640935
0.432129	1.640888
0.432227	1.640949
0.432324	1.640894
0.432422	1.640915
0.432520	1.640925
0.432617	1.641009
0.432715	1.640905
0.432812	1.640988
0.432910	1.641013
0.433008	1.641015
0.433105	1.640958
0.433203	1.641076
0.433301	1.640959
0.433398	1.641015
0.433496	1.641039
0.433594	1.640988
0.433691	1.640968
0.433789	1.641036
0.433887	1.641017
0.433984	1.640983
0.434082	1.641054
0.434180	1.641028
0.434277	1.641006
0.434375	1.641100
0.434473	1.641073
0.434570	1.641050
0.434668	1.641021
0.434766	1.641094
0.434863	1.640963
0.434961	1.641019
0.435059	1.641078
0.435156	1.641078
0.435254	1.641075
0.435352	1.641042
0.435449	1.641043
0.435547	1.641058
0.435645	1.641061
0.435742	1.641069
0.435840	1.641035
0.435937	1.641071
0.436035	1.641086
0.436133	1.640970
0.436230	1.641042
0.436328	1.641015
0.436426	1.641068
0.436523	1.641003
0.436621	1.640977
0.436719	1.640954
0.436816	1.640999
0.436914	1.640931
0.437012	1.641069
0.437109	1.640975
0.437207	1.641020
0.437305	1.640905
0.437402	1.640996
0.437500	1.640960
0.437598	1.640981
0.437695	1.640934
0.437793	1.640966
0.437891	1.640979
0.437988	1.640931
0.438086	1.640967
0.438184	1.641037
0.438281	1.640985
0.438379	1.641063
0.438477	1.641011
0.438574	1.641065
0.438672	1.641013
0.438770	1.641044
0.438867	1.641017
0.438965	1.641018
0.439062	1.640916
0.439160	1.640866
0.439258	1.640951
0.439355	1.640962
0.439453	1.641037
0.439551	1.640906
0.439648	1.641093
0.439746	1.640976
0.439844	1.641009
0.439941	1.640969
0.440039	1.640938
0.440137	1.640977
0.440234	1.640987
0.440332	1.640985
0.440430	1.640974
0.440527	1.640976
0.440625	1.640958
0.440723	1.641014
0.440820	1.640985
0.440918	1.640976
0.441016	1.640907
0.441113	1.641016
0.441211	1.640901
0.441309	1.640982
0.441406	1.641029
0.441504	1.640927
0.441602	1.640965
0.441699	1.640921
0.441797	1.640816
0.441895	1.640937
0.441992	1.641045
0.442090	1.640966
0.442187	1.640940
0.442285	1.640949
0.442383	1.641028
0.442480	1.640992
0.442578	1.641001
0.442676	1.641028
0.442773	1.640960
0.442871	1.641056
0.442969	1.641011
0.443066	1.641102
0.443164	1.640996
0.443262	1.641043
0.443359	1.641061
0.443457	1.640992
0.443555	1.641061
0.443652	1.641062
0.443750	1.641076
0.443848	1.641035
0.443945	1.640992
0.444043	1.640969
0.444141	1.641026
0.444238	1.640953
0.444336	1.641010
0.444434	1.641076
0.444531	1.641020
0.444629	1.641046
0.444727	1.641082
0.444824	1.640959
0.444922	1.641083
0.445020	1.641040
0.445117	1.640993
0.445215	1.641111
0.445312	1.641062
0.445410	1.641021
0.445508	1.640996
0.445605	1.641005
0.445703	1.640997
0.445801	1.641019
0.445898	1.641022
0.445996	1.641054
0.446094	1.641068
0.446191	1.641060
0.446289	1.641062
0.446387	1.641089
0.446484	1.641021
0.446582	1.641051
0.446680	1.641023
0.446777	1.641042
0.446875	1.641081
0.446973	1.641054
0.447070	1.641020
0.447168	1.640997
0.447266	1.641028
0.447363	1.641032
0.447461	1.641023
0.447559	1.641017
0.447656	1.641013
0.447754	1.641110
0.447852	1.641057
0.447949	1.641071
0.448047	1.641051
0.448145	1.641144
0.448242	1.641114
0.448340	1.641076
0.448437	1.641154
0.448535	1.641082
0.448633	1.641185
0.448730	1.641059
0.448828	1.641162
0.448926	1.641046
0.449023	1.641111
0.449121	1.641042
0.449219	1.641053
0.449316	1.641094
0.449414	1.641131
0.449512	1.641176
0.449609	1.641156
0.449707	1.641058
0.449805	1.641053
0.449902	1.641023
0.450000	1.641009
0.450098	1.641064
0.450195	1.641079
0.450293	1.641113
0.450391	1.641056
0.450488	1.641031
0.450586	1.641081
0.450684	1.641053
0.450781	1.641035
0.450879	1.641059
0.450977	1.641040
0.451074	1.641086
0.451172	1.641021
0.451270	1.641059
0.451367	1.641013
0.451465	1.641044
0.451562	1.641044
0.451660	1.640982
0.451758	1.640920
0.451855	1.640906
0.451953	1.641037
0.452051	1.641067
0.452148	1.641057
0.452246	1.641121
0.452344	1.641052
0.452441	1.641082
0.452539	1.641093
0.452637	1.641137
0.452734	1.641043
0.452832	1.641125
0.452930	1.641048
0.453027	1.641061
0.453125	1.641019
0.453223	1.641104
0.453320	1.641183
0.453418	1.641148
0.453516	1.641153
0.453613	1.641150
0.453711	1.641183
0.453809	1.641138
0.453906	1.641115
0.454004	1.641233
0.454102	1.641176
0.454199	1.641170
0.454297	1.641174
0.454395	1.641167
0.454492	1.641164
0.454590	1.641245
0.454687	1.641193
0.454785	1.641211
0.454883	1.641258
0.454980	1.641215
0.455078	1.641202
0.455176	1.641244
0.455273	1.641265
0.455371	1.641274
0.455469	1.641266
0.455566	1.641212
0.455664	1.641233
0.455762	1.641273
0.455859	1.641243
0.455957	1.641237
0.456055	1.641285
0.456152	1.641289
0.456250	1.641275
0.456348	1.641270
0.456445	1.641283
0.456543	1.641318
0.456641	1.641342
0.456738	1.641376
0.456836	1.641286
0.456934	1.641319
0.457031	1.641343
0.457129	1.641312
0.457227	1.641378
0.457324	1.641286
0.457422	1.641339
0.457520	1.641294
0.457617	1.641324
0.457715	1.641319
0.457812	1.641342
0.457910	1.641391
0.458008	1.641358
0.458105	1.641333
0.458203	1.641360
0.458301	1.641421
0.458398	1.641369
0.458496	1.641411
0.458594	1.641422
0.458691	1.641375
0.458789	1.641342
0.458887	1.641375
0.458984	1.641328
0.459082	1.641247
0.459180	1.641201
0.459277	1.641251
0.459375	1.641327
0.459473	1.641303
0.459570	1.641273
0.459668	1.641220
0.459766	1.641203
0.459863	1.641258
0.459961	1.641275
0.460059	1.641217
0.460156	1.641236
0.460254	1.641262
0.460352	1.641280
0.460449	1.641179
0.460547	1.641265
0.460645	1.641302
0.460742	1.641236
0.460840	1.641233
0.460937	1.641223
0.461035	1.641233
0.461133	1.641212
0.461230	1.641201
0.461328	1.641209
0.461426	1.641241
0.461523	1.641172
0.461621	1.641148
0.461719	1.641097
0.461816	1.641046
0.461914	1.641143
0.462012	1.641179
0.462109	1.641179
0.462207	1.641118
0.462305	1.641170
0.462402	1.641096
0.462500	1.641161
0.462598	1.641201
0.462695	1.641200
0.462793	1.641149
0.462891	1.641220
0.462988	1.641129
0.463086	1.641111
0.463184	1.641162
0.463281	1.641071
0.463379	1.641158
0.463477	1.641078
0.463574	1.641143
0.463672	1.641040
0.463770	1.641077
0.463867	1.641150
0.463965	1.641181
0.464062	1.641074
0.464160	1.641111
0.464258	1.641142
0.464355	1.641114
0.464453	1.641133
0.464551	1.641171
0.464648	1.641231
0.464746	1.641145
0.464844	1.641122
0.464941	1.641084
0.465039	1.641161
0.465137	1.641116
0.465234	1.641193
0.465332	1.641291
0.465430	1.641212
0.465527	1.641200
0.465625	1.641230
0.465723	1.641266
0.465820	1.641200
0.465918	1.641248
0.466016	1.641201
0.466113	1.641266
0.466211	1.641185
0.466309	1.641279
0.466406	1.641289
0.466504	1.641277
0.466602	1.641289
0.466699	1.641295
0.466797	1.641219
0.466895	1.641352
0.466992	1.641352
0.467090	1.641286
0.467187	1.641315
0.467285	1.641251
0.467383	1.641328
0.467480	1.641303
0.467578	1.641254
0.467676	1.641301
0.467773	1.641344
0.467871	1.641339
0.467969	1.641408
0.468066	1.641413
0.468164	1.641402
0.468262	1.641402
0.468359	1.641479
0.468457	1.641420
0.468555	1.641551
0.468652	1.641486
0.468750	1.641573
0.468848	1.641511
0.468945	1.641422
0.469043	1.641450
0.469141	1.641400
0.469238	1.641373
0.469336	1.641465
0.469434	1.641486
0.469531	1.641466
0.469629	1.641589
0.469727	1.641490
0.469824	1.641541
0.469922	1.641443
0.470020	1.641499
0.470117	1.641492
0.470215	1.641523
0.470312	1.641508
0.470410	1.641578
0.470508	1.641588
0.470605	1.641549
0.470703	1.641579
0.470801	1.641583
0.470898	1.641556
0.470996	1.641626
0.471094	1.641571
0.471191	1.641539
0.471289	1.641541
0.471387	1.641467
0.471484	1.641563
0.471582	1.641529
0.471680	1.641500
0.471777	1.641330
0.471875	1.641454
0.471973	1.641522
0.472070	1.641583
0.472168	1.641570
0.472266	1.641482
0.472363	1.641582
0.472461	1.641565
0.472559	1.641526
0.472656	1.641535
0.472754	1.641491
0.472852	1.641580
0.472949	1.641577
0.473047	1.641564
0.473145	1.641532
0.473242	1.641539
0.473340	1.641604
0.473437	1.641507
0.473535	1.641550
0.473633	1.641516
0.473730	1.641489
0.473828	1.641608
0.473926	1.641585
0.474023	1.641532
0.474121	1.641555
0.474219	1.641586
0.474316	1.641548
0.474414	1.641596
0.474512	1.641565
0.474609	1.641608
0.474707	1.641584
0.474805	1.641579
0.474902	1.641605
0.475000	1.641550
0.475098	1.641591
0.475195	1.641571
0.475293	1.641554
0.475391	1.641538
0.475488	1.641521
0.475586	1.641596
0.475684	1.641593
0.475781	1.641581
0.475879	1.641535
0.475977	1.641535
0.476074	1.641562
0.476172	1.641612
0.476270	1.641578
0.476367	1.641626
0.476465	1.641549
0.476562	1.641597
0.476660	1.641569
0.476758	1.641555
0.476855	1.641522
0.476953	1.641533
0.477051	1.641642
0.477148	1.641564
0.477246	1.641549
0.477344	1.641546
0.477441	1.641574
0.477539	1.641565
0.477637	1.641591
0.477734	1.641605
0.477832	1.641601
0.477930	1.641616
0.478027	1.641610
0.478125	1.641600
0.478223	1.641564
0.478320	1.641580
0.478418	1.641586
0.478516	1.641595
0.478613	1.641705
0.478711	1.641679
0.478809	1.641669
0.478906	1.641598
0.479004	1.641574
0.479102	1.641546
0.479199	1.641549
0.479297	1.641604
0.479395	1.641565
0.479492	1.641605
0.479590	1.641651
0.479687	1.641581
0.479785	1.641612
0.479883	1.641600
0.479980	1.641641
0.480078	1.641635
0.480176	1.641633
0.480273	1.641571
0.480371	1.641635
0.480469	1.641648
0.480566	1.641604
0.480664	1.641635
0.480762	1.641552
0.480859	1.641647
0.480957	1.641627
0.481055	1.641549
0.481152	1.641566
0.481250	1.641546
0.481348	1.641558
0.481445	1.641581
0.481543	1.641548
0.481641	1.641512
0.481738	1.641428
0.481836	1.641464
0.481934	1.641508
0.482031	1.641571
0.482129	1.641563
0.482227	1.641503
0.482324	1.641587
0.482422	1.641549
0.482520	1.641566
0.482617	1.641549
0.482715	1.641565
0.482812	1.641547
0.482910	1.641590
0.483008	1.641536
0.483105	1.641593
0.483203	1.641591
0.483301	1.641613
0.483398	1.641610
0.483496	1.641614
0.483594	1.641526
0.483691	1.641519
0.483789	1.641612
0.483887	1.641513
0.483984	1.641604
0.484082	1.641527
0.484180	1.641627
0.484277	1.641571
0.484375	1.641606
0.484473	1.641578
0.484570	1.641548
0.484668	1.641643
0.484766	1.641606
0.484863	1.641580
0.484961	1.641647
0.485059	1.641643
0.485156	1.641643
0.485254	1.641608
0.485352	1.641657
0.485449	1.641631
0.485547	1.641639
0.485645	1.641690
0.485742	1.641591
0.485840	1.641718
0.485937	1.641612
0.486035	1.641597
0.486133	1.641577
0.486230	1.641665
0.486328	1.641593
0.486426	1.641644
0.486523	1.641606
0.486621	1.641626
0.486719	1.641566
0.486816	1.641712
0.486914	1.641650
0.487012	1.641699
0.487109	1.641706
0.487207	1.641643
0.487305	1.641678
0.487402	1.641719
0.487500	1.641684
0.487598	1.641708
0.487695	1.641670
0.487793	1.641709
0.487891	1.641723
0.487988	1.641690
0.488086	1.641768
0.488184	1.641736
0.488281	1.641777
0.488379	1.641798
0.488477	1.641804
0.488574	1.641843
0.488672	1.641782
0.488770	1.641888
0.488867	1.641763
0.488965	1.641757
0.489062	1.641711
0.489160	1.641718
0.489258	1.641752
0.489355	1.641796
0.489453	1.641799
0.489551	1.641825
0.489648	1.641838
0.489746	1.641819
0.489844	1.641821
0.489941	1.641820
0.490039	1.641765
0.490137	1.641917
0.490234	1.641762
0.490332	1.641803
0.490430	1.641821
0.490527	1.641721
0.490625	1.641726
0.490723	1.641771
0.490820	1.641823
0.490918	1.641773
0.491016	1.641783
0.491113	1.641726
0.491211	1.641834
0.491309	1.641771
0.491406	1.641839
0.491504	1.641847
0.491602	1.641763
0.491699	1.641793
0.491797	1.641613
0.491895	1.641718
0.491992	1.641768
0.492090	1.641870
0.492187	1.641818
0.492285	1.641896
0.492383	1.641865
0.492480	1.641856
0.492578	1.641821
0.492676	1.641861
0.492773	1.641909
0.492871	1.641846
0.492969	1.641795
0.493066	1.641917
0.493164	1.641893
0.493262	1.641896
0.493359	1.641957
0.493457	1.641907
0.493555	1.641973
0.493652	1.641903
0.493750	1.641995
0.493848	1.641914
0.493945	1.641967
0.494043	1.641936
0.494141	1.641919
0.494238	1.641920
0.494336	1.641944
0.494434	1.641957
0.494531	1.641972
0.494629	1.641949
0.494727	1.641955
0.494824	1.641920
0.494922	1.642040
0.495020	1.641953
0.495117	1.641956
0.495215	1.642008
0.495312	1.641845
0.495410	1.641909
0.495508	1.641981
0.495605	1.641987
0.495703	1.641957
0.495801	1.642044
0.495898	1.641986
0.495996	1.642028
0.496094	1.642050
0.496191	1.642009
0.496289	1.642010
0.496387	1.642006
0.496484	1.641994
0.496582	1.642038
0.496680	1.642076
0.496777	1.642033
0.496875	1.642102
0.496973	1.642051
0.497070	1.642043
0.497168	1.642031
0.497266	1.642003
0.497363	1.642084
0.497461	1.642064
0.497559	1.642073
0.497656	1.642100
0.497754	1.642165
0.497852	1.642110
0.497949	1.642110
0.498047	1.642110
0.498145	1.642161
0.498242	1.642170
0.498340	1.642184
0.498437	1.642167
0.498535	1.642161
0.498633	1.642185
0.498730	1.642183
0.498828	1.642092
0.498926	1.642094
0.499023	1.642141
0.499121	1.642008
0.499219	1.642045
0.499316	1.642026
0.499414	1.642061
0.499512	1.642069
0.499609	1.642075
0.499707	1.642079
0.499805	1.642079
0.499902	1.642020
0.500000	1.642031
0.500098	1.641951
0.500195	1.642024
0.500293	1.641963
0.500391	1.641961
0.500488	1.642071
0.500586	1.642025
0.500684	1.642006
0.500781	1.642034
0.500879	1.641986
0.500977	1.642017
0.501074	1.641936
0.501172	1.641937
0.501270	1.641892
0.501367	1.641928
0.501465	1.641928
0.501562	1.641937
0.501660	1.641944
0.501758	1.641831
0.501855	1.641798
0.501953	1.641885
0.502051	1.641856
0.502148	1.641911
0.502246	1.641865
0.502344	1.641845
0.502441	1.641869
0.502539	1.641799
0.502637	1.641832
0.502734	1.641910
0.502832	1.641817
0.502930	1.641845
0.503027	1.641816
0.503125	1.641883
0.503223	1.641813
0.503320	1.641860
0.503418	1.641811
0.503516	1.641830
0.503613	1.641741
0.503711	1.641791
0.503809	1.641763
0.503906	1.641706
0.504004	1.641741
0.504102	1.641679
0.504199	1.641689
0.504297	1.641726
0.504395	1.641743
0.504492	1.641743
0.504590	1.641710
0.504687	1.641766
0.504785	1.641732
0.504883	1.641660
0.504980	1.641636
0.505078	1.641658
0.505176	1.641735
0.505273	1.641712
0.505371	1.641634
0.505469	1.641658
0.505566	1.641667
0.505664	1.641649
0.505762	1.641640
0.505859	1.641688
0.505957	1.641632
0.506055	1.641658
0.506152	1.641580
0.506250	1.641691
0.506348	1.641616
0.506445	1.641619
0.506543	1.641631
0.506641	1.641647
0.506738	1.641659
0.506836	1.641598
0.506934	1.641574
0.507031	1.641643
0.507129	1.641673
0.507227	1.641614
0.507324	1.641530
0.507422	1.641565
0.507520	1.641572
0.507617	1.641557
0.507715	1.641613
0.507812	1.641622
0.507910	1.641605
0.508008	1.641618
0.508105	1.641654
0.508203	1.641578
0.508301	1.641575
0.508398	1.641643
0.508496	1.641673
0.508594	1.641610
0.508691	1.641673
0.508789	1.641555
0.508887	1.641610
0.508984	1.641622
0.509082	1.641512
0.509180	1.641518
0.509277	1.641532
0.509375	1.641611
0.509473	1.641511
0.509570	1.641560
0.509668	1.641582
0.509766	1.641560
0.509863	1.641527
0.509961	1.641589
0.510059	1.641533
0.510156	1.641646
0.510254	1.641576
0.510352	1.641585
0.510449	1.641638
0.510547	1.641494
0.510645	1.641630
0.510742	1.641557
0.510840	1.641581
0.510937	1.641632
0.511035	1.641598
0.511133	1.641631
0.511230	1.641558
0.511328	1.641573
0.511426	1.641598
0.511523	1.641560
0.511621	1.641505
0.511719	1.641540
0.511816	1.641463
0.511914	1.641473
0.512012	1.641532
0.512109	1.641591
0.512207	1.641585
0.512305	1.641550
0.512402	1.641559
0.512500	1.641564
0.512598	1.641602
0.512695	1.641530
0.512793	1.641561
0.512891	1.641632
0.512988	1.641604
0.513086	1.641496
0.513184	1.641583
0.513281	1.641592
0.513379	1.641565
0.513477	1.641552
0.513574	1.641522
0.513672	1.641519
0.513770	1.641588
0.513867	1.641541
0.513965	1.641617
0.514062	1.641577
0.514160	1.641611
0.514258	1.641536
0.514355	1.641547
0.514453	1.641526
0.514551	1.641607
0.514648	1.641518
0.514746	1.641557
0.514844	1.641574
0.514941	1.641610
0.515039	1.641618
0.515137	1.641558
0.515234	1.641546
0.515332	1.641555
0.515430	1.641553
0.515527	1.641535
0.515625	1.641496
0.515723	1.641565
0.515820	1.641492
0.515918	1.641551
0.516016	1.641541
0.516113	1.641561
0.516211	1.641474
0.516309	1.641523
0.516406	1.641519
0.516504	1.641528
0.516602	1.641505
0.516699	1.641500
0.516797	1.641445
0.516895	1.641497
0.516992	1.641477
0.517090	1.641449
0.517187	1.641519
0.517285	1.641417
0.517383	1.641425
0.517480	1.641435
0.517578	1.641467
0.517676	1.641453
0.517773	1.641454
0.517871	1.641385
0.517969	1.641400
0.518066	1.641461
0.518164	1.641491
0.518262	1.641524
0.518359	1.641496
0.518457	1.641455
0.518555	1.641493
0.518652	1.641471
0.518750	1.641471
0.518848	1.641455
0.518945	1.641382
0.519043	1.641433
0.519141	1.641368
0.519238	1.641341
0.519336	1.641397
0.519434	1.641416
0.519531	1.641438
0.519629	1.641422
0.519727	1.641426
0.519824	1.641374
0.519922	1.641395
0.520020	1.641381
0.520117	1.641401
0.520215	1.641388
0.520312	1.641426
0.520410	1.641381
0.520508	1.641317
0.520605	1.641410
0.520703	1.641384
0.520801	1.641350
0.520898	1.641396
0.520996	1.641338
0.521094	1.641348
0.521191	1.641402
0.521289	1.641275
0.521387	1.641349
0.521484	1.641331
0.521582	1.641305
0.521680	1.641211
0.521777	1.641173
0.521875	1.641281
0.521973	1.641355
0.522070	1.641345
0.522168	1.641291
0.522266	1.641332
0.522363	1.641353
0.522461	1.641300
0.522559	1.641263
0.522656	1.641356
0.522754	1.641416
0.522852	1.641298
0.522949	1.641354
0.523047	1.641303
0.523145	1.641374
0.523242	1.641326
0.523340	1.641377
0.523437	1.641337
0.523535	1.641386
0.523633	1.641329
0.523730	1.641366
0.523828	1.641454
0.523926	1.641447
0.524023	1.641435
0.524121	1.641436
0.524219	1.641428
0.524316	1.641406
0.524414	1.641433
0.524512	1.641361
0.524609	1.641422
0.524707	1.641477
0.524805	1.641533
0.524902	1.641456
0.525000	1.641489
0.525098	1.641489
0.525195	1.641455
0.525293	1.641492
0.525391	1.641461
0.525488	1.641570
0.525586	1.641576
0.525684	1.641539
0.525781	1.641540
0.525879	1.641489
0.525977	1.641576
0.526074	1.641543
0.526172	1.641630
0.526270	1.641679
0.526367	1.641522
0.526465	1.641567
0.526562	1.641605
0.526660	1.641527
0.526758	1.641560
0.526855	1.641601
0.526953	1.641564
0.527051	1.641514
0.527148	1.641547
0.527246	1.641521
0.527344	1.641554
0.527441	1.641558
0.527539	1.641504
0.527637	1.641596
0.527734	1.641588
0.527832	1.641607
0.527930	1.641609
0.528027	1.641624
0.528125	1.641671
0.528223	1.641621
0.528320	1.641616
0.528418	1.641577
0.528516	1.641626
0.528613	1.641618
0.528711	1.641638
0.528809	1.641657
0.528906	1.641522
0.529004	1.641630
0.529102	1.641474
0.529199	1.641541
0.529297	1.641490
0.529395	1.641533
0.529492	1.641554
0.529590	1.641529
0.529687	1.641549
0.529785	1.641502
0.529883	1.641542
0.529980	1.641488
0.530078	1.641493
0.530176	1.641540
0.530273	1.641536
0.530371	1.641466
0.530469	1.641485
0.530566	1.641537
0.530664	1.641474
0.530762	1.641458
0.530859	1.641467
0.530957	1.641383
0.531055	1.641356
0.531152	1.641388
0.531250	1.641289
0.531348	1.641342
0.531445	1.641352
0.531543	1.641361
0.531641	1.641421
0.531738	1.641234
0.531836	1.641176
0.531934	1.641339
0.532031	1.641364
0.532129	1.641273
0.532227	1.641338
0.532324	1.641336
0.532422	1.641334
0.532520	1.641358
0.532617	1.641300
0.532715	1.641350
0.532812	1.641311
0.532910	1.641367
0.533008	1.641282
0.533105	1.641374
0.533203	1.641298
0.533301	1.641352
0.533398	1.641331
0.533496	1.641370
0.533594	1.641283
0.533691	1.641381
0.533789	1.641350
0.533887	1.641361
0.533984	1.641369
0.534082	1.641353
0.534180	1.641352
0.534277	1.641354
0.534375	1.641428
0.534473	1.641387
0.534570	1.641381
0.534668	1.641380
0.534766	1.641360
0.534863	1.641352
0.534961	1.641378
0.535059	1.641327
0.535156	1.641345
0.535254	1.641269
0.535352	1.641417
0.535449	1.641263
0.535547	1.641306
0.535645	1.641325
0.535742	1.641278
0.535840	1.641300
0.535937	1.641286
0.536035	1.641390
0.536133	1.641286
0.536230	1.641320
0.536328	1.641242
0.536426	1.641367
0.536523	1.641308
0.536621	1.641341
0.536719	1.641297
0.536816	1.641287
0.536914	1.641284
0.537012	1.641361
0.537109	1.641308
0.537207	1.641322
0.537305	1.641320
0.537402	1.641385
0.537500	1.641299
0.537598	1.641333
0.537695	1.641289
0.537793	1.641231
0.537891	1.641330
0.537988	1.641329
0.538086	1.641331
0.538184	1.641322
0.538281	1.641364
0.538379	1.641386
0.538477	1.641347
0.538574	1.641403
0.538672	1.641374
0.538770	1.641410
0.538867	1.641414
0.538965	1.641334
0.539062	1.641307
0.539160	1.641316
0.539258	1.641264
0.539355	1.641383
0.539453	1.641309
0.539551	1.641361
0.539648	1.641364
0.539746	1.641322
0.539844	1.641356
0.539941	1.641339
0.540039	1.641386
0.540137	1.641305
0.540234	1.641338
0.540332	1.641237
0.540430	1.641266
0.540527	1.641306
0.540625	1.641302
0.540723	1.641270
0.540820	1.641350
0.540918	1.641330
0.541016	1.641296
0.541113	1.641270
0.541211	1.641322
0.541309	1.641305
0.541406	1.641334
0.541504	1.641377
0.541602	1.641291
0.541699	1.641295
0.541797	1.641149
0.541895	1.641323
0.541992	1.641256
0.542090	1.641323
0.542187	1.641298
0.542285	1.641336
0.542383	1.641322
0.542480	1.641269
0.542578	1.641259
0.542676	1.641278
0.542773	1.641364
0.542871	1.641260
0.542969	1.641286
0.543066	1.641359
0.543164	1.641286
0.543262	1.641297
0.543359	1.641364
0.543457	1.641256
0.543555	1.641353
0.543652	1.641278
0.543750	1.641321
0.543848	1.641366
0.543945	1.641330
0.544043	1.641356
0.544141	1.641305
0.544238	1.641358
0.544336	1.641327
0.544434	1.641310
0.544531	1.641261
0.544629	1.641267
0.544727	1.641288
0.544824	1.641279
0.544922	1.641278
0.545020	1.641323
0.545117	1.641267
0.545215	1.641285
0.545312	1.641259
0.545410	1.641250
0.545508	1.641282
0.545605	1.641309
0.545703	1.641249
0.545801	1.641342
0.545898	1.641282
0.545996	1.641314
0.546094	1.641275
0.546191	1.641329
0.546289	1.641326
0.546387	1.641389
0.546484	1.641339
0.546582	1.641284
0.546680	1.641372
0.546777	1.641298
0.546875	1.641270
0.546973	1.641341
0.547070	1.641370
0.547168	1.641311
0.547266	1.641287
0.547363	1.641331
0.547461	1.641325
0.547559	1.641359
0.547656	1.641312
0.547754	1.641369
0.547852	1.641382
0.547949	1.641344
0.548047	1.641338
0.548145	1.641395
0.548242	1.641416
0.548340	1.641460
0.548437	1.641456
0.548535	1.641467
0.548633	1.641474
0.548730	1.641464
0.548828	1.641519
0.548926	1.641311
0.549023	1.641416
0.549121	1.641370
0.549219	1.641369
0.549316	1.641354
0.549414	1.641422
0.549512	1.641384
0.549609	1.641463
0.549707	1.641440
0.549805	1.641449
0.549902	1.641369
0.550000	1.641387
0.550098	1.641427
0.550195	1.641425
0.550293	1.641401
0.550391	1.641438
0.550488	1.641441
0.550586	1.641485
0.550684	1.641426
0.550781	1.641479
0.550879	1.641496
0.550977	1.641516
0.551074	1.641507
0.551172	1.641509
0.551270	1.641503
0.551367	1.641496
0.551465	1.641522
0.551562	1.641525
0.551660	1.641461
0.551758	1.641385
0.551855	1.641412
0.551953	1.641547
0.552051	1.641610
0.552148	1.641535
0.552246	1.641599
0.552344	1.641585
0.552441	1.641564
0.552539	1.641550
0.552637	1.641585
0.552734	1.641571
0.552832	1.641558
0.552930	1.641606
0.553027	1.641601
0.553125	1.641671
0.553223	1.641659
0.553320	1.641593
0.553418	1.641707
0.553516	1.641656
0.553613	1.641638
0.553711	1.641663
0.553809	1.641590
0.553906	1.641701
0.554004	1.641642
0.554102	1.641676
0.554199	1.641666
0.554297	1.641690
0.554395	1.641704
0.554492	1.641701
0.554590	1.641676
0.554687	1.641673
0.554785	1.641663
0.554883	1.641727
0.554980	1.641701
0.555078	1.641668
0.555176	1.641677
0.555273	1.641679
0.555371	1.641679
0.555469	1.641677
0.555566	1.641740
0.555664	1.641648
0.555762	1.641688
0.555859	1.641754
0.555957	1.641702
0.556055	1.641734
0.556152	1.641706
0.556250	1.641691
0.556348	1.641711
0.556445	1.641624
0.556543	1.641722
0.556641	1.641663
0.556738	1.641668
0.556836	1.641685
0.556934	1.641662
0.557031	1.641672
0.557129	1.641649
0.557227	1.641669
0.557324	1.641662
0.557422	1.641706
0.557520	1.641666
0.557617	1.641649
0.557715	1.641627
0.557812	1.641646
0.557910	1.641707
0.558008	1.641720
0.558105	1.641755
0.558203	1.641676
0.558301	1.641753
0.558398	1.641716
0.558496	1.641765
0.558594	1.641689
0.558691	1.641732
0.558789	1.641733
0.558887	1.641698
0.558984	1.641665
0.559082	1.641658
0.559180	1.641657
0.559277	1.641637
0.559375	1.641731
0.559473	1.641616
0.559570	1.641727
0.559668	1.641729
0.559766	1.641693
0.559863	1.641675
0.559961	1.641748
0.560059	1.641770
0.560156	1.641694
0.560254	1.641754
0.560352	1.641767
0.560449	1.641727
0.560547	1.641808
0.560645	1.641712
0.560742	1.641807
0.560840	1.641850
0.560937	1.641797
0.561035	1.641781
0.561133	1.641857
0.561230	1.641756
0.561328	1.641798
0.561426	1.641817
0.561523	1.641752
0.561621	1.641767
0.561719	1.641713
0.561816	1.641630
0.561914	1.641712
0.562012	1.641707
0.562109	1.641759
0.562207	1.641785
0.562305	1.641782
0.562402	1.641832
0.562500	1.641745
0.562598	1.641819
0.562695	1.641740
0.562793	1.641837
0.562891	1.641829
0.562988	1.641818
0.563086	1.641834
0.563184	1.641780
0.563281	1.641839
0.563379	1.641859
0.563477	1.641804
0.563574	1.641774
0.563672	1.641830
0.563770	1.641806
0.563867	1.641754
0.563965	1.641857
0.564062	1.641884
0.564160	1.641909
0.564258	1.641831
0.564355	1.641848
0.564453	1.641853
0.564551	1.641882
0.564648	1.641851
0.564746	1.641780
0.564844	1.641920
0.564941	1.641870
0.565039	1.641866
0.565137	1.641791
0.565234	1.641992
0.565332	1.641953
0.565430	1.641895
0.565527	1.641922
0.565625	1.641921
0.565723	1.641910
0.565820	1.641868
0.565918	1.641954
0.566016	1.641964
0.566113	1.641939
0.566211	1.642045
0.566309	1.641950
0.566406	1.642009
0.566504	1.641912
0.566602	1.641936
0.566699	1.641896
0.566797	1.641951
0.566895	1.641948
0.566992	1.641913
0.567090	1.641990
0.567187	1.641978
0.567285	1.641998
0.567383	1.641928
0.567480	1.642012
0.567578	1.641939
0.567676	1.642026
0.567773	1.641999
0.567871	1.642008
0.567969	1.642034
0.568066	1.642024
0.568164	1.642050
0.568262	1.642086
0.568359	1.642111
0.568457	1.642131
0.568555	1.642098
0.568652	1.642129
0.568750	1.642105
0.568848	1.642139
0.568945	1.642037
0.569043	1.642017
0.569141	1.642035
0.569238	1.642020
0.569336	1.642089
0.569434	1.642073
0.569531	1.642058
0.569629	1.642122
0.569727	1.642099
0.569824	1.642081
0.569922	1.642079
0.570020	1.642127
0.570117	1.642134
0.570215	1.642053
0.570312	1.642092
0.570410	1.642090
0.570508	1.642097
0.570605	1.642123
0.570703	1.642110
0.570801	1.642134
0.570898	1.642106
0.570996	1.641984
0.571094	1.642144
0.571191	1.642119
0.571289	1.642053
0.571387	1.642030
0.571484	1.642097
0.571582	1.642037
0.571680	1.642029
0.571777	1.641944
0.571875	1.641867
0.571973	1.641987
0.572070	1.642046
0.572168	1.642023
0.572266	1.642037
0.572363	1.642063
0.572461	1.642058
0.572559	1.642017
0.572656	1.641968
0.572754	1.641993
0.572852	1.641959
0.572949	1.641973
0.573047	1.641995
0.573145	1.642059
0.573242	1.642044
0.573340	1.642022
0.573437	1.642004
0.573535	1.642046
0.573633	1.641983
0.573730	1.641962
0.573828	1.642031
0.573926	1.642015
0.574023	1.642031
0.574121	1.641990
0.574219	1.642026
0.574316	1.641980
0.574414	1.642017
0.574512	1.641970
0.574609	1.641990
0.574707	1.642015
0.574805	1.642017
0.574902	1.642050
0.575000	1.642037
0.575098	1.642026
0.575195	1.641979
0.575293	1.641981
0.575391	1.641915
0.575488	1.641989
0.575586	1.641912
0.575684	1.641937
0.575781	1.641939
0.575879	1.641976
0.575977	1.642015
0.576074	1.641958
0.576172	1.641919
0.576270	1.641927
0.576367	1.641955
0.576465	1.641996
0.576562	1.642027
0.576660	1.642029
0.576758	1.641964
0.576855	1.641957
0.576953	1.641934
0.577051	1.641909
0.577148	1.641956
0.577246	1.642017
0.577344	1.641975
0.577441	1.642047
0.577539	1.642035
0.577637	1.641995
0.577734	1.642032
0.577832	1.642037
0.577930	1.642011
0.578027	1.642091
0.578125	1.642033
0.578223	1.642094
0.578320	1.642088
0.578418	1.642119
0.578516	1.642107
0.578613	1.642057
0.578711	1.642103
0.578809	1.642170
0.578906	1.642034
0.579004	1.642056
0.579102	1.642084
0.579199	1.642098
0.579297	1.642112
0.579395	1.642073
0.579492	1.642186
0.579590	1.642172
0.579687	1.642145
0.579785	1.642117
0.579883	1.642142
0.579980	1.642161
0.580078	1.642105
0.580176	1.642219
0.580273	1.642119
0.580371	1.642194
0.580469	1.642152
0.580566	1.642222
0.580664	1.642202
0.580762	1.642147
0.580859	1.642149
0.580957	1.642158
0.581055	1.642201
0.581152	1.642086
0.581250	1.642224
0.581348	1.642110
0.581445	1.642117
0.581543	1.642219
0.581641	1.642158
0.581738	1.642100
0.581836	1.642071
0.581934	1.642144
0.582031	1.642228
0.582129	1.642128
0.582227	1.642207
0.582324	1.642197
0.582422	1.642138
0.582520	1.642199
0.582617	1.642094
0.582715	1.642110
0.582812	1.642097
0.582910	1.642136
0.583008	1.642073
0.583105	1.642157
0.583203	1.642138
0.583301	1.642196
0.583398	1.642178
0.583496	1.642116
0.583594	1.642133
0.583691	1.642120
0.583789	1.642142
0.583887	1.642037
0.583984	1.642071
0.584082	1.642080
0.584180	1.642184
0.584277	1.642034
0.584375	1.642139
0.584473	1.642069
0.584570	1.642142
0.584668	1.642097
0.584766	1.642083
0.584863	1.642051
0.584961	1.642050
0.585059	1.642015
0.585156	1.642085
0.585254	1.642028
0.585352	1.642119
0.585449	1.642045
0.585547	1.642024
0.585645	1.642103
0.585742	1.642039
0.585840	1.642087
0.585937	1.642075
0.586035	1.642036
0.586133	1.642046
0.586230	1.642062
0.586328	1.642039
0.586426	1.642116
0.586523	1.642037
0.586621	1.642064
0.586719	1.642077
0.586816	1.642091
0.586914	1.642060
0.587012	1.642066
0.587109	1.642144
0.587207	1.642084
0.587305	1.642119
0.587402	1.642140
0.587500	1.642158
0.587598	1.642105
0.587695	1.642070
0.587793	1.642094
0.587891	1.642212
0.587988	1.642178
0.588086	1.642135
0.588184	1.642244
0.588281	1.642236
0.588379	1.642293
0.588477	1.642219
0.588574	1.642249
0.588672	1.642268
0.588770	1.642305
0.588867	1.642264
0.588965	1.642219
0.589062	1.642174
0.589160	1.642175
0.589258	1.642175
0.589355	1.642200
0.589453	1.642236
0.589551	1.642257
0.589648	1.642275
0.589746	1.642289
0.589844	1.642238
0.589941	1.642236
0.590039	1.642217
0.590137	1.642264
0.590234	1.642231
0.590332	1.642291
0.590430	1.642274
0.590527	1.642250
0.590625	1.642225
0.590723	1.642260
0.590820	1.642260
0.590918	1.642217
0.591016	1.642247
0.591113	1.642338
0.591211	1.642293
0.591309	1.642245
0.591406	1.642282
0.591504	1.642279
0.591602	1.642236
0.591699	1.642207
0.591797	1.642128
0.591895	1.642156
0.591992	1.642145
0.592090	1.642299
0.592187	1.642208
0.592285	1.642287
0.592383	1.642253
0.592480	1.642273
0.592578	1.642208
0.592676	1.642269
0.592773	1.642236
0.592871	1.642163
0.592969	1.642241
0.593066	1.642177
0.593164	1.642246
0.593262	1.642248
0.593359	1.642255
0.593457	1.642235
0.593555	1.642231
0.593652	1.642272
0.593750	1.642186
0.593848	1.642243
0.593945	1.642233
0.594043	1.642311
0.594141	1.642196
0.594238	1.642230
0.594336	1.642196
0.594434	1.642173
0.594531	1.642156
0.594629	1.642130
0.594727	1.642217
0.594824	1.642141
0.594922	1.642166
0.595020	1.642275
0.595117	1.642172
0.595215	1.642194
0.595312	1.642143
0.595410	1.642113
0.595508	1.642091
0.595605	1.642119
0.595703	1.642123
0.595801	1.642106
0.595898	1.642160
0.595996	1.642149
0.596094	1.642184
0.596191	1.642108
0.596289	1.642134
0.596387	1.642122
0.596484	1.642113
0.596582	1.642106
0.596680	1.642152
0.596777	1.642116
0.596875	1.642156
0.596973	1.642130
0.597070	1.642091
0.597168	1.642076
0.597266	1.642108
0.597363	1.642048
0.597461	1.642099
0.597559	1.642035
0.597656	1.642055
0.597754	1.642085
0.597852	1.642072
0.597949	1.642076
0.598047	1.642133
0.598145	1.642040
0.598242	1.642117
0.598340	1.642081
0.598437	1.642062
0.598535	1.642069
0.598633	1.642129
0.598730	1.642045
0.598828	1.642121
0.598926	1.641993
0.599023	1.641984
0.599121	1.641934
0.599219	1.641915
0.599316	1.641967
0.599414	1.641971
0.599512	1.641957
0.599609	1.642001
0.599707	1.641970
0.599805	1.641986
0.599902	1.641921
0.600000	1.641918
0.600098	1.641941
0.600195	1.641993
0.600293	1.641996
0.600391	1.641967
0.600488	1.641916
0.600586	1.641997
0.600684	1.641977
0.600781	1.641987
0.600879	1.641954
0.600977	1.641910
0.601074	1.641892
0.601172	1.641991
0.601270	1.641947
0.601367	1.641953
0.601465	1.641912
0.601562	1.641925
0.601660	1.641943
0.601758	1.641773
0.601855	1.641819
0.601953	1.641897
0.602051	1.641840
0.602148	1.641915
0.602246	1.641922
0.602344	1.641868
0.602441	1.641917
0.602539	1.641856
0.602637	1.641865
0.602734	1.641928
0.602832	1.641877
0.602930	1.641895
0.603027	1.641911
0.603125	1.641915
0.603223	1.641894
0.603320	1.641846
0.603418	1.641927
0.603516	1.641902
0.603613	1.641842
0.603711	1.641823
0.603809	1.641862
0.603906	1.641859
0.604004	1.641878
0.604102	1.641824
0.604199	1.641807
0.604297	1.641845
0.604395	1.641871
0.604492	1.641826
0.604590	1.641934
0.604687	1.641845
0.604785	1.641870
0.604883	1.641842
0.604980	1.641876
0.605078	1.641860
0.605176	1.641868
0.605273	1.641925
0.605371	1.641826
0.605469	1.641854
0.605566	1.641909
0.605664	1.641889
0.605762	1.641823
0.605859	1.641887
0.605957	1.641856
0.606055	1.641909
0.606152	1.641890
0.606250	1.641796
0.606348	1.641848
0.606445	1.641846
0.606543	1.641842
0.606641	1.641854
0.606738	1.641890
0.606836	1.641862
0.606934	1.641832
0.607031	1.641822
0.607129	1.641836
0.607227	1.641897
0.607324	1.641776
0.607422	1.641846
0.607520	1.641850
0.607617	1.641810
0.607715	1.641782
0.607812	1.641806
0.607910	1.641768
0.608008	1.641842
0.608105	1.641810
0.608203	1.641785
0.608301	1.641860
0.608398	1.641858
0.608496	1.641889
0.608594	1.641900
0.608691	1.641886
0.608789	1.641864
0.608887	1.641821
0.608984	1.641754
0.609082	1.641755
0.609180	1.641757
0.609277	1.641700
0.609375	1.641846
0.609473	1.641744
0.609570	1.641787
0.609668	1.641811
0.609766	1.641689
0.609863	1.641771
0.609961	1.641725
0.610059	1.641693
0.610156	1.641724
0.610254	1.641752
0.610352	1.641702
0.610449	1.641783
0.610547	1.641737
0.610645	1.641779
0.610742	1.641827
0.610840	1.641712
0.610937	1.641777
0.611035	1.641716
0.611133	1.641717
0.611230	1.641765
0.611328	1.641752
0.611426	1.641741
0.611523	1.641644
0.611621	1.641664
0.611719	1.641622
0.611816	1.641587
0.611914	1.641584
0.612012	1.641555
0.612109	1.641693
0.612207	1.641679
0.612305	1.641627
0.612402	1.641701
0.612500	1.641655
0.612598	1.641708
0.612695	1.641701
0.612793	1.641605
0.612891	1.641680
0.612988	1.641626
0.613086	1.641616
0.613184	1.641640
0.613281	1.641600
0.613379	1.641680
0.613477	1.641684
0.613574	1.641633
0.613672	1.641636
0.613770	1.641708
0.613867	1.641617
0.613965	1.641714
0.614062	1.641626
0.614160	1.641639
0.614258	1.641694
0.614355	1.641740
0.614453	1.641684
0.614551	1.641626
0.614648	1.641657
0.614746	1.641735
0.614844	1.641692
0.614941	1.641661
0.615039	1.641737
0.615137	1.641692
0.615234	1.641751
0.615332	1.641607
0.615430	1.641676
0.615527	1.641632
0.615625	1.641604
0.615723	1.641635
0.615820	1.641677
0.615918	1.641696
0.616016	1.641682
0.616113	1.641605
0.616211	1.641612
0.616309	1.641708
0.616406	1.641567
0.616504	1.641716
0.616602	1.641568
0.616699	1.641621
0.616797	1.641701
0.616895	1.641613
0.616992	1.641637
0.617090	1.641650
0.617187	1.641662
0.617285	1.641653
0.617383	1.641591
0.617480	1.641619
0.617578	1.641619
0.617676	1.641644
0.617773	1.641630
0.617871	1.641656
0.617969	1.641642
0.618066	1.641658
0.618164	1.641660
0.618262	1.641692
0.618359	1.641770
0.618457	1.641666
0.618555	1.641735
0.618652	1.641720
0.618750	1.641720
0.618848	1.641683
0.618945	1.641605
0.619043	1.641620
0.619141	1.641591
0.619238	1.641585
0.619336	1.641657
0.619434	1.641621
0.619531	1.641672
0.619629	1.641669
0.619727	1.641638
0.619824	1.641623
0.619922	1.641651
0.620020	1.641637
0.620117	1.641694
0.620215	1.641629
0.620312	1.641615
0.620410	1.641632
0.620508	1.641633
0.620605	1.641569
0.620703	1.641595
0.620801	1.641621
0.620898	1.641572
0.620996	1.641652
0.621094	1.641586
0.621191	1.641580
0.621289	1.641524
0.621387	1.641541
0.621484	1.641543
0.621582	1.641528
0.621680	1.641430
0.621777	1.641371
0.621875	1.641391
0.621973	1.641536
0.622070	1.641508
0.622168	1.641549
0.622266	1.641487
0.622363	1.641508
0.622461	1.641522
0.622559	1.641505
0.622656	1.641505
0.622754	1.641448
0.622852	1.641512
0.622949	1.641473
0.623047	1.641471
0.623145	1.641472
0.623242	1.641439
0.623340	1.641480
0.623437	1.641512
0.623535	1.641482
0.623633	1.641482
0.623730	1.641408
0.623828	1.641483
0.623926	1.641430
0.624023	1.641488
0.624121	1.641443
0.624219	1.641429
0.624316	1.641416
0.624414	1.641414
0.624512	1.641449
0.624609	1.641414
0.624707	1.641483
0.624805	1.641521
0.624902	1.641522
0.625000	1.641449
0.625098	1.641485
0.625195	1.641442
0.625293	1.641467
0.625391	1.641563
0.625488	1.641417
0.625586	1.641446
0.625684	1.641506
0.625781	1.641459
0.625879	1.641417
0.625977	1.641403
0.626074	1.641417
0.626172	1.641431
0.626270	1.641469
0.626367	1.641502
0.626465	1.641486
0.626562	1.641433
0.626660	1.641553
0.626758	1.641457
0.626855	1.641491
0.626953	1.641483
0.627051	1.641492
0.627148	1.641614
0.627246	1.641527
0.627344	1.641597
0.627441	1.641484
0.627539	1.641580
0.627637	1.641544
0.627734	1.641574
0.627832	1.641549
0.627930	1.641589
0.628027	1.641590
0.628125	1.641555
0.628223	1.641618
0.628320	1.641621
0.628418	1.641663
0.628516	1.641627
0.628613	1.641606
0.628711	1.641698
0.628809	1.641641
0.628906	1.641669
0.629004	1.641686
0.629102	1.641613
0.629199	1.641557
0.629297	1.641619
0.629395	1.641586
0.629492	1.641649
0.629590	1.641686
0.629687	1.641684
0.629785	1.641660
0.629883	1.641600
0.629980	1.641608
0.630078	1.641565
0.630176	1.641661
0.630273	1.641654
0.630371	1.641655
0.630469	1.641676
0.630566	1.641585
0.630664	1.641546
0.630762	1.641720
0.630859	1.641599
0.630957	1.641680
0.631055	1.641549
0.631152	1.641637
0.631250	1.641608
0.631348	1.641613
0.631445	1.641599
0.631543	1.641624
0.631641	1.641637
0.631738	1.641549
0.631836	1.641497
0.631934	1.641606
0.632031	1.641601
0.632129	1.641605
0.632227	1.641612
0.632324	1.641569
0.632422	1.641655
0.632520	1.641616
0.632617	1.641597
0.632715	1.641709
0.632812	1.641679
0.632910	1.641713
0.633008	1.641635
0.633105	1.641625
0.633203	1.641690
0.633301	1.641628
0.633398	1.641616
0.633496	1.641699
0.633594	1.641610
0.633691	1.641687
0.633789	1.641662
0.633887	1.641629
0.633984	1.641680
0.634082	1.641700
0.634180	1.641697
0.634277	1.641676
0.634375	1.641663
0.634473	1.641612
0.634570	1.641638
0.634668	1.641688
0.634766	1.641644
0.634863	1.641675
0.634961	1.641671
0.635059	1.641589
0.635156	1.641636
0.635254	1.641518
0.635352	1.641641
0.635449	1.641639
0.635547	1.641653
0.635645	1.641660
0.635742	1.641612
0.635840	1.641665
0.635937	1.641651
0.636035	1.641583
0.636133	1.641641
0.636230	1.641605
0.636328	1.641655
0.636426	1.641541
0.636523	1.641608
0.636621	1.641624
0.636719	1.641675
0.636816	1.641605
0.636914	1.641680
0.637012	1.641583
0.637109	1.641647
0.637207	1.641674
0.637305	1.641607
0.637402	1.641599
0.637500	1.641662
0.637598	1.641667
0.637695	1.641591
0.637793	1.641644
0.637891	1.641633
0.637988	1.641649
0.638086	1.641697
0.638184	1.641725
0.638281	1.641762
0.638379	1.641743
0.638477	1.641738
0.638574	1.641738
0.638672	1.641698
0.638770	1.641742
0.638867	1.641716
0.638965	1.641643
0.639062	1.641596
0.639160	1.641665
0.639258	1.641604
0.639355	1.641645
0.639453	1.641632
0.639551	1.641790
0.639648	1.641729
0.639746	1.641751
0.639844	1.641624
0.639941	1.641676
0.640039	1.641692
0.640137	1.641624
0.640234	1.641627
0.640332	1.641693
0.640430	1.641644
0.640527	1.641616
0.640625	1.641660
0.640723	1.641699
0.640820	1.641636
0.640918	1.641657
0.641016	1.641696
0.641113	1.641734
0.641211	1.641737
0.641309	1.641679
0.641406	1.641727
0.641504	1.641687
0.641602	1.641623
0.641699	1.641630
0.641797	1.641497
0.641895	1.641608
0.641992	1.641576
0.642090	1.641712
0.642187	1.641704
0.642285	1.641673
0.642383	1.641641
0.642480	1.641704
0.642578	1.641654
0.642676	1.641668
0.642773	1.641724
0.642871	1.641632
0.642969	1.641676
0.643066	1.641639
0.643164	1.641745
0.643262	1.641688
0.643359	1.641686
0.643457	1.641727
0.643555	1.641673
0.643652	1.641704
0.643750	1.641732
0.643848	1.641696
0.643945	1.641684
0.644043	1.641758
0.644141	1.641753
0.644238	1.641635
0.644336	1.641767
0.644434	1.641735
0.644531	1.641699
0.644629	1.641747
0.644727	1.641732
0.644824	1.641738
0.644922	1.641755
0.645020	1.641752
0.645117	1.641715
0.645215	1.641769
0.645312	1.641798
0.645410	1.641808
0.645508	1.641775
0.645605	1.641833
0.645703	1.641778
0.645801	1.641756
0.645898	1.641872
0.645996	1.641783
0.646094	1.641791
0.646191	1.641832
0.646289	1.641804
0.646387	1.641871
0.646484	1.641849
0.646582	1.641879
0.646680	1.641817
0.646777	1.641906
0.646875	1.641797
0.646973	1.641831
0.647070	1.641822
0.647168	1.641864
0.647266	1.641903
0.647363	1.641881
0.647461	1.641860
0.647559	1.641896
0.647656	1.641856
0.647754	1.641857
0.647852	1.641920
0.647949	1.641887
0.648047	1.641932
0.648145	1.641901
0.648242	1.641839
0.648340	1.641928
0.648437	1.641882
0.648535	1.641895
0.648633	1.641902
0.648730	1.641904
0.648828	1.641993
0.648926	1.641849
0.649023	1.641925
0.649121	1.641893
0.649219	1.641805
0.649316	1.641895
0.649414	1.641820
0.649512	1.641889
0.649609	1.641890
0.649707	1.641907
0.649805	1.641853
0.649902	1.641843
0.650000	1.641827
0.650098	1.641832
0.650195	1.641825
0.650293	1.641795
0.650391	1.641826
0.650488	1.641824
0.650586	1.641776
0.650684	1.641829
0.650781	1.641882
0.650879	1.641856
0.650977	1.641849
0.651074	1.641804
0.651172	1.641829
0.651270	1.641818
0.651367	1.641727
0.651465	1.641813
0.651562	1.641775
0.651660	1.641797
0.651758	1.641783
0.651855	1.641658
0.651953	1.641709
0.652051	1.641720
0.652148	1.641777
0.652246	1.641803
0.652344	1.641703
0.652441	1.641799
0.652539	1.641725
0.652637	1.641746
0.652734	1.641746
0.652832	1.641760
0.652930	1.641780
0.653027	1.641688
0.653125	1.641737
0.653223	1.641748
0.653320	1.641807
0.653418	1.641722
0.653516	1.641743
0.653613	1.641745
0.653711	1.641727
0.653809	1.641667
0.653906	1.641787
0.654004	1.641666
0.654102	1.641730
0.654199	1.641671
0.654297	1.641703
0.654395	1.641739
0.654492	1.641676
0.654590	1.641730
0.654687	1.641693
0.654785	1.641723
0.654883	1.641764
0.654980	1.641676
0.655078	1.641716
0.655176	1.641716
0.655273	1.641657
0.655371	1.641644
0.655469	1.641697
0.655566	1.641738
0.655664	1.641691
0.655762	1.641757
0.655859	1.641681
0.655957	1.641656
0.656055	1.641592
0.656152	1.641684
0.656250	1.641715
0.656348	1.641684
0.656445	1.641724
0.656543	1.641636
0.656641	1.641664
0.656738	1.641615
0.656836	1.641682
0.656934	1.641645
0.657031	1.641673
0.657129	1.641684
0.657227	1.641627
0.657324	1.641707
0.657422	1.641687
0.657520	1.641656
0.657617	1.641685
0.657715	1.641652
0.657812	1.641669
0.657910	1.641626
0.658008	1.641688
0.658105	1.641760
0.658203	1.641657
0.658301	1.641701
0.658398	1.641710
0.658496	1.641739
0.658594	1.641723
0.658691	1.641720
0.658789	1.641730
0.658887	1.641804
0.658984	1.641680
0.659082	1.641663
0.659180	1.641610
0.659277	1.641573
0.659375	1.641639
0.659473	1.641671
0.659570	1.641679
0.659668	1.641741
0.659766	1.641713
0.659863	1.641694
0.659961	1.641674
0.660059	1.641700
0.660156	1.641680
0.660254	1.641709
0.660352	1.641711
0.660449	1.641672
0.660547	1.641762
0.660645	1.641698
0.660742	1.641753
0.660840	1.641735
0.660937	1.641688
0.661035	1.641766
0.661133	1.641640
0.661230	1.641756
0.661328	1.641685
0.661426	1.641707
0.661523	1.641556
0.661621	1.641729
0.661719	1.641565
0.661816	1.641543
0.661914	1.641571
0.662012	1.641654
0.662109	1.641660
0.662207	1.641669
0.662305	1.641657
0.662402	1.641713
0.662500	1.641683
0.662598	1.641741
0.662695	1.641724
0.662793	1.641757
0.662891	1.641692
0.662988	1.641621
0.663086	1.641671
0.663184	1.641634
0.663281	1.641682
0.663379	1.641627
0.663477	1.641680
0.663574	1.641641
0.663672	1.641585
0.663770	1.641576
0.663867	1.641603
0.663965	1.641650
0.664062	1.641580
0.664160	1.641654
0.664258	1.641665
0.664355	1.641648
0.664453	1.641639
0.664551	1.641658
0.664648	1.641622
0.664746	1.641581
0.664844	1.641613
0.664941	1.641638
0.665039	1.641644
0.665137	1.641613
0.665234	1.641682
0.665332	1.641680
0.665430	1.641643
0.665527	1.641699
0.665625	1.641660
0.665723	1.641651
0.665820	1.641619
0.665918	1.641631
0.666016	1.641648
0.666113	1.641568
0.666211	1.641605
0.666309	1.641530
0.666406	1.641614
0.666504	1.641610
0.666602	1.641627
0.666699	1.641580
0.666797	1.641543
0.666895	1.641655
0.666992	1.641595
0.667090	1.641616
0.667187	1.641541
0.667285	1.641608
0.667383	1.641599
0.667480	1.641584
0.667578	1.641654
0.667676	1.641570
0.667773	1.641615
0.667871	1.641557
0.667969	1.641622
0.668066	1.641680
0.668164	1.641689
0.668262	1.641646
0.668359	1.641597
0.668457	1.641660
0.668555	1.641625
0.668652	1.641674
0.668750	1.641665
0.668848	1.641655
0.668945	1.641582
0.669043	1.641593
0.669141	1.641648
0.669238	1.641522
0.669336	1.641621
0.669434	1.641607
0.669531	1.641680
0.669629	1.641614
0.669727	1.641629
0.669824	1.641601
0.669922	1.641640
0.670020	1.641595
0.670117	1.641562
0.670215	1.641588
0.670312	1.641557
0.670410	1.641600
0.670508	1.641554
0.670605	1.641552
0.670703	1.641547
0.670801	1.641616
0.670898	1.641550
0.670996	1.641532
0.671094	1.641563
0.671191	1.641518
0.671289	1.641620
0.671387	1.641557
0.671484	1.641549
0.671582	1.641510
0.671680	1.641458
0.671777	1.641457
0.671875	1.641414
0.671973	1.641469
0.672070	1.641533
0.672168	1.641529
0.672266	1.641497
0.672363	1.641485
0.672461	1.641524
0.672559	1.641505
0.672656	1.641457
0.672754	1.641507
0.672852	1.641463
0.672949	1.641489
0.673047	1.641574
0.673145	1.641463
0.673242	1.641560
0.673340	1.641575
0.673437	1.641530
0.673535	1.641548
0.673633	1.641524
0.673730	1.641585
0.673828	1.641482
0.673926	1.641545
0.674023	1.641514
0.674121	1.641608
0.674219	1.641557
0.674316	1.641535
0.674414	1.641579
0.674512	1.641556
0.674609	1.641538
0.674707	1.641561
0.674805	1.641572
0.674902	1.641608
0.675000	1.641613
0.675098	1.641572
0.675195	1.641612
0.675293	1.641477
0.675391	1.641562
0.675488	1.641550
0.675586	1.641540
0.675684	1.641600
0.675781	1.641593
0.675879	1.641573
0.675977	1.641579
0.676074	1.641569
0.676172	1.641627
0.676270	1.641539
0.676367	1.641613
0.676465	1.641502
0.676562	1.641682
0.676660	1.641618
0.676758	1.641589
0.676855	1.641604
0.676953	1.641537
0.677051	1.641602
0.677148	1.641528
0.677246	1.641572
0.677344	1.641588
0.677441	1.641654
0.677539	1.641640
0.677637	1.641517
0.677734	1.641574
0.677832	1.641596
0.677930	1.641620
0.678027	1.641644
0.678125	1.641584
0.678223	1.641606
0.678320	1.641562
0.678418	1.641716
0.678516	1.641680
0.678613	1.641721
0.678711	1.641654
0.678809	1.641709
0.678906	1.641576
0.679004	1.641565
0.679102	1.641557
0.679199	1.641460
0.679297	1.641506
0.679395	1.641580
0.679492	1.641606
0.679590	1.641556
0.679687	1.641616
0.679785	1.641515
0.679883	1.641563
0.679980	1.641586
0.680078	1.641605
0.680176	1.641618
0.680273	1.641621
0.680371	1.641588
0.680469	1.641575
0.680566	1.641610
0.680664	1.641556
0.680762	1.641657
0.680859	1.641617
0.680957	1.641629
0.681055	1.641652
0.681152	1.641569
0.681250	1.641657
0.681348	1.641598
0.681445	1.641565
0.681543	1.641665
0.681641	1.641575
0.681738	1.641541
0.681836	1.641515
0.681934	1.641525
0.682031	1.641624
0.682129	1.641599
0.682227	1.641585
0.682324	1.641613
0.682422	1.641647
0.682520	1.641617
0.682617	1.641658
0.682715	1.641582
0.682812	1.641654
0.682910	1.641627
0.683008	1.641646
0.683105	1.641563
0.683203	1.641641
0.683301	1.641608
0.683398	1.641627
0.683496	1.641565
0.683594	1.641589
0.683691	1.641594
0.683789	1.641618
0.683887	1.641588
0.683984	1.641663
0.684082	1.641551
0.684180	1.641599
0.684277	1.641624
0.684375	1.641611
0.684473	1.641588
0.684570	1.641558
0.684668	1.641610
0.684766	1.641605
0.684863	1.641670
0.684961	1.641663
0.685059	1.641571
0.685156	1.641648
0.685254	1.641588
0.685352	1.641680
0.685449	1.641613
0.685547	1.641588
0.685645	1.641621
0.685742	1.641689
0.685840	1.641579
0.685937	1.641725
0.686035	1.641570
0.686133	1.641668
0.686230	1.641619
0.686328	1.641687
0.686426	1.641651
0.686523	1.641684
0.686621	1.641644
0.686719	1.641632
0.686816	1.641612
0.686914	1.641612
0.687012	1.641671
0.687109	1.641610
0.687207	1.641617
0.687305	1.641578
0.687402	1.641655
0.687500	1.641642
0.687598	1.641716
0.687695	1.641630
0.687793	1.641651
0.687891	1.641705
0.687988	1.641700
0.688086	1.641735
0.688184	1.641719
0.688281	1.641761
0.688379	1.641720
0.688477	1.641728
0.688574	1.641728
0.688672	1.641767
0.688770	1.641735
0.688867	1.641759
0.688965	1.641700
0.689062	1.641668
0.689160	1.641641
0.689258	1.641652
0.689355	1.641726
0.689453	1.641675
0.689551	1.641687
0.689648	1.641790
0.689746	1.641691
0.689844	1.641702
0.689941	1.641730
0.690039	1.641638
0.690137	1.641710
0.690234	1.641644
0.690332	1.641711
0.690430	1.641619
0.690527	1.641675
0.690625	1.641662
0.690723	1.641648
0.690820	1.641674
0.690918	1.641651
0.691016	1.641621
0.691113	1.641601
0.691211	1.641651
0.691309	1.641572
0.691406	1.641503
0.691504	1.641606
0.691602	1.641539
0.691699	1.641545
0.691797	1.641423
0.691895	1.641442
0.691992	1.641522
0.692090	1.641502
0.692187	1.641551
0.692285	1.641472
0.692383	1.641503
0.692480	1.641496
0.692578	1.641425
0.692676	1.641475
0.692773	1.641377
0.692871	1.641447
0.692969	1.641431
0.693066	1.641389
0.693164	1.641449
0.693262	1.641425
0.693359	1.641411
0.693457	1.641427
0.693555	1.641379
0.693652	1.641362
0.693750	1.641411
0.693848	1.641388
0.693945	1.641343
0.694043	1.641379
0.694141	1.641278
0.694238	1.641407
0.694336	1.641412
0.694434	1.641342
0.694531	1.641323
0.694629	1.641346
0.694727	1.641380
0.694824	1.641293
0.694922	1.641372
0.695020	1.641372
0.695117	1.641441
0.695215	1.641393
0.695312	1.641314
0.695410	1.641404
0.695508	1.641339
0.695605	1.641302
0.695703	1.641318
0.695801	1.641311
0.695898	1.641380
0.695996	1.641340
0.696094	1.641388
0.696191	1.641336
0.696289	1.641355
0.696387	1.641374
0.696484	1.641308
0.696582	1.641354
0.696680	1.641372
0.696777	1.641399
0.696875	1.641345
0.696973	1.641414
0.697070	1.641327
0.697168	1.641393
0.697266	1.641330
0.697363	1.641338
0.697461	1.641381
0.697559	1.641370
0.697656	1.641353
0.697754	1.641363
0.697852	1.641325
0.697949	1.641400
0.698047	1.641431
0.698145	1.641433
0.698242	1.641417
0.698340	1.641466
0.698437	1.641431
0.698535	1.641424
0.698633	1.641510
0.698730	1.641529
0.698828	1.641528
0.698926	1.641489
0.699023	1.641408
0.699121	1.641370
0.699219	1.641363
0.699316	1.641493
0.699414	1.641421
0.699512	1.641539
0.699609	1.641488
0.699707	1.641506
0.699805	1.641461
0.699902	1.641406
0.700000	1.641461
0.700098	1.641417
0.700195	1.641458
0.700293	1.641377
0.700391	1.641453
0.700488	1.641405
0.700586	1.641442
0.700684	1.641452
0.700781	1.641472
0.700879	1.641460
0.700977	1.641573
0.701074	1.641489
0.701172	1.641417
0.701270	1.641502
0.701367	1.641458
0.701465	1.641381
0.701562	1.641419
0.701660	1.641436
0.701758	1.641383
0.701855	1.641288
0.701953	1.641374
0.702051	1.641394
0.702148	1.641405
0.702246	1.641375
0.702344	1.641439
0.702441	1.641433
0.702539	1.641425
0.702637	1.641344
0.702734	1.641369
0.702832	1.641364
0.702930	1.641355
0.703027	1.641403
0.703125	1.641423
0.703223	1.641446
0.703320	1.641393
0.703418	1.641412
0.703516	1.641382
0.703613	1.641353
0.703711	1.641409
0.703809	1.641355
0.703906	1.641370
0.704004	1.641331
0.704102	1.641347
0.704199	1.641333
0.704297	1.641258
0.704395	1.641277
0.704492	1.641332
0.704590	1.641290
0.704687	1.641298
0.704785	1.641298
0.704883	1.641250
0.704980	1.641347
0.705078	1.641284
0.705176	1.641270
0.705273	1.641258
0.705371	1.641303
0.705469	1.641319
0.705566	1.641219
0.705664	1.641262
0.705762	1.641319
0.705859	1.641206
0.705957	1.641307
0.706055	1.641206
0.706152	1.641219
0.706250	1.641222
0.706348	1.641212
0.706445	1.641153
0.706543	1.641149
0.706641	1.641264
0.706738	1.641217
0.706836	1.641211
0.706934	1.641257
0.707031	1.641230
0.707129	1.641170
0.707227	1.641175
0.707324	1.641139
0.707422	1.641151
0.707520	1.641240
0.707617	1.641240
0.707715	1.641153
0.707812	1.641128
0.707910	1.641232
0.708008	1.641198
0.708105	1.641227
0.708203	1.641240
0.708301	1.641223
0.708398	1.641235
0.708496	1.641264
0.708594	1.641238
0.708691	1.641264
0.708789	1.641219
0.708887	1.641179
0.708984	1.641173
0.709082	1.641164
0.709180	1.641163
0.709277	1.641106
0.709375	1.641132
0.709473	1.641148
0.709570	1.641178
0.709668	1.641255
0.709766	1.641143
0.709863	1.641178
0.709961	1.641154
0.710059	1.641154
0.710156	1.641224
0.710254	1.641230
0.710352	1.641230
0.710449	1.641206
0.710547	1.641123
0.710645	1.641223
0.710742	1.641178
0.710840	1.641134
0.710937	1.641104
0.711035	1.641212
0.711133	1.641104
0.711230	1.641119
0.711328	1.641101
0.711426	1.641111
0.711523	1.641171
0.711621	1.641102
0.711719	1.641189
0.711816	1.641010
0.711914	1.640970
0.712012	1.641144
0.712109	1.641140
0.712207	1.641098
0.712305	1.641096
0.712402	1.641176
0.712500	1.641084
0.712598	1.641091
0.712695	1.641104
0.712793	1.641111
0.712891	1.641142
0.712988	1.641114
0.713086	1.641124
0.713184	1.641103
0.713281	1.641137
0.713379	1.641100
0.713477	1.641181
0.713574	1.641081
0.713672	1.641142
0.713770	1.641128
0.713867	1.641096
0.713965	1.641164
0.714062	1.641140
0.714160	1.641136
0.714258	1.641165
0.714355	1.641139
0.714453	1.641227
0.714551	1.641168
0.714648	1.641189
0.714746	1.641154
0.714844	1.641155
0.714941	1.641198
0.715039	1.641197
0.715137	1.641191
0.715234	1.641120
0.715332	1.641193
0.715430	1.641126
0.715527	1.641174
0.715625	1.641230
0.715723	1.641149
0.715820	1.641176
0.715918	1.641184
0.716016	1.641178
0.716113	1.641206
0.716211	1.641113
0.716309	1.641137
0.716406	1.641203
0.716504	1.641166
0.716602	1.641240
0.716699	1.641182
0.716797	1.641162
0.716895	1.641170
0.716992	1.641148
0.717090	1.641258
0.717187	1.641215
0.717285	1.641158
0.717383	1.641196
0.717480	1.641183
0.717578	1.641225
0.717676	1.641222
0.717773	1.641225
0.717871	1.641239
0.717969	1.641270
0.718066	1.641258
0.718164	1.641238
0.718262	1.641315
0.718359	1.641302
0.718457	1.641270
0.718555	1.641330
0.718652	1.641294
0.718750	1.641368
0.718848	1.641338
0.718945	1.641246
0.719043	1.641244
0.719141	1.641297
0.719238	1.641236
0.719336	1.641257
0.719434	1.641234
0.719531	1.641273
0.719629	1.641317
0.719727	1.641190
0.719824	1.641217
0.719922	1.641115
0.720020	1.641273
0.720117	1.641195
0.720215	1.641264
0.720312	1.641220
0.720410	1.641233
0.720508	1.641248
0.720605	1.641240
0.720703	1.641212
0.720801	1.641221
0.720898	1.641213
0.720996	1.641217
0.721094	1.641175
0.721191	1.641156
0.721289	1.641162
0.721387	1.641215
0.721484	1.641226
0.721582	1.641235
0.721680	1.641112
0.721777	1.641061
0.721875	1.641034
0.721973	1.641114
0.722070	1.641186
0.722168	1.641186
0.722266	1.641199
0.722363	1.641194
0.722461	1.641170
0.722559	1.641172
0.722656	1.641159
0.722754	1.641120
0.722852	1.641242
0.722949	1.641112
0.723047	1.641175
0.723145	1.641184
0.723242	1.641139
0.723340	1.641192
0.723437	1.641187
0.723535	1.641198
0.723633	1.641198
0.723730	1.641164
0.723828	1.641138
0.723926	1.641170
0.724023	1.641187
0.724121	1.641153
0.724219	1.641221
0.724316	1.641234
0.724414	1.641311
0.724512	1.641250
0.724609	1.641200
0.724707	1.641183
0.724805	1.641235
0.724902	1.641211
0.725000	1.641328
0.725098	1.641271
0.725195	1.641242
0.725293	1.641244
0.725391	1.641226
0.725488	1.641230
0.725586	1.641232
0.725684	1.641293
0.725781	1.641299
0.725879	1.641316
0.725977	1.641345
0.726074	1.641325
0.726172	1.641336
0.726270	1.641343
0.726367	1.641309
0.726465	1.641432
0.726562	1.641358
0.726660	1.641344
0.726758	1.641393
0.726855	1.641392
0.726953	1.641375
0.727051	1.641389
0.727148	1.641408
0.727246	1.641408
0.727344	1.641427
0.727441	1.641403
0.727539	1.641416
0.727637	1.641449
0.727734	1.641435
0.727832	1.641462
0.727930	1.641452
0.728027	1.641563
0.728125	1.641533
0.728223	1.641520
0.728320	1.641572
0.728418	1.641537
0.728516	1.641509
0.728613	1.641564
0.728711	1.641577
0.728809	1.641558
0.728906	1.641504
0.729004	1.641500
0.729102	1.641539
0.729199	1.641509
0.729297	1.641413
0.729395	1.641464
0.729492	1.641536
0.729590	1.641463
0.729687	1.641518
0.729785	1.641492
0.729883	1.641433
0.729980	1.641494
0.730078	1.641400
0.730176	1.641400
0.730273	1.641467
0.730371	1.641383
0.730469	1.641410
0.730566	1.641433
0.730664	1.641341
0.730762	1.641425
0.730859	1.641371
0.730957	1.641447
0.731055	1.641405
0.731152	1.641363
0.731250	1.641403
0.731348	1.641371
0.731445	1.641275
0.731543	1.641312
0.731641	1.641284
0.731738	1.641265
0.731836	1.641190
0.731934	1.641220
0.732031	1.641264
0.732129	1.641270
0.732227	1.641262
0.732324	1.641223
0.732422	1.641270
0.732520	1.641224
0.732617	1.641228
0.732715	1.641261
0.732812	1.641282
0.732910	1.641202
0.733008	1.641252
0.733105	1.641178
0.733203	1.641197
0.733301	1.641189
0.733398	1.641189
0.733496	1.641155
0.733594	1.641143
0.733691	1.641222
0.733789	1.641162
0.733887	1.641211
0.733984	1.641203
0.734082	1.641183
0.734180	1.641192
0.734277	1.641150
0.734375	1.641172
0.734473	1.641110
0.734570	1.641138
0.734668	1.641112
0.734766	1.641116
0.734863	1.641172
0.734961	1.641163
0.735059	1.641154
0.735156	1.641122
0.735254	1.641197
0.735352	1.641131
0.735449	1.641143
0.735547	1.641122
0.735645	1.641223
0.735742	1.641125
0.735840	1.641209
0.735937	1.641125
0.736035	1.641096
0.736133	1.641121
0.736230	1.641118
0.736328	1.641148
0.736426	1.641124
0.736523	1.641126
0.736621	1.641145
0.736719	1.641151
0.736816	1.641118
0.736914	1.641137
0.737012	1.641181
0.737109	1.641090
0.737207	1.641179
0.737305	1.641151
0.737402	1.641126
0.737500	1.641153
0.737598	1.641161
0.737695	1.641176
0.737793	1.641136
0.737891	1.641234
0.737988	1.641187
0.738086	1.641229
0.738184	1.641209
0.738281	1.641229
0.738379	1.641264
0.738477	1.641260
0.738574	1.641245
0.738672	1.641255
0.738770	1.641319
0.738867	1.641320
0.738965	1.641242
0.739062	1.641223
0.739160	1.641131
0.739258	1.641130
0.739355	1.641247
0.739453	1.641219
0.739551	1.641258
0.739648	1.641307
0.739746	1.641289
0.739844	1.641220
0.739941	1.641186
0.740039	1.641278
0.740137	1.641199
0.740234	1.641261
0.740332	1.641230
0.740430	1.641327
0.740527	1.641234
0.740625	1.641242
0.740723	1.641206
0.740820	1.641214
0.740918	1.641176
0.741016	1.641254
0.741113	1.641187
0.741211	1.641186
0.741309	1.641262
0.741406	1.641253
0.741504	1.641235
0.741602	1.641165
0.741699	1.641112
0.741797	1.641065
0.741895	1.641078
0.741992	1.641177
0.742090	1.641112
0.742187	1.641164
0.742285	1.641118
0.742383	1.641209
0.742480	1.641093
0.742578	1.641131
0.742676	1.641094
0.742773	1.641131
0.742871	1.641151
0.742969	1.641140
0.743066	1.641215
0.743164	1.641114
0.743262	1.641120
0.743359	1.641170
0.743457	1.641058
0.743555	1.641142
0.743652	1.641146
0.743750	1.641120
0.743848	1.641127
0.743945	1.641173
0.744043	1.641123
0.744141	1.641104
0.744238	1.641130
0.744336	1.641135
0.744434	1.641156
0.744531	1.641160
0.744629	1.641118
0.744727	1.641192
0.744824	1.641076
0.744922	1.641057
0.745020	1.641161
0.745117	1.641134
0.745215	1.641166
0.745312	1.641166
0.745410	1.641141
0.745508	1.641211
0.745605	1.641214
0.745703	1.641165
0.745801	1.641230
0.745898	1.641169
0.745996	1.641280
0.746094	1.641210
0.746191	1.641236
0.746289	1.641222
0.746387	1.641223
0.746484	1.641256
0.746582	1.641220
0.746680	1.641138
0.746777	1.641193
0.746875	1.641261
0.746973	1.641282
0.747070	1.641214
0.747168	1.641240
0.747266	1.641253
0.747363	1.641277
0.747461	1.641326
0.747559	1.641306
0.747656	1.641303
0.747754	1.641278
0.747852	1.641320
0.747949	1.641344
0.748047	1.641295
0.748145	1.641330
0.748242	1.641373
0.748340	1.641340
0.748437	1.641397
0.748535	1.641359
0.748633	1.641403
0.748730	1.641381
0.748828	1.641443
0.748926	1.641379
0.749023	1.641382
0.749121	1.641392
0.749219	1.641318
0.749316	1.641323
0.749414	1.641403
0.749512	1.641416
0.749609	1.641406
0.749707	1.641435
0.749805	1.641362
0.749902	1.641373
0.750000	1.641336
0.750098	1.641429
0.750195	1.641328
0.750293	1.641463
0.750391	1.641369
0.750488	1.641397
0.750586	1.641373
0.750684	1.641356
0.750781	1.641397
0.750879	1.641344
0.750977	1.641431
0.751074	1.641352
0.751172	1.641370
0.751270	1.641391
0.751367	1.641367
0.751465	1.641346
0.751562	1.641338
0.751660	1.641364
0.751758	1.641310
0.751855	1.641178
0.751953	1.641286
0.752051	1.641333
0.752148	1.641406
0.752246	1.641360
0.752344	1.641292
0.752441	1.641361
0.752539	1.641373
0.752637	1.641331
0.752734	1.641388
0.752832	1.641378
0.752930	1.641417
0.753027	1.641318
0.753125	1.641366
0.753223	1.641369
0.753320	1.641360
0.753418	1.641394
0.753516	1.641383
0.753613	1.641460
0.753711	1.641427
0.753809	1.641367
0.753906	1.641433
0.754004	1.641338
0.754102	1.641472
0.754199	1.641385
0.754297	1.641420
0.754395	1.641359
0.754492	1.641372
0.754590	1.641442
0.754687	1.641464
0.754785	1.641438
0.754883	1.641396
0.754980	1.641457
0.755078	1.641433
0.755176	1.641403
0.755273	1.641427
0.755371	1.641394
0.755469	1.641398
0.755566	1.641402
0.755664	1.641385
0.755762	1.641394
0.755859	1.641414
0.755957	1.641342
0.756055	1.641408
0.756152	1.641330
0.756250	1.641422
0.756348	1.641361
0.756445	1.641435
0.756543	1.641355
0.756641	1.641360
0.756738	1.641386
0.756836	1.641332
0.756934	1.641400
0.757031	1.641382
0.757129	1.641397
0.757227	1.641358
0.757324	1.641358
0.757422	1.641322
0.757520	1.641378
0.757617	1.641355
0.757715	1.641228
0.757812	1.641319
0.757910	1.641314
0.758008	1.641344
0.758105	1.641302
0.758203	1.641367
0.758301	1.641385
0.758398	1.641386
0.758496	1.641382
0.758594	1.641300
0.758691	1.641305
0.758789	1.641319
0.758887	1.641338
0.758984	1.641280
0.759082	1.641197
0.759180	1.641181
0.759277	1.641179
0.759375	1.641235
0.759473	1.641284
0.759570	1.641327
0.759668	1.641364
0.759766	1.641236
0.759863	1.641223
0.759961	1.641143
0.760059	1.641175
0.760156	1.641143
0.760254	1.641190
0.760352	1.641122
0.760449	1.641240
0.760547	1.641161
0.760645	1.641187
0.760742	1.641150
0.760840	1.641183
0.760937	1.641129
0.761035	1.641147
0.761133	1.641198
0.761230	1.641120
0.761328	1.641093
0.761426	1.641132
0.761523	1.641175
0.761621	1.641038
0.761719	1.641123
0.761816	1.641015
0.761914	1.641027
0.762012	1.641156
0.762109	1.641119
0.762207	1.641151
0.762305	1.641149
0.762402	1.641096
0.762500	1.641154
0.762598	1.641147
0.762695	1.641154
0.762793	1.641158
0.762891	1.641101
0.762988	1.641197
0.763086	1.641109
0.763184	1.641201
0.763281	1.641087
0.763379	1.641139
0.763477	1.641214
0.763574	1.641178
0.763672	1.641175
0.763770	1.641137
0.763867	1.641181
0.763965	1.641131
0.764062	1.641182
0.764160	1.641241
0.764258	1.641203
0.764355	1.641228
0.764453	1.641250
0.764551	1.641208
0.764648	1.641192
0.764746	1.641191
0.764844	1.641270
0.764941	1.641195
0.765039	1.641239
0.765137	1.641236
0.765234	1.641252
0.765332	1.641280
0.765430	1.641316
0.765527	1.641277
0.765625	1.641346
0.765723	1.641295
0.765820	1.641258
0.765918	1.641277
0.766016	1.641302
0.766113	1.641296
0.766211	1.641348
0.766309	1.641363
0.766406	1.641297
0.766504	1.641421
0.766602	1.641358
0.766699	1.641351
0.766797	1.641388
0.766895	1.641352
0.766992	1.641419
0.767090	1.641356
0.767187	1.641311
0.767285	1.641377
0.767383	1.641353
0.767480	1.641371
0.767578	1.641394
0.767676	1.641403
0.767773	1.641422
0.767871	1.641374
0.767969	1.641409
0.768066	1.641502
0.768164	1.641472
0.768262	1.641410
0.768359	1.641475
0.768457	1.641486
0.768555	1.641449
0.768652	1.641546
0.768750	1.641444
0.768848	1.641507
0.768945	1.641449
0.769043	1.641436
0.769141	1.641390
0.769238	1.641366
0.769336	1.641383
0.769434	1.641436
0.769531	1.641420
0.769629	1.641367
0.769727	1.641479
0.769824	1.641397
0.769922	1.641376
0.770020	1.641425
0.770117	1.641425
0.770215	1.641356
0.770312	1.641433
0.770410	1.641377
0.770508	1.641382
0.770605	1.641385
0.770703	1.641447
0.770801	1.641400
0.770898	1.641419
0.770996	1.641366
0.771094	1.641369
0.771191	1.641392
0.771289	1.641368
0.771387	1.641354
0.771484	1.641415
0.771582	1.641284
0.771680	1.641422
0.771777	1.641138
0.771875	1.641253
0.771973	1.641363
0.772070	1.641363
0.772168	1.641355
0.772266	1.641329
0.772363	1.641292
0.772461	1.641302
0.772559	1.641278
0.772656	1.641295
0.772754	1.641333
0.772852	1.641276
0.772949	1.641359
0.773047	1.641349
0.773145	1.641365
0.773242	1.641333
0.773340	1.641306
0.773437	1.641286
0.773535	1.641311
0.773633	1.641291
0.773730	1.641263
0.773828	1.641272
0.773926	1.641248
0.774023	1.641333
0.774121	1.641290
0.774219	1.641317
0.774316	1.641261
0.774414	1.641316
0.774512	1.641335
0.774609	1.641264
0.774707	1.641223
0.774805	1.641187
0.774902	1.641224
0.775000	1.641266
0.775098	1.641218
0.775195	1.641254
0.775293	1.641231
0.775391	1.641238
0.775488	1.641190
0.775586	1.641222
0.775684	1.641235
0.775781	1.641273
0.775879	1.641256
0.775977	1.641197
0.776074	1.641194
0.776172	1.641215
0.776270	1.641225
0.776367	1.641254
0.776465	1.641165
0.776562	1.641253
0.776660	1.641199
0.776758	1.641237
0.776855	1.641208
0.776953	1.641168
0.777051	1.641240
0.777148	1.641153
0.777246	1.641201
0.777344	1.641209
0.777441	1.641121
0.777539	1.641209
0.777637	1.641151
0.777734	1.641197
0.777832	1.641191
0.777930	1.641252
0.778027	1.641257
0.778125	1.641281
0.778223	1.641291
0.778320	1.641265
0.778418	1.641298
0.778516	1.641253
0.778613	1.641323
0.778711	1.641258
0.778809	1.641355
0.778906	1.641237
0.779004	1.641236
0.779102	1.641197
0.779199	1.641259
0.779297	1.641151
0.779395	1.641212
0.779492	1.641280
0.779590	1.641239
0.779687	1.641328
0.779785	1.641317
0.779883	1.641311
0.779980	1.641317
0.780078	1.641304
0.780176	1.641360
0.780273	1.641347
0.780371	1.641330
0.780469	1.641387
0.780566	1.641347
0.780664	1.641368
0.780762	1.641333
0.780859	1.641392
0.780957	1.641347
0.781055	1.641384
0.781152	1.641305
0.781250	1.641363
0.781348	1.641341
0.781445	1.641333
0.781543	1.641377
0.781641	1.641309
0.781738	1.641286
0.781836	1.641247
0.781934	1.641321
0.782031	1.641304
0.782129	1.641376
0.782227	1.641315
0.782324	1.641342
0.782422	1.641408
0.782520	1.641381
0.782617	1.641369
0.782715	1.641407
0.782812	1.641348
0.782910	1.641334
0.783008	1.641380
0.783105	1.641330
0.783203	1.641368
0.783301	1.641303
0.783398	1.641356
0.783496	1.641364
0.783594	1.641397
0.783691	1.641395
0.783789	1.641269
0.783887	1.641375
0.783984	1.641269
0.784082	1.641302
0.784180	1.641315
0.784277	1.641350
0.784375	1.641361
0.784473	1.641311
0.784570	1.641289
0.784668	1.641236
0.784766	1.641330
0.784863	1.641249
0.784961	1.641280
0.785059	1.641260
0.785156	1.641332
0.785254	1.641286
0.785352	1.641275
0.785449	1.641233
0.785547	1.641335
0.785645	1.641300
0.785742	1.641269
0.785840	1.641302
0.785937	1.641262
0.786035	1.641320
0.786133	1.641255
0.786230	1.641262
0.786328	1.641305
0.786426	1.641349
0.786523	1.641254
0.786621	1.641300
0.786719	1.641327
0.786816	1.641244
0.786914	1.641195
0.787012	1.641264
0.787109	1.641241
0.787207	1.641214
0.787305	1.641227
0.787402	1.641202
0.787500	1.641256
0.787598	1.641233
0.787695	1.641283
0.787793	1.641222
0.787891	1.641295
0.787988	1.641296
0.788086	1.641333
0.788184	1.641338
0.788281	1.641275
0.788379	1.641306
0.788477	1.641401
0.788574	1.641384
0.788672	1.641343
0.788770	1.641354
0.788867	1.641465
0.788965	1.641404
0.789062	1.641361
0.789160	1.641366
0.789258	1.641290
0.789355	1.641314
0.789453	1.641323
0.789551	1.641376
0.789648	1.641341
0.789746	1.641438
0.789844	1.641441
0.789941	1.641361
0.790039	1.641411
0.790137	1.641395
0.790234	1.641423
0.790332	1.641379
0.790430	1.641433
0.790527	1.641436
0.790625	1.641433
0.790723	1.641436
0.790820	1.641401
0.790918	1.641408
0.791016	1.641453
0.791113	1.641391
0.791211	1.641385
0.791309	1.641436
0.791406	1.641446
0.791504	1.641342
0.791602	1.641418
0.791699	1.641328
0.791797	1.641243
0.791895	1.641254
0.791992	1.641366
0.792090	1.641367
0.792187	1.641417
0.792285	1.641411
0.792383	1.641467
0.792480	1.641380
0.792578	1.641474
0.792676	1.641379
0.792773	1.641444
0.792871	1.641450
0.792969	1.641458
0.793066	1.641425
0.793164	1.641444
0.793262	1.641405
0.793359	1.641439
0.793457	1.641445
0.793555	1.641467
0.793652	1.641521
0.793750	1.641459
0.793848	1.641484
0.793945	1.641505
0.794043	1.641370
0.794141	1.641536
0.794238	1.641469
0.794336	1.641453
0.794434	1.641478
0.794531	1.641500
0.794629	1.641493
0.794727	1.641533
0.794824	1.641498
0.794922	1.641471
0.795020	1.641566
0.795117	1.641505
0.795215	1.641496
0.795312	1.641491
0.795410	1.641470
0.795508	1.641519
0.795605	1.641428
0.795703	1.641490
0.795801	1.641518
0.795898	1.641411
0.795996	1.641507
0.796094	1.641452
0.796191	1.641472
0.796289	1.641451
0.796387	1.641450
0.796484	1.641449
0.796582	1.641499
0.796680	1.641387
0.796777	1.641514
0.796875	1.641433
0.796973	1.641399
0.797070	1.641439
0.797168	1.641469
0.797266	1.641409
0.797363	1.641453
0.797461	1.641442
0.797559	1.641376
0.797656	1.641484
0.797754	1.641431
0.797852	1.641453
0.797949	1.641391
0.798047	1.641470
0.798145	1.641421
0.798242	1.641463
0.798340	1.641436
0.798437	1.641446
0.798535	1.641448
0.798633	1.641417
0.798730	1.641419
0.798828	1.641391
0.798926	1.641422
0.799023	1.641353
0.799121	1.641370
0.799219	1.641311
0.799316	1.641292
0.799414	1.641298
0.799512	1.641380
0.799609	1.641417
0.799707	1.641313
0.799805	1.641323
0.799902	1.641380
0.800000	1.641377
0.800098	1.641344
0.800195	1.641383
0.800293	1.641378
0.800391	1.641344
0.800488	1.641267
0.800586	1.641289
0.800684	1.641297
0.800781	1.641356
0.800879	1.641289
0.800977	1.641259
0.801074	1.641318
0.801172	1.641266
0.801270	1.641256
0.801367	1.641317
0.801465	1.641254
0.801562	1.641284
0.801660	1.641233
0.801758	1.641267
0.801855	1.641173
0.801953	1.641228
0.802051	1.641219
0.802148	1.641217
0.802246	1.641288
0.802344	1.641225
0.802441	1.641236
0.802539	1.641210
0.802637	1.641294
0.802734	1.641281
0.802832	1.641231
0.802930	1.641256
0.803027	1.641239
0.803125	1.641287
0.803223	1.641190
0.803320	1.641246
0.803418	1.641250
0.803516	1.641218
0.803613	1.641198
0.803711	1.641226
0.803809	1.641201
0.803906	1.641230
0.804004	1.641184
0.804102	1.641255
0.804199	1.641248
0.804297	1.641242
0.804395	1.641265
0.804492	1.641256
0.804590	1.641185
0.804687	1.641226
0.804785	1.641209
0.804883	1.641183
0.804980	1.641263
0.805078	1.641184
0.805176	1.641206
0.805273	1.641270
0.805371	1.641178
0.805469	1.641275
0.805566	1.641208
0.805664	1.641209
0.805762	1.641238
0.805859	1.641193
0.805957	1.641210
0.806055	1.641275
0.806152	1.641231
0.806250	1.641258
0.806348	1.641184
0.806445	1.641183
0.806543	1.641197
0.806641	1.641202
0.806738	1.641210
0.806836	1.641222
0.806934	1.641222
0.807031	1.641244
0.807129	1.641209
0.807227	1.641271
0.807324	1.641304
0.807422	1.641207
0.807520	1.641284
0.807617	1.641147
0.807715	1.641305
0.807812	1.641271
0.807910	1.641234
0.808008	1.641258
0.808105	1.641325
0.808203	1.641324
0.808301	1.641302
0.808398	1.641291
0.808496	1.641303
0.808594	1.641350
0.808691	1.641265
0.808789	1.641279
0.808887	1.641250
0.808984	1.641258
0.809082	1.641224
0.809180	1.641233
0.809277	1.641229
0.809375	1.641258
0.809473	1.641264
0.809570	1.641238
0.809668	1.641246
0.809766	1.641246
0.809863	1.641222
0.809961	1.641188
0.810059	1.641234
0.810156	1.641225
0.810254	1.641120
0.810352	1.641209
0.810449	1.641128
0.810547	1.641115
0.810645	1.641194
0.810742	1.641225
0.810840	1.641166
0.810937	1.641170
0.811035	1.641207
0.811133	1.641130
0.811230	1.641181
0.811328	1.641163
0.811426	1.641142
0.811523	1.641179
0.811621	1.641147
0.811719	1.641093
0.811816	1.641063
0.811914	1.640978
0.812012	1.641150
0.812109	1.641111
0.812207	1.641165
0.812305	1.641166
0.812402	1.641150
0.812500	1.641186
0.812598	1.641073
0.812695	1.641187
0.812793	1.641154
0.812891	1.641084
0.812988	1.641126
0.813086	1.641067
0.813184	1.641077
0.813281	1.641151
0.813379	1.641118
0.813477	1.641141
0.813574	1.641192
0.813672	1.641179
0.813770	1.641090
0.813867	1.641086
0.813965	1.641067
0.814062	1.641123
0.814160	1.641149
0.814258	1.641147
0.814355	1.641123
0.814453	1.641095
0.814551	1.641178
0.814648	1.641132
0.814746	1.641125
0.814844	1.641181
0.814941	1.641103
0.815039	1.641195
0.815137	1.641206
0.815234	1.641080
0.815332	1.641174
0.815430	1.641039
0.815527	1.641131
0.815625	1.641090
0.815723	1.641120
0.815820	1.641122
0.815918	1.641155
0.816016	1.641170
0.816113	1.641132
0.816211	1.641207
0.816309	1.641100
0.816406	1.641076
0.816504	1.641132
0.816602	1.641143
0.816699	1.641140
0.816797	1.641181
0.816895	1.641109
0.816992	1.641128
0.817090	1.641176
0.817187	1.641075
0.817285	1.641148
0.817383	1.641144
0.817480	1.641147
0.817578	1.641120
0.817676	1.641104
0.817773	1.641125
0.817871	1.641134
0.817969	1.641176
0.818066	1.641132
0.818164	1.641194
0.818262	1.641135
0.818359	1.641178
0.818457	1.641178
0.818555	1.641290
0.818652	1.641230
0.818750	1.641270
0.818848	1.641253
0.818945	1.641140
0.819043	1.641143
0.819141	1.641073
0.819238	1.641093
0.819336	1.641204
0.819434	1.641226
0.819531	1.641157
0.819629	1.641286
0.819727	1.641228
0.819824	1.641213
0.819922	1.641215
0.820020	1.641235
0.820117	1.641250
0.820215	1.641163
0.820312	1.641277
0.820410	1.641256
0.820508	1.641320
0.820605	1.641195
0.820703	1.641289
0.820801	1.641212
0.820898	1.641305
0.820996	1.641317
0.821094	1.641322
0.821191	1.641272
0.821289	1.641286
0.821387	1.641248
0.821484	1.641216
0.821582	1.641248
0.821680	1.641233
0.821777	1.641156
0.821875	1.641067
0.821973	1.641169
0.822070	1.641200
0.822168	1.641206
0.822266	1.641173
0.822363	1.641207
0.822461	1.641179
0.822559	1.641194
0.822656	1.641103
0.822754	1.641164
0.822852	1.641159
0.822949	1.641233
0.823047	1.641143
0.823145	1.641190
0.823242	1.641197
0.823340	1.641134
0.823437	1.641052
0.823535	1.641071
0.823633	1.641097
0.823730	1.641090
0.823828	1.641093
0.823926	1.641119
0.824023	1.641069
0.824121	1.641048
0.824219	1.641122
0.824316	1.641104
0.824414	1.641067
0.824512	1.641123
0.824609	1.641071
0.824707	1.641042
0.824805	1.641059
0.824902	1.641020
0.825000	1.641001
0.825098	1.640999
0.825195	1.641082
0.825293	1.640968
0.825391	1.641026
0.825488	1.640977
0.825586	1.641002
0.825684	1.640945
0.825781	1.640995
0.825879	1.640949
0.825977	1.640994
0.826074	1.641010
0.826172	1.640993
0.826270	1.640938
0.826367	1.641001
0.826465	1.640909
0.826562	1.640913
0.826660	1.640911
0.826758	1.640939
0.826855	1.640996
0.826953	1.640929
0.827051	1.640915
0.827148	1.640926
0.827246	1.640925
0.827344	1.640888
0.827441	1.640974
0.827539	1.640930
0.827637	1.640882
0.827734	1.640885
0.827832	1.640921
0.827930	1.640931
0.828027	1.640989
0.828125	1.640926
0.828223	1.640894
0.828320	1.641001
0.828418	1.640968
0.828516	1.641034
0.828613	1.640906
0.828711	1.641027
0.828809	1.640961
0.828906	1.640843
0.829004	1.640923
0.829102	1.640850
0.829199	1.640833
0.829297	1.640879
0.829395	1.640874
0.829492	1.640948
0.829590	1.640901
0.829687	1.640896
0.829785	1.640898
0.829883	1.640904
0.829980	1.640911
0.830078	1.640860
0.830176	1.640912
0.830273	1.640830
0.830371	1.640805
0.830469	1.640821
0.830566	1.640888
0.830664	1.640825
0.830762	1.640846
0.830859	1.640840
0.830957	1.640878
0.831055	1.640862
0.831152	1.640837
0.831250	1.640838
0.831348	1.640876
0.831445	1.640771
0.831543	1.640805
0.831641	1.640738
0.831738	1.640725
0.831836	1.640663
0.831934	1.640663
0.832031	1.640768
0.832129	1.640735
0.832227	1.640809
0.832324	1.640671
0.832422	1.640813
0.832520	1.640760
0.832617	1.640713
0.832715	1.640734
0.832812	1.640760
0.832910	1.640758
0.833008	1.640788
0.833105	1.640722
0.833203	1.640771
0.833301	1.640734
0.833398	1.640820
0.833496	1.640778
0.833594	1.640791
0.833691	1.640790
0.833789	1.640740
0.833887	1.640829
0.833984	1.640788
0.834082	1.640807
0.834180	1.640793
0.834277	1.640788
0.834375	1.640788
0.834473	1.640741
0.834570	1.640769
0.834668	1.640805
0.834766	1.640863
0.834863	1.640859
0.834961	1.640804
0.835059	1.640810
0.835156	1.640835
0.835254	1.640774
0.835352	1.640767
0.835449	1.640734
0.835547	1.640869
0.835645	1.640830
0.835742	1.640834
0.835840	1.640783
0.835937	1.640809
0.836035	1.640710
0.836133	1.640846
0.836230	1.640834
0.836328	1.640764
0.836426	1.640799
0.836523	1.640841
0.836621	1.640824
0.836719	1.640833
0.836816	1.640811
0.836914	1.640742
0.837012	1.640830
0.837109	1.640807
0.837207	1.640807
0.837305	1.640851
0.837402	1.640824
0.837500	1.640840
0.837598	1.640827
0.837695	1.640826
0.837793	1.640812
0.837891	1.640842
0.837988	1.640820
0.838086	1.640907
0.838184	1.640858
0.838281	1.640857
0.838379	1.640858
0.838477	1.640893
0.838574	1.640817
0.838672	1.640863
0.838770	1.640837
0.838867	1.640868
0.838965	1.640793
0.839062	1.640759
0.839160	1.640776
0.839258	1.640772
0.839355	1.640772
0.839453	1.640763
0.839551	1.640816
0.839648	1.640817
0.839746	1.640780
0.839844	1.640719
0.839941	1.640758
0.840039	1.640718
0.840137	1.640767
0.840234	1.640744
0.840332	1.640775
0.840430	1.640797
0.840527	1.640769
0.840625	1.640769
0.840723	1.640699
0.840820	1.640679
0.840918	1.640740
0.841016	1.640732
0.841113	1.640693
0.841211	1.640692
0.841309	1.640714
0.841406	1.640686
0.841504	1.640660
0.841602	1.640764
0.841699	1.640610
0.841797	1.640580
0.841895	1.640575
0.841992	1.640580
0.842090	1.640686
0.842187	1.640730
0.842285	1.640636
0.842383	1.640718
0.842480	1.640661
0.842578	1.640653
0.842676	1.640642
0.842773	1.640691
0.842871	1.640635
0.842969	1.640661
0.843066	1.640646
0.843164	1.640662
0.843262	1.640678
0.843359	1.640652
0.843457	1.640667
0.843555	1.640672
0.843652	1.640617
0.843750	1.640621
0.843848	1.640661
0.843945	1.640592
0.844043	1.640569
0.844141	1.640638
0.844238	1.640589
0.844336	1.640641
0.844434	1.640664
0.844531	1.640635
0.844629	1.640689
0.844727	1.640629
0.844824	1.640674
0.844922	1.640668
0.845020	1.640607
0.845117	1.640706
0.845215	1.640625
0.845312	1.640562
0.845410	1.640656
0.845508	1.640698
0.845605	1.640631
0.845703	1.640681
0.845801	1.640637
0.845898	1.640685
0.845996	1.640638
0.846094	1.640703
0.846191	1.640670
0.846289	1.640735
0.846387	1.640663
0.846484	1.640710
0.846582	1.640630
0.846680	1.640635
0.846777	1.640660
0.846875	1.640639
0.846973	1.640740
0.847070	1.640682
0.847168	1.640708
0.847266	1.640748
0.847363	1.640675
0.847461	1.640765
0.847559	1.640699
0.847656	1.640647
0.847754	1.640685
0.847852	1.640732
0.847949	1.640764
0.848047	1.640765
0.848145	1.640822
0.848242	1.640708
0.848340	1.640854
0.848437	1.640790
0.848535	1.640854
0.848633	1.640834
0.848730	1.640871
0.848828	1.640876
0.848926	1.640809
0.849023	1.640808
0.849121	1.640763
0.849219	1.640725
0.849316	1.640741
0.849414	1.640848
0.849512	1.640838
0.849609	1.640874
0.849707	1.640941
0.849805	1.640837
0.849902	1.640871
0.850000	1.640810
0.850098	1.640888
0.850195	1.640824
0.850293	1.640881
0.850391	1.640868
0.850488	1.640818
0.850586	1.640848
0.850684	1.640797
0.850781	1.640797
0.850879	1.640801
0.850977	1.640863
0.851074	1.640913
0.851172	1.640815
0.851270	1.640852
0.851367	1.640863
0.851465	1.640869
0.851562	1.640854
0.851660	1.640799
0.851758	1.640780
0.851855	1.640753
0.851953	1.640705
0.852051	1.640833
0.852148	1.640837
0.852246	1.640819
0.852344	1.640878
0.852441	1.640882
0.852539	1.640829
0.852637	1.640904
0.852734	1.640826
0.852832	1.640887
0.852930	1.640800
0.853027	1.640855
0.853125	1.640843
0.853223	1.640813
0.853320	1.640890
0.853418	1.640785
0.853516	1.640889
0.853613	1.640857
0.853711	1.640887
0.853809	1.640891
0.853906	1.640863
0.854004	1.640875
0.854102	1.640893
0.854199	1.640826
0.854297	1.640880
0.854395	1.640826
0.854492	1.640823
0.854590	1.640810
0.854687	1.640778
0.854785	1.640849
0.854883	1.640835
0.854980	1.640843
0.855078	1.640876
0.855176	1.640822
0.855273	1.640893
0.855371	1.640843
0.855469	1.640785
0.855566	1.640886
0.855664	1.640769
0.855762	1.640824
0.855859	1.640692
0.855957	1.640804
0.856055	1.640816
0.856152	1.640755
0.856250	1.640884
0.856348	1.640835
0.856445	1.640853
0.856543	1.640813
0.856641	1.640903
0.856738	1.640835
0.856836	1.640890
0.856934	1.640826
0.857031	1.640912
0.857129	1.640838
0.857227	1.640831
0.857324	1.640812
0.857422	1.640769
0.857520	1.640833
0.857617	1.640865
0.857715	1.640836
0.857812	1.640892
0.857910	1.640877
0.858008	1.640838
0.858105	1.640837
0.858203	1.640844
0.858301	1.640879
0.858398	1.640882
0.858496	1.640916
0.858594	1.640909
0.858691	1.640873
0.858789	1.640938
0.858887	1.640941
0.858984	1.640929
0.859082	1.640890
0.859180	1.640977
0.859277	1.640821
0.859375	1.640984
0.859473	1.640937
0.859570	1.640890
0.859668	1.641020
0.859766	1.640915
0.859863	1.640980
0.859961	1.640912
0.860059	1.640962
0.860156	1.640944
0.860254	1.640958
0.860352	1.640979
0.860449	1.640956
0.860547	1.640951
0.860645	1.641036
0.860742	1.640973
0.860840	1.641042
0.860937	1.641025
0.861035	1.641071
0.861133	1.641000
0.861230	1.641040
0.861328	1.641103
0.861426	1.640982
0.861523	1.641104
0.861621	1.641060
0.861719	1.641070
0.861816	1.640974
0.861914	1.640971
0.862012	1.641088
0.862109	1.641133
0.862207	1.641134
0.862305	1.641096
0.862402	1.641163
0.862500	1.641076
0.862598	1.641098
0.862695	1.641281
0.862793	1.641201
0.862891	1.641168
0.862988	1.641234
0.863086	1.641191
0.863184	1.641251
0.863281	1.641135
0.863379	1.641266
0.863477	1.641172
0.863574	1.641253
0.863672	1.641262
0.863770	1.641245
0.863867	1.641293
0.863965	1.641244
0.864062	1.641299
0.864160	1.641265
0.864258	1.641288
0.864355	1.641280
0.864453	1.641310
0.864551	1.641397
0.864648	1.641323
0.864746	1.641382
0.864844	1.641409
0.864941	1.641329
0.865039	1.641307
0.865137	1.641361
0.865234	1.641396
0.865332	1.641382
0.865430	1.641391
0.865527	1.641396
0.865625	1.641358
0.865723	1.641435
0.865820	1.641418
0.865918	1.641375
0.866016	1.641416
0.866113	1.641392
0.866211	1.641443
0.866309	1.641497
0.866406	1.641482
0.866504	1.641462
0.866602	1.641425
0.866699	1.641374
0.866797	1.641491
0.866895	1.641456
0.866992	1.641421
0.867090	1.641474
0.867187	1.641475
0.867285	1.641486
0.867383	1.641444
0.867480	1.641478
0.867578	1.641404
0.867676	1.641480
0.867773	1.641383
0.867871	1.641499
0.867969	1.641466
0.868066	1.641449
0.868164	1.641425
0.868262	1.641471
0.868359	1.641404
0.868457	1.641496
0.868555	1.641446
0.868652	1.641560
0.868750	1.641524
0.868848	1.641560
0.868945	1.641489
0.869043	1.641464
0.869141	1.641431
0.869238	1.641409
0.869336	1.641453
0.869434	1.641402
0.869531	1.641544
0.869629	1.641507
0.869727	1.641496
0.869824	1.641477
0.869922	1.641487
0.870020	1.641427
0.870117	1.641467
0.870215	1.641447
0.870312	1.641442
0.870410	1.641509
0.870508	1.641518
0.870605	1.641460
0.870703	1.641549
0.870801	1.641475
0.870898	1.641450
0.870996	1.641576
0.871094	1.641461
0.871191	1.641514
0.871289	1.641472
0.871387	1.641471
0.871484	1.641488
0.871582	1.641427
0.871680	1.641467
0.871777	1.641419
0.871875	1.641334
0.871973	1.641427
0.872070	1.641474
0.872168	1.641449
0.872266	1.641414
0.872363	1.641469
0.872461	1.641449
0.872559	1.641476
0.872656	1.641421
0.872754	1.641460
0.872852	1.641458
0.872949	1.641394
0.873047	1.641478
0.873145	1.641478
0.873242	1.641442
0.873340	1.641497
0.873437	1.641458
0.873535	1.641497
0.873633	1.641452
0.873730	1.641548
0.873828	1.641431
0.873926	1.641449
0.874023	1.641497
0.874121	1.641470
0.874219	1.641460
0.874316	1.641451
0.874414	1.641494
0.874512	1.641528
0.874609	1.641437
0.874707	1.641565
0.874805	1.641528
0.874902	1.641517
0.875000	1.641435
0.875098	1.641499
0.875195	1.641505
0.875293	1.641489
0.875391	1.641450
0.875488	1.641536
0.875586	1.641457
0.875684	1.641502
0.875781	1.641541
0.875879	1.641490
0.875977	1.641557
0.876074	1.641493
0.876172	1.641493
0.876270	1.641448
0.876367	1.641566
0.876465	1.641445
0.876562	1.641569
0.876660	1.641513
0.876758	1.641560
0.876855	1.641523
0.876953	1.641456
0.877051	1.641563
0.877148	1.641538
0.877246	1.641461
0.877344	1.641591
0.877441	1.641466
0.877539	1.641480
0.877637	1.641503
0.877734	1.641522
0.877832	1.641524
0.877930	1.641517
0.878027	1.641532
0.878125	1.641665
0.878223	1.641610
0.878320	1.641610
0.878418	1.641552
0.878516	1.641577
0.878613	1.641658
0.878711	1.641563
0.878809	1.641585
0.878906	1.641576
0.879004	1.641614
0.879102	1.641612
0.879199	1.641485
0.879297	1.641470
0.879395	1.641455
0.879492	1.641554
0.879590	1.641500
0.879687	1.641618
0.879785	1.641556
0.879883	1.641539
0.879980	1.641525
0.880078	1.641600
0.880176	1.641490
0.880273	1.641551
0.880371	1.641513
0.880469	1.641524
0.880566	1.641516
0.880664	1.641486
0.880762	1.641557
0.880859	1.641535
0.880957	1.641576
0.881055	1.641505
0.881152	1.641470
0.881250	1.641496
0.881348	1.641519
0.881445	1.641566
0.881543	1.641423
0.881641	1.641464
0.881738	1.641413
0.881836	1.641325
0.881934	1.641271
0.882031	1.641358
0.882129	1.641427
0.882227	1.641489
0.882324	1.641473
0.882422	1.641547
0.882520	1.641412
0.882617	1.641436
0.882715	1.641513
0.882812	1.641497
0.882910	1.641446
0.883008	1.641499
0.883105	1.641477
0.883203	1.641469
0.883301	1.641477
0.883398	1.641468
0.883496	1.641494
0.883594	1.641527
0.883691	1.641486
0.883789	1.641490
0.883887	1.641482
0.883984	1.641510
0.884082	1.641543
0.884180	1.641431
0.884277	1.641543
0.884375	1.641483
0.884473	1.641545
0.884570	1.641455
0.884668	1.641486
0.884766	1.641546
0.884863	1.641574
0.884961	1.641491
0.885059	1.641568
0.885156	1.641548
0.885254	1.641562
0.885352	1.641610
0.885449	1.641620
0.885547	1.641558
0.885645	1.641649
0.885742	1.641583
0.885840	1.641553
0.885937	1.641544
0.886035	1.641532
0.886133	1.641558
0.886230	1.641569
0.886328	1.641541
0.886426	1.641613
0.886523	1.641472
0.886621	1.641604
0.886719	1.641570
0.886816	1.641514
0.886914	1.641546
0.887012	1.641541
0.887109	1.641544
0.887207	1.641511
0.887305	1.641548
0.887402	1.641630
0.887500	1.641567
0.887598	1.641584
0.887695	1.641587
0.887793	1.641613
0.887891	1.641730
0.887988	1.641575
0.888086	1.641631
0.888184	1.641600
0.888281	1.641677
0.888379	1.641659
0.888477	1.641631
0.888574	1.641660
0.888672	1.641682
0.888770	1.641622
0.888867	1.641658
0.888965	1.641629
0.889062	1.641614
0.889160	1.641608
0.889258	1.641543
0.889355	1.641548
0.889453	1.641586
0.889551	1.641606
0.889648	1.641620
0.889746	1.641592
0.889844	1.641582
0.889941	1.641599
0.890039	1.641625
0.890137	1.641586
0.890234	1.641630
0.890332	1.641612
0.890430	1.641616
0.890527	1.641575
0.890625	1.641591
0.890723	1.641643
0.890820	1.641623
0.890918	1.641590
0.891016	1.641553
0.891113	1.641516
0.891211	1.641456
0.891309	1.641500
0.891406	1.641459
0.891504	1.641596
0.891602	1.641560
0.891699	1.641532
0.891797	1.641467
0.891895	1.641456
0.891992	1.641422
0.892090	1.641605
0.892187	1.641538
0.892285	1.641505
0.892383	1.641646
0.892480	1.641560
0.892578	1.641582
0.892676	1.641568
0.892773	1.641616
0.892871	1.641518
0.892969	1.641548
0.893066	1.641665
0.893164	1.641521
0.893262	1.641568
0.893359	1.641607
0.893457	1.641585
0.893555	1.641565
0.893652	1.641601
0.893750	1.641617
0.893848	1.641601
0.893945	1.641618
0.894043	1.641546
0.894141	1.641624
0.894238	1.641638
0.894336	1.641532
0.894434	1.641550
0.894531	1.641615
0.894629	1.641572
0.894727	1.641610
0.894824	1.641648
0.894922	1.641618
0.895020	1.641607
0.895117	1.641469
0.895215	1.641624
0.895312	1.641489
0.895410	1.641472
0.895508	1.641557
0.895605	1.641550
0.895703	1.641577
0.895801	1.641549
0.895898	1.641589
0.895996	1.641558
0.896094	1.641502
0.896191	1.641534
0.896289	1.641489
0.896387	1.641473
0.896484	1.641494
0.896582	1.641532
0.896680	1.641478
0.896777	1.641536
0.896875	1.641481
0.896973	1.641521
0.897070	1.641519
0.897168	1.641457
0.897266	1.641610
0.897363	1.641541
0.897461	1.641513
0.897559	1.641524
0.897656	1.641558
0.897754	1.641530
0.897852	1.641501
0.897949	1.641527
0.898047	1.641543
0.898145	1.641525
0.898242	1.641558
0.898340	1.641566
0.898437	1.641575
0.898535	1.641601
0.898633	1.641599
0.898730	1.641519
0.898828	1.641607
0.898926	1.641588
0.899023	1.641504
0.899121	1.641555
0.899219	1.641469
0.899316	1.641445
0.899414	1.641494
0.899512	1.641503
0.899609	1.641571
0.899707	1.641562
0.899805	1.641568
0.899902	1.641563
0.900000	1.641533
0.900098	1.641563
0.900195	1.641551
0.900293	1.641535
0.900391	1.641620
0.900488	1.641563
0.900586	1.641548
0.900684	1.641555
0.900781	1.641513
0.900879	1.641641
0.900977	1.641541
0.901074	1.641591
0.901172	1.641517
0.901270	1.641554
0.901367	1.641614
0.901465	1.641494
0.901562	1.641591
0.901660	1.641539
0.901758	1.641548
0.901855	1.641408
0.901953	1.641516
0.902051	1.641521
0.902148	1.641565
0.902246	1.641510
0.902344	1.641564
0.902441	1.641565
0.902539	1.641511
0.902637	1.641559
0.902734	1.641534
0.902832	1.641550
0.902930	1.641561
0.903027	1.641536
0.903125	1.641574
0.903223	1.641467
0.903320	1.641560
0.903418	1.641546
0.903516	1.641531
0.903613	1.641499
0.903711	1.641494
0.903809	1.641546
0.903906	1.641479
0.904004	1.641516
0.904102	1.641525
0.904199	1.641585
0.904297	1.641535
0.904395	1.641571
0.904492	1.641511
0.904590	1.641423
0.904687	1.641466
0.904785	1.641523
0.904883	1.641540
0.904980	1.641478
0.905078	1.641586
0.905176	1.641500
0.905273	1.641496
0.905371	1.641558
0.905469	1.641561
0.905566	1.641503
0.905664	1.641494
0.905762	1.641532
0.905859	1.641534
0.905957	1.641482
0.906055	1.641565
0.906152	1.641507
0.906250	1.641519
0.906348	1.641499
0.906445	1.641539
0.906543	1.641581
0.906641	1.641477
0.906738	1.641502
0.906836	1.641513
0.906934	1.641557
0.907031	1.641535
0.907129	1.641606
0.907227	1.641600
0.907324	1.641493
0.907422	1.641535
0.907520	1.641488
0.907617	1.641550
0.907715	1.641550
0.907812	1.641524
0.907910	1.641514
0.908008	1.641615
0.908105	1.641596
0.908203	1.641582
0.908301	1.641658
0.908398	1.641578
0.908496	1.641633
0.908594	1.641569
0.908691	1.641588
0.908789	1.641552
0.908887	1.641655
0.908984	1.641619
0.909082	1.641586
0.909180	1.641477
0.909277	1.641444
0.909375	1.641552
0.909473	1.641540
0.909570	1.641521
0.909668	1.641617
0.909766	1.641569
0.909863	1.641539
0.909961	1.641493
0.910059	1.641499
0.910156	1.641449
0.910254	1.641528
0.910352	1.641512
0.910449	1.641455
0.910547	1.641460
0.910645	1.641529
0.910742	1.641443
0.910840	1.641467
0.910937	1.641533
0.911035	1.641505
0.911133	1.641478
0.911230	1.641483
0.911328	1.641523
0.911426	1.641423
0.911523	1.641480
0.911621	1.641460
0.911719	1.641382
0.911816	1.641339
0.911914	1.641337
0.912012	1.641430
0.912109	1.641412
0.912207	1.641414
0.912305	1.641450
0.912402	1.641403
0.912500	1.641440
0.912598	1.641339
0.912695	1.641414
0.912793	1.641350
0.912891	1.641358
0.912988	1.641319
0.913086	1.641441
0.913184	1.641359
0.913281	1.641318
0.913379	1.641387
0.913477	1.641344
0.913574	1.641378
0.913672	1.641400
0.913770	1.641408
0.913867	1.641344
0.913965	1.641403
0.914062	1.641317
0.914160	1.641374
0.914258	1.641350
0.914355	1.641356
0.914453	1.641464
0.914551	1.641417
0.914648	1.641311
0.914746	1.641402
0.914844	1.641303
0.914941	1.641347
0.915039	1.641400
0.915137	1.641355
0.915234	1.641377
0.915332	1.641414
0.915430	1.641359
0.915527	1.641298
0.915625	1.641298
0.915723	1.641324
0.915820	1.641366
0.915918	1.641388
0.916016	1.641411
0.916113	1.641383
0.916211	1.641380
0.916309	1.641370
0.916406	1.641358
0.916504	1.641441
0.916602	1.641395
0.916699	1.641388
0.916797	1.641421
0.916895	1.641343
0.916992	1.641408
0.917090	1.641362
0.917187	1.641370
0.917285	1.641422
0.917383	1.641362
0.917480	1.641342
0.917578	1.641367
0.917676	1.641385
0.917773	1.641420
0.917871	1.641383
0.917969	1.641384
0.918066	1.641462
0.918164	1.641408
0.918262	1.641395
0.918359	1.641375
0.918457	1.641451
0.918555	1.641527
0.918652	1.641518
0.918750	1.641517
0.918848	1.641464
0.918945	1.641532
0.919043	1.641477
0.919141	1.641476
0.919238	1.641339
0.919336	1.641424
0.919434	1.641444
0.919531	1.641431
0.919629	1.641486
0.919727	1.641517
0.919824	1.641392
0.919922	1.641402
0.920020	1.641389
0.920117	1.641419
0.920215	1.641413
0.920312	1.641466
0.920410	1.641446
0.920508	1.641449
0.920605	1.641488
0.920703	1.641387
0.920801	1.641451
0.920898	1.641445
0.920996	1.641450
0.921094	1.641433
0.921191	1.641419
0.921289	1.641439
0.921387	1.641460
0.921484	1.641464
0.921582	1.641407
0.921680	1.641434
0.921777	1.641358
0.921875	1.641267
0.921973	1.641323
0.922070	1.641328
0.922168	1.641322
0.922266	1.641352
0.922363	1.641370
0.922461	1.641386
0.922559	1.641400
0.922656	1.641393
0.922754	1.641410
0.922852	1.641368
0.922949	1.641418
0.923047	1.641358
0.923145	1.641353
0.923242	1.641395
0.923340	1.641304
0.923437	1.641383
0.923535	1.641330
0.923633	1.641331
0.923730	1.641351
0.923828	1.641346
0.923926	1.641342
0.924023	1.641314
0.924121	1.641406
0.924219	1.641322
0.924316	1.641430
0.924414	1.641300
0.924512	1.641344
0.924609	1.641388
0.924707	1.641300
0.924805	1.641315
0.924902	1.641381
0.925000	1.641378
0.925098	1.641298
0.925195	1.641399
0.925293	1.641364
0.925391	1.641289
0.925488	1.641332
0.925586	1.641289
0.925684	1.641283
0.925781	1.641365
0.925879	1.641337
0.925977	1.641371
0.926074	1.641283
0.926172	1.641310
0.926270	1.641280
0.926367	1.641247
0.926465	1.641338
0.926562	1.641315
0.926660	1.641262
0.926758	1.641377
0.926855	1.641301
0.926953	1.641217
0.927051	1.641233
0.927148	1.641280
0.927246	1.641315
0.927344	1.641146
0.927441	1.641280
0.927539	1.641176
0.927637	1.641328
0.927734	1.641180
0.927832	1.641246
0.927930	1.641257
0.928027	1.641316
0.928125	1.641298
0.928223	1.641246
0.928320	1.641321
0.928418	1.641325
0.928516	1.641307
0.928613	1.641272
0.928711	1.641290
0.928809	1.641331
0.928906	1.641303
0.929004	1.641223
0.929102	1.641198
0.929199	1.641165
0.929297	1.641094
0.929395	1.641196
0.929492	1.641269
0.929590	1.641244
0.929687	1.641249
0.929785	1.641266
0.929883	1.641195
0.929980	1.641206
0.930078	1.641190
0.930176	1.641158
0.930273	1.641317
0.930371	1.641154
0.930469	1.641246
0.930566	1.641207
0.930664	1.641205
0.930762	1.641197
0.930859	1.641205
0.930957	1.641247
0.931055	1.641219
0.931152	1.641171
0.931250	1.641156
0.931348	1.641164
0.931445	1.641131
0.931543	1.641086
0.931641	1.641129
0.931738	1.641076
0.931836	1.640961
0.931934	1.641012
0.932031	1.641121
0.932129	1.641077
0.932227	1.641157
0.932324	1.641087
0.932422	1.641084
0.932520	1.641013
0.932617	1.641117
0.932715	1.641130
0.932812	1.641093
0.932910	1.641132
0.933008	1.641073
0.933105	1.641078
0.933203	1.641134
0.933301	1.641036
0.933398	1.641068
0.933496	1.641130
0.933594	1.641089
0.933691	1.641122
0.933789	1.641107
0.933887	1.641111
0.933984	1.641086
0.934082	1.641135
0.934180	1.641076
0.934277	1.641106
0.934375	1.641006
0.934473	1.641029
0.934570	1.641082
0.934668	1.641036
0.934766	1.641164
0.934863	1.641086
0.934961	1.641126
0.935059	1.641065
0.935156	1.641076
0.935254	1.641107
0.935352	1.641009
0.935449	1.641043
0.935547	1.641041
0.935645	1.641017
0.935742	1.641007
0.935840	1.641048
0.935937	1.641056
0.936035	1.641086
0.936133	1.641137
0.936230	1.641052
0.936328	1.641047
0.936426	1.641069
0.936523	1.641058
0.936621	1.641087
0.936719	1.641011
0.936816	1.641081
0.936914	1.641054
0.937012	1.641100
0.937109	1.641082
0.937207	1.641033
0.937305	1.641111
0.937402	1.641126
0.937500	1.641079
0.937598	1.641090
0.937695	1.641153
0.937793	1.641105
0.937891	1.641164
0.937988	1.641123
0.938086	1.641257
0.938184	1.641173
0.938281	1.641226
0.938379	1.641176
0.938477	1.641227
0.938574	1.641207
0.938672	1.641189
0.938770	1.641292
0.938867	1.641281
0.938965	1.641106
0.939062	1.641148
0.939160	1.641147
0.939258	1.641097
0.939355	1.641107
0.939453	1.641107
0.939551	1.641132
0.939648	1.641117
0.939746	1.641186
0.939844	1.641096
0.939941	1.641177
0.940039	1.641210
0.940137	1.641215
0.940234	1.641088
0.940332	1.641176
0.940430	1.641158
0.940527	1.641084
0.940625	1.641155
0.940723	1.641143
0.940820	1.641138
0.940918	1.641108
0.941016	1.641161
0.941113	1.641114
0.941211	1.641166
0.941309	1.641062
0.941406	1.641151
0.941504	1.641136
0.941602	1.641064
0.941699	1.641146
0.941797	1.641076
0.941895	1.641014
0.941992	1.641038
0.942090	1.641164
0.942187	1.641146
0.942285	1.641190
0.942383	1.641142
0.942480	1.641135
0.942578	1.641229
0.942676	1.641214
0.942773	1.641100
0.942871	1.641243
0.942969	1.641202
0.943066	1.641190
0.943164	1.641208
0.943262	1.641206
0.943359	1.641203
0.943457	1.641197
0.943555	1.641123
0.943652	1.641173
0.943750	1.641214
0.943848	1.641259
0.943945	1.641251
0.944043	1.641224
0.944141	1.641245
0.944238	1.641214
0.944336	1.641212
0.944434	1.641211
0.944531	1.641217
0.944629	1.641264
0.944727	1.641232
0.944824	1.641198
0.944922	1.641192
0.945020	1.641180
0.945117	1.641233
0.945215	1.641176
0.945312	1.641239
0.945410	1.641256
0.945508	1.641254
0.945605	1.641255
0.945703	1.641258
0.945801	1.641261
0.945898	1.641240
0.945996	1.641163
0.946094	1.641225
0.946191	1.641221
0.946289	1.641225
0.946387	1.641228
0.946484	1.641230
0.946582	1.641269
0.946680	1.641172
0.946777	1.641286
0.946875	1.641181
0.946973	1.641219
0.947070	1.641316
0.947168	1.641201
0.947266	1.641240
0.947363	1.641260
0.947461	1.641294
0.947559	1.641226
0.947656	1.641226
0.947754	1.641256
0.947852	1.641259
0.947949	1.641231
0.948047	1.641274
0.948145	1.641300
0.948242	1.641280
0.948340	1.641340
0.948437	1.641367
0.948535	1.641263
0.948633	1.641298
0.948730	1.641334
0.948828	1.641332
0.948926	1.641291
0.949023	1.641220
0.949121	1.641263
0.949219	1.641204
0.949316	1.641196
0.949414	1.641222
0.949512	1.641306
0.949609	1.641363
0.949707	1.641352
0.949805	1.641363
0.949902	1.641236
0.950000	1.641290
0.950098	1.641281
0.950195	1.641227
0.950293	1.641362
0.950391	1.641336
0.950488	1.641313
0.950586	1.641365
0.950684	1.641302
0.950781	1.641281
0.950879	1.641322
0.950977	1.641363
0.951074	1.641367
0.951172	1.641383
0.951270	1.641382
0.951367	1.641339
0.951465	1.641308
0.951562	1.641345
0.951660	1.641297
0.951758	1.641307
0.951855	1.641269
0.951953	1.641264
0.952051	1.641389
0.952148	1.641350
0.952246	1.641332
0.952344	1.641374
0.952441	1.641311
0.952539	1.641312
0.952637	1.641361
0.952734	1.641327
0.952832	1.641393
0.952930	1.641394
0.953027	1.641382
0.953125	1.641426
0.953223	1.641364
0.953320	1.641407
0.953418	1.641344
0.953516	1.641399
0.953613	1.641381
0.953711	1.641420
0.953809	1.641372
0.953906	1.641422
0.954004	1.641316
0.954102	1.641407
0.954199	1.641475
0.954297	1.641389
0.954395	1.641530
0.954492	1.641405
0.954590	1.641463
0.954687	1.641544
0.954785	1.641489
0.954883	1.641438
0.954980	1.641449
0.955078	1.641477
0.955176	1.641493
0.955273	1.641522
0.955371	1.641457
0.955469	1.641491
0.955566	1.641499
0.955664	1.641514
0.955762	1.641525
0.955859	1.641457
0.955957	1.641489
0.956055	1.641484
0.956152	1.641550
0.956250	1.641566
0.956348	1.641447
0.956445	1.641511
0.956543	1.641529
0.956641	1.641500
0.956738	1.641565
0.956836	1.641485
0.956934	1.641551
0.957031	1.641602
0.957129	1.641585
0.957227	1.641480
0.957324	1.641583
0.957422	1.641560
0.957520	1.641579
0.957617	1.641532
0.957715	1.641544
0.957812	1.641604
0.957910	1.641615
0.958008	1.641612
0.958105	1.641563
0.958203	1.641608
0.958301	1.641580
0.958398	1.641706
0.958496	1.641685
0.958594	1.641618
0.958691	1.641597
0.958789	1.641652
0.958887	1.641678
0.958984	1.641574
0.959082	1.641621
0.959180	1.641552
0.959277	1.641571
0.959375	1.641565
0.959473	1.641604
0.959570	1.641650
0.959668	1.641682
0.959766	1.641567
0.959863	1.641679
0.959961	1.641632
0.960059	1.641586
0.960156	1.641599
0.960254	1.641530
0.960352	1.641619
0.960449	1.641629
0.960547	1.641626
0.960645	1.641694
0.960742	1.641642
0.960840	1.641603
0.960937	1.641685
0.961035	1.641653
0.961133	1.641592
0.961230	1.641607
0.961328	1.641585
0.961426	1.641591
0.961523	1.641566
0.961621	1.641638
0.961719	1.641538
0.961816	1.641553
0.961914	1.641482
0.962012	1.641615
0.962109	1.641599
0.962207	1.641585
0.962305	1.641557
0.962402	1.641574
0.962500	1.641591
0.962598	1.641565
0.962695	1.641580
0.962793	1.641525
0.962891	1.641561
0.962988	1.641555
0.963086	1.641561
0.963184	1.641544
0.963281	1.641568
0.963379	1.641588
0.963477	1.641530
0.963574	1.641569
0.963672	1.641590
0.963770	1.641569
0.963867	1.641557
0.963965	1.641558
0.964062	1.641546
0.964160	1.641574
0.964258	1.641592
0.964355	1.641648
0.964453	1.641668
0.964551	1.641575
0.964648	1.641624
0.964746	1.641665
0.964844	1.641579
0.964941	1.641579
0.965039	1.641632
0.965137	1.641583
0.965234	1.641632
0.965332	1.641714
0.965430	1.641687
0.965527	1.641668
0.965625	1.641671
0.965723	1.641681
0.965820	1.641590
0.965918	1.641674
0.966016	1.641710
0.966113	1.641756
0.966211	1.641724
0.966309	1.641803
0.966406	1.641724
0.966504	1.641742
0.966602	1.641700
0.966699	1.641712
0.966797	1.641721
0.966895	1.641737
0.966992	1.641785
0.967090	1.641737
0.967187	1.641801
0.967285	1.641726
0.967383	1.641869
0.967480	1.641816
0.967578	1.641810
0.967676	1.641772
0.967773	1.641862
0.967871	1.641825
0.967969	1.641834
0.968066	1.641881
0.968164	1.641884
0.968262	1.641860
0.968359	1.641856
0.968457	1.641919
0.968555	1.641862
0.968652	1.641938
0.968750	1.641935
0.968848	1.641992
0.968945	1.641915
0.969043	1.641928
0.969141	1.641914
0.969238	1.641875
0.969336	1.641817
0.969434	1.641898
0.969531	1.641942
0.969629	1.641957
0.969727	1.641922
0.969824	1.641873
0.969922	1.641896
0.970020	1.641914
0.970117	1.641932
0.970215	1.641878
0.970312	1.641873
0.970410	1.641881
0.970508	1.641956
0.970605	1.641885
0.970703	1.641926
0.970801	1.641886
0.970898	1.641923
0.970996	1.641968
0.971094	1.641921
0.971191	1.641895
0.971289	1.641857
0.971387	1.641870
0.971484	1.641910
0.971582	1.641881
0.971680	1.641830
0.971777	1.641823
0.971875	1.641746
0.971973	1.641790
0.972070	1.641800
0.972168	1.641859
0.972266	1.641840
0.972363	1.641747
0.972461	1.641843
0.972559	1.641871
0.972656	1.641777
0.972754	1.641823
0.972852	1.641768
0.972949	1.641845
0.973047	1.641786
0.973145	1.641889
0.973242	1.641843
0.973340	1.641822
0.973437	1.641820
0.973535	1.641748
0.973633	1.641756
0.973730	1.641799
0.973828	1.641756
0.973926	1.641769
0.974023	1.641793
0.974121	1.641840
0.974219	1.641844
0.974316	1.641809
0.974414	1.641868
0.974512	1.641787
0.974609	1.641747
0.974707	1.641726
0.974805	1.641831
0.974902	1.641724
0.975000	1.641795
0.975098	1.641756
0.975195	1.641788
0.975293	1.641773
0.975391	1.641720
0.975488	1.641782
0.975586	1.641789
0.975684	1.641781
0.975781	1.641687
0.975879	1.641729
0.975977	1.641749
0.976074	1.641727
0.976172	1.641648
0.976270	1.641744
0.976367	1.641706
0.976465	1.641754

