LabVIEW Measurement	
Writer_Version	2
Reader_Version	2
Separator	Tab
Decimal_Separator	.
Multi_Headings	Yes
X_Columns	One
Time_Pref	Absolute
Operator	W-Tunnel
Date	1904/01/01
Time	01:00:00
***End_of_Header***	
	
Channels	1	
Samples	10000	
Date	2024/05/17	
Time	18:33:05.1234265562499484936	
Y_Unit_Label	Volts	
X_Dimension	Time	
X0	0.0000000000000000E+0	
Delta_X	9.765625E-5	
***End_of_Header***		
X_Value	Voltage	Comment
0.000000	1.631065
9.765625E-5	1.640784
0.000195	1.643125
0.000293	1.629411
0.000391	1.613962
0.000488	1.649342
0.000586	1.604585
0.000684	1.604919
0.000781	1.594316
0.000879	1.598725
0.000977	1.605595
0.001074	1.643497
0.001172	1.619117
0.001270	1.625496
0.001367	1.670661
0.001465	1.656596
0.001562	1.635964
0.001660	1.647655
0.001758	1.636993
0.001855	1.600624
0.001953	1.585769
0.002051	1.587886
0.002148	1.590218
0.002246	1.613422
0.002344	1.628137
0.002441	1.633474
0.002539	1.641799
0.002637	1.647277
0.002734	1.592356
0.002832	1.592538
0.002930	1.611836
0.003027	1.566367
0.003125	1.566299
0.003223	1.524730
0.003320	1.523314
0.003418	1.506664
0.003516	1.522604
0.003613	1.559934
0.003711	1.540441
0.003809	1.550554
0.003906	1.534589
0.004004	1.553047
0.004102	1.542223
0.004199	1.565738
0.004297	1.548899
0.004395	1.464032
0.004492	1.393586
0.004590	1.342910
0.004687	1.341330
0.004785	1.393033
0.004883	1.420406
0.004980	1.399707
0.005078	1.383945
0.005176	1.399489
0.005273	1.444312
0.005371	1.465808
0.005469	1.449204
0.005566	1.450866
0.005664	1.446504
0.005762	1.402098
0.005859	1.355868
0.005957	1.393723
0.006055	1.421420
0.006152	1.402184
0.006250	1.407565
0.006348	1.420303
0.006445	1.497977
0.006543	1.476942
0.006641	1.435173
0.006738	1.369350
0.006836	1.382095
0.006934	1.399243
0.007031	1.398530
0.007129	1.452098
0.007227	1.494160
0.007324	1.504921
0.007422	1.505485
0.007520	1.507829
0.007617	1.488284
0.007715	1.540505
0.007812	1.507622
0.007910	1.504833
0.008008	1.517416
0.008105	1.491280
0.008203	1.479542
0.008301	1.469969
0.008398	1.483993
0.008496	1.474545
0.008594	1.497255
0.008691	1.500513
0.008789	1.497122
0.008887	1.490665
0.008984	1.458181
0.009082	1.469279
0.009180	1.545650
0.009277	1.583339
0.009375	1.604649
0.009473	1.614718
0.009570	1.620246
0.009668	1.612069
0.009766	1.612770
0.009863	1.607158
0.009961	1.595510
0.010059	1.539508
0.010156	1.463856
0.010254	1.450003
0.010352	1.564188
0.010449	1.578798
0.010547	1.570273
0.010645	1.634382
0.010742	1.637070
0.010840	1.631588
0.010937	1.622676
0.011035	1.588946
0.011133	1.556203
0.011230	1.571918
0.011328	1.588394
0.011426	1.565749
0.011523	1.632975
0.011621	1.667304
0.011719	1.660357
0.011816	1.625189
0.011914	1.611170
0.012012	1.657554
0.012109	1.676795
0.012207	1.647112
0.012305	1.628746
0.012402	1.586290
0.012500	1.611867
0.012598	1.644509
0.012695	1.591131
0.012793	1.555732
0.012891	1.597789
0.012988	1.576435
0.013086	1.565959
0.013184	1.557786
0.013281	1.620718
0.013379	1.592965
0.013477	1.579210
0.013574	1.592183
0.013672	1.573152
0.013770	1.559781
0.013867	1.532759
0.013965	1.564698
0.014062	1.551809
0.014160	1.527191
0.014258	1.555284
0.014355	1.492414
0.014453	1.520591
0.014551	1.581406
0.014648	1.576316
0.014746	1.538377
0.014844	1.602425
0.014941	1.600426
0.015039	1.607289
0.015137	1.623685
0.015234	1.648655
0.015332	1.609670
0.015430	1.571612
0.015527	1.582883
0.015625	1.562748
0.015723	1.578830
0.015820	1.585610
0.015918	1.581807
0.016016	1.555323
0.016113	1.542494
0.016211	1.524720
0.016309	1.498077
0.016406	1.491689
0.016504	1.466824
0.016602	1.478686
0.016699	1.515676
0.016797	1.472115
0.016895	1.421974
0.016992	1.441258
0.017090	1.533628
0.017187	1.531426
0.017285	1.495062
0.017383	1.506739
0.017480	1.522786
0.017578	1.558556
0.017676	1.562759
0.017773	1.515500
0.017871	1.453547
0.017969	1.383341
0.018066	1.377569
0.018164	1.423491
0.018262	1.470999
0.018359	1.470050
0.018457	1.439682
0.018555	1.449922
0.018652	1.492271
0.018750	1.501147
0.018848	1.503898
0.018945	1.576746
0.019043	1.582221
0.019141	1.562854
0.019238	1.596153
0.019336	1.614040
0.019434	1.579742
0.019531	1.599471
0.019629	1.584530
0.019727	1.543138
0.019824	1.544379
0.019922	1.556638
0.020020	1.562381
0.020117	1.550862
0.020215	1.562745
0.020312	1.517312
0.020410	1.554596
0.020508	1.628611
0.020605	1.587771
0.020703	1.567978
0.020801	1.534542
0.020898	1.504429
0.020996	1.504117
0.021094	1.514731
0.021191	1.518725
0.021289	1.506104
0.021387	1.446978
0.021484	1.396200
0.021582	1.349250
0.021680	1.340169
0.021777	1.374869
0.021875	1.394086
0.021973	1.330677
0.022070	1.354889
0.022168	1.402277
0.022266	1.466947
0.022363	1.487012
0.022461	1.478466
0.022559	1.426146
0.022656	1.477421
0.022754	1.552016
0.022852	1.522640
0.022949	1.517809
0.023047	1.505257
0.023145	1.527864
0.023242	1.588034
0.023340	1.584554
0.023437	1.581357
0.023535	1.584198
0.023633	1.591291
0.023730	1.593451
0.023828	1.595008
0.023926	1.596380
0.024023	1.600494
0.024121	1.608644
0.024219	1.618427
0.024316	1.624549
0.024414	1.630135
0.024512	1.638254
0.024609	1.645519
0.024707	1.665066
0.024805	1.655961
0.024902	1.658625
0.025000	1.661869
0.025098	1.667565
0.025195	1.667462
0.025293	1.675279
0.025391	1.679393
0.025488	1.684795
0.025586	1.664110
0.025684	1.617432
0.025781	1.593039
0.025879	1.618484
0.025977	1.665542
0.026074	1.665884
0.026172	1.620449
0.026270	1.568116
0.026367	1.463651
0.026465	1.475287
0.026562	1.492833
0.026660	1.485705
0.026758	1.469698
0.026855	1.478932
0.026953	1.419530
0.027051	1.423662
0.027148	1.436020
0.027246	1.513698
0.027344	1.545643
0.027441	1.494604
0.027539	1.526987
0.027637	1.579516
0.027734	1.608754
0.027832	1.586146
0.027930	1.609306
0.028027	1.592045
0.028125	1.566400
0.028223	1.496459
0.028320	1.502755
0.028418	1.512657
0.028516	1.505559
0.028613	1.511253
0.028711	1.521312
0.028809	1.519293
0.028906	1.512409
0.029004	1.490396
0.029102	1.477300
0.029199	1.458317
0.029297	1.449329
0.029395	1.428617
0.029492	1.450440
0.029590	1.489646
0.029687	1.517460
0.029785	1.538425
0.029883	1.559005
0.029980	1.588077
0.030078	1.595899
0.030176	1.656832
0.030273	1.611753
0.030371	1.514566
0.030469	1.589495
0.030566	1.588861
0.030664	1.611781
0.030762	1.594510
0.030859	1.571927
0.030957	1.559821
0.031055	1.547476
0.031152	1.535951
0.031250	1.541503
0.031348	1.540816
0.031445	1.538411
0.031543	1.529710
0.031641	1.523936
0.031738	1.515614
0.031836	1.519280
0.031934	1.506632
0.032031	1.486866
0.032129	1.458846
0.032227	1.457279
0.032324	1.454115
0.032422	1.407280
0.032520	1.371017
0.032617	1.355399
0.032715	1.348523
0.032812	1.342088
0.032910	1.342565
0.033008	1.359279
0.033105	1.379311
0.033203	1.399692
0.033301	1.406601
0.033398	1.431766
0.033496	1.490125
0.033594	1.558406
0.033691	1.555208
0.033789	1.565463
0.033887	1.556920
0.033984	1.529028
0.034082	1.510396
0.034180	1.501891
0.034277	1.502653
0.034375	1.499342
0.034473	1.492618
0.034570	1.487409
0.034668	1.493638
0.034766	1.506687
0.034863	1.516505
0.034961	1.518819
0.035059	1.530288
0.035156	1.494401
0.035254	1.418566
0.035352	1.377088
0.035449	1.406842
0.035547	1.412889
0.035645	1.465819
0.035742	1.477403
0.035840	1.473389
0.035937	1.462550
0.036035	1.488042
0.036133	1.484306
0.036230	1.485495
0.036328	1.509835
0.036426	1.598427
0.036523	1.587706
0.036621	1.534699
0.036719	1.567458
0.036816	1.513888
0.036914	1.465092
0.037012	1.457306
0.037109	1.466614
0.037207	1.374149
0.037305	1.474150
0.037402	1.477670
0.037500	1.435014
0.037598	1.449359
0.037695	1.470075
0.037793	1.525227
0.037891	1.461405
0.037988	1.372955
0.038086	1.350955
0.038184	1.361475
0.038281	1.320409
0.038379	1.358042
0.038477	1.467580
0.038574	1.503852
0.038672	1.545940
0.038770	1.562272
0.038867	1.479200
0.038965	1.499031
0.039062	1.483362
0.039160	1.478532
0.039258	1.474895
0.039355	1.505366
0.039453	1.504628
0.039551	1.485885
0.039648	1.489428
0.039746	1.504027
0.039844	1.524407
0.039941	1.518075
0.040039	1.524287
0.040137	1.529725
0.040234	1.542349
0.040332	1.537706
0.040430	1.549266
0.040527	1.544693
0.040625	1.535239
0.040723	1.511687
0.040820	1.508498
0.040918	1.472662
0.041016	1.435461
0.041113	1.429211
0.041211	1.398981
0.041309	1.400658
0.041406	1.460847
0.041504	1.489190
0.041602	1.517449
0.041699	1.535196
0.041797	1.549964
0.041895	1.566341
0.041992	1.586912
0.042090	1.562339
0.042187	1.552228
0.042285	1.558393
0.042383	1.554318
0.042480	1.523290
0.042578	1.510103
0.042676	1.473485
0.042773	1.439395
0.042871	1.455510
0.042969	1.472556
0.043066	1.472403
0.043164	1.455834
0.043262	1.458726
0.043359	1.467366
0.043457	1.479758
0.043555	1.493257
0.043652	1.483855
0.043750	1.436481
0.043848	1.406776
0.043945	1.400710
0.044043	1.386936
0.044141	1.342538
0.044238	1.332571
0.044336	1.358992
0.044434	1.412714
0.044531	1.441237
0.044629	1.467993
0.044727	1.489023
0.044824	1.463809
0.044922	1.452528
0.045020	1.423503
0.045117	1.433729
0.045215	1.476192
0.045312	1.474904
0.045410	1.456738
0.045508	1.449243
0.045605	1.429316
0.045703	1.423101
0.045801	1.439021
0.045898	1.482185
0.045996	1.537005
0.046094	1.550865
0.046191	1.536258
0.046289	1.507908
0.046387	1.445178
0.046484	1.362196
0.046582	1.421486
0.046680	1.475137
0.046777	1.463786
0.046875	1.455421
0.046973	1.429833
0.047070	1.412078
0.047168	1.394442
0.047266	1.363301
0.047363	1.331554
0.047461	1.319376
0.047559	1.329032
0.047656	1.365331
0.047754	1.403307
0.047852	1.413613
0.047949	1.424756
0.048047	1.442651
0.048145	1.464582
0.048242	1.474853
0.048340	1.434167
0.048437	1.403664
0.048535	1.393510
0.048633	1.371457
0.048730	1.369338
0.048828	1.367601
0.048926	1.331657
0.049023	1.293290
0.049121	1.316677
0.049219	1.356677
0.049316	1.364009
0.049414	1.345401
0.049512	1.326803
0.049609	1.335031
0.049707	1.341679
0.049805	1.354099
0.049902	1.360379
0.050000	1.348124
0.050098	1.340491
0.050195	1.336410
0.050293	1.317820
0.050391	1.291393
0.050488	1.294503
0.050586	1.377412
0.050684	1.429462
0.050781	1.450757
0.050879	1.476781
0.050977	1.524460
0.051074	1.568196
0.051172	1.587396
0.051270	1.590573
0.051367	1.608581
0.051465	1.633340
0.051562	1.635712
0.051660	1.616900
0.051758	1.578736
0.051855	1.538990
0.051953	1.542655
0.052051	1.541604
0.052148	1.622179
0.052246	1.658054
0.052344	1.657924
0.052441	1.682421
0.052539	1.638924
0.052637	1.646943
0.052734	1.679601
0.052832	1.659215
0.052930	1.661770
0.053027	1.646700
0.053125	1.618052
0.053223	1.633495
0.053320	1.622840
0.053418	1.633468
0.053516	1.636809
0.053613	1.542339
0.053711	1.542466
0.053809	1.578350
0.053906	1.587790
0.054004	1.564041
0.054102	1.587471
0.054199	1.562043
0.054297	1.527061
0.054395	1.508275
0.054492	1.514684
0.054590	1.497710
0.054687	1.516975
0.054785	1.529516
0.054883	1.558532
0.054980	1.541361
0.055078	1.515167
0.055176	1.506326
0.055273	1.434268
0.055371	1.496388
0.055469	1.506036
0.055566	1.450569
0.055664	1.451836
0.055762	1.498215
0.055859	1.487687
0.055957	1.389294
0.056055	1.423584
0.056152	1.481868
0.056250	1.522159
0.056348	1.564605
0.056445	1.570630
0.056543	1.568455
0.056641	1.502768
0.056738	1.475619
0.056836	1.468596
0.056934	1.453830
0.057031	1.484934
0.057129	1.519367
0.057227	1.506463
0.057324	1.548496
0.057422	1.561500
0.057520	1.528963
0.057617	1.535507
0.057715	1.551879
0.057812	1.590606
0.057910	1.558551
0.058008	1.530146
0.058105	1.500690
0.058203	1.456492
0.058301	1.438786
0.058398	1.477339
0.058496	1.435912
0.058594	1.352443
0.058691	1.352965
0.058789	1.483461
0.058887	1.531214
0.058984	1.480662
0.059082	1.512692
0.059180	1.485345
0.059277	1.569656
0.059375	1.600841
0.059473	1.583320
0.059570	1.595764
0.059668	1.514032
0.059766	1.420770
0.059863	1.424002
0.059961	1.470022
0.060059	1.484245
0.060156	1.489942
0.060254	1.473164
0.060352	1.473820
0.060449	1.528077
0.060547	1.534629
0.060645	1.511533
0.060742	1.522421
0.060840	1.555642
0.060937	1.547242
0.061035	1.533685
0.061133	1.546449
0.061230	1.489322
0.061328	1.491546
0.061426	1.524489
0.061523	1.542687
0.061621	1.581017
0.061719	1.566436
0.061816	1.561092
0.061914	1.551389
0.062012	1.537914
0.062109	1.536235
0.062207	1.526311
0.062305	1.507931
0.062402	1.488115
0.062500	1.479157
0.062598	1.474161
0.062695	1.471074
0.062793	1.468012
0.062891	1.448106
0.062988	1.430268
0.063086	1.425681
0.063184	1.429088
0.063281	1.420664
0.063379	1.420238
0.063477	1.429692
0.063574	1.461714
0.063672	1.492414
0.063770	1.486744
0.063867	1.462190
0.063965	1.456177
0.064062	1.465723
0.064160	1.454425
0.064258	1.457877
0.064355	1.463476
0.064453	1.475648
0.064551	1.487878
0.064648	1.485116
0.064746	1.484949
0.064844	1.480220
0.064941	1.476082
0.065039	1.469618
0.065137	1.456008
0.065234	1.447906
0.065332	1.448045
0.065430	1.442989
0.065527	1.443783
0.065625	1.442489
0.065723	1.430485
0.065820	1.408353
0.065918	1.395666
0.066016	1.399940
0.066113	1.406454
0.066211	1.409771
0.066309	1.417148
0.066406	1.450485
0.066504	1.481937
0.066602	1.465888
0.066699	1.443491
0.066797	1.428926
0.066895	1.409925
0.066992	1.409947
0.067090	1.404404
0.067187	1.407778
0.067285	1.423995
0.067383	1.455428
0.067480	1.451406
0.067578	1.420279
0.067676	1.401859
0.067773	1.382146
0.067871	1.352870
0.067969	1.332490
0.068066	1.382386
0.068164	1.406259
0.068262	1.404408
0.068359	1.405849
0.068457	1.394203
0.068555	1.381903
0.068652	1.363342
0.068750	1.335426
0.068848	1.306066
0.068945	1.335086
0.069043	1.368535
0.069141	1.373724
0.069238	1.368589
0.069336	1.339344
0.069434	1.325180
0.069531	1.339749
0.069629	1.387223
0.069727	1.442501
0.069824	1.411942
0.069922	1.400556
0.070020	1.417150
0.070117	1.360704
0.070215	1.337733
0.070312	1.332679
0.070410	1.356559
0.070508	1.415075
0.070605	1.494123
0.070703	1.518628
0.070801	1.541142
0.070898	1.546985
0.070996	1.577947
0.071094	1.608935
0.071191	1.600111
0.071289	1.619638
0.071387	1.618228
0.071484	1.626607
0.071582	1.633473
0.071680	1.626096
0.071777	1.648380
0.071875	1.668597
0.071973	1.657537
0.072070	1.655834
0.072168	1.666709
0.072266	1.678969
0.072363	1.666284
0.072461	1.674622
0.072559	1.689975
0.072656	1.658281
0.072754	1.657870
0.072852	1.683326
0.072949	1.691610
0.073047	1.681748
0.073145	1.679512
0.073242	1.705290
0.073340	1.694945
0.073437	1.707408
0.073535	1.675259
0.073633	1.683088
0.073730	1.672323
0.073828	1.689239
0.073926	1.668712
0.074023	1.652446
0.074121	1.643117
0.074219	1.658719
0.074316	1.627873
0.074414	1.613866
0.074512	1.597522
0.074609	1.598692
0.074707	1.635389
0.074805	1.622204
0.074902	1.623726
0.075000	1.603241
0.075098	1.560519
0.075195	1.544411
0.075293	1.570060
0.075391	1.598315
0.075488	1.582495
0.075586	1.626663
0.075684	1.574738
0.075781	1.547688
0.075879	1.692973
0.075977	1.677659
0.076074	1.638317
0.076172	1.608241
0.076270	1.551954
0.076367	1.502337
0.076465	1.523541
0.076562	1.592043
0.076660	1.598191
0.076758	1.620790
0.076855	1.623786
0.076953	1.595949
0.077051	1.604142
0.077148	1.588763
0.077246	1.597907
0.077344	1.582620
0.077441	1.555912
0.077539	1.615712
0.077637	1.556735
0.077734	1.551115
0.077832	1.580213
0.077930	1.563243
0.078027	1.599773
0.078125	1.629274
0.078223	1.588676
0.078320	1.629299
0.078418	1.660263
0.078516	1.615086
0.078613	1.570866
0.078711	1.547996
0.078809	1.563387
0.078906	1.543308
0.079004	1.498851
0.079102	1.518017
0.079199	1.554906
0.079297	1.522821
0.079395	1.517989
0.079492	1.584842
0.079590	1.541061
0.079687	1.538523
0.079785	1.571336
0.079883	1.572240
0.079980	1.603417
0.080078	1.622223
0.080176	1.524331
0.080273	1.547923
0.080371	1.573730
0.080469	1.550008
0.080566	1.580878
0.080664	1.583717
0.080762	1.615341
0.080859	1.600122
0.080957	1.628597
0.081055	1.623233
0.081152	1.581786
0.081250	1.536196
0.081348	1.560591
0.081445	1.555059
0.081543	1.534406
0.081641	1.495961
0.081738	1.515846
0.081836	1.532276
0.081934	1.500332
0.082031	1.459441
0.082129	1.423830
0.082227	1.404927
0.082324	1.408646
0.082422	1.455674
0.082520	1.506919
0.082617	1.532318
0.082715	1.546861
0.082812	1.562170
0.082910	1.573607
0.083008	1.583334
0.083105	1.583447
0.083203	1.580429
0.083301	1.573936
0.083398	1.570821
0.083496	1.569268
0.083594	1.567963
0.083691	1.567310
0.083789	1.567950
0.083887	1.569667
0.083984	1.572404
0.084082	1.575372
0.084180	1.578798
0.084277	1.582373
0.084375	1.586384
0.084473	1.590775
0.084570	1.595484
0.084668	1.600138
0.084766	1.604846
0.084863	1.609315
0.084961	1.613488
0.085059	1.617268
0.085156	1.620913
0.085254	1.624152
0.085352	1.626993
0.085449	1.629511
0.085547	1.631926
0.085645	1.633705
0.085742	1.634792
0.085840	1.635203
0.085937	1.635146
0.086035	1.634690
0.086133	1.633814
0.086230	1.632519
0.086328	1.631527
0.086426	1.631135
0.086523	1.632212
0.086621	1.634442
0.086719	1.638268
0.086816	1.642675
0.086914	1.648288
0.087012	1.654303
0.087109	1.662087
0.087207	1.669148
0.087305	1.677145
0.087402	1.683032
0.087500	1.687801
0.087598	1.689599
0.087695	1.694752
0.087793	1.689940
0.087891	1.690608
0.087988	1.693375
0.088086	1.710395
0.088184	1.695608
0.088281	1.689110
0.088379	1.681667
0.088477	1.702712
0.088574	1.696869
0.088672	1.649560
0.088770	1.642807
0.088867	1.634224
0.088965	1.659128
0.089062	1.583416
0.089160	1.617183
0.089258	1.636031
0.089355	1.656726
0.089453	1.670257
0.089551	1.659201
0.089648	1.677344
0.089746	1.686698
0.089844	1.672875
0.089941	1.700772
0.090039	1.689944
0.090137	1.645228
0.090234	1.658798
0.090332	1.721194
0.090430	1.716866
0.090527	1.696718
0.090625	1.663663
0.090723	1.620399
0.090820	1.596824
0.090918	1.573750
0.091016	1.590215
0.091113	1.640484
0.091211	1.663962
0.091309	1.645960
0.091406	1.596734
0.091504	1.576254
0.091602	1.568625
0.091699	1.558012
0.091797	1.541183
0.091895	1.520339
0.091992	1.555683
0.092090	1.555299
0.092187	1.549282
0.092285	1.546057
0.092383	1.559551
0.092480	1.542720
0.092578	1.558806
0.092676	1.567224
0.092773	1.581004
0.092871	1.571981
0.092969	1.592588
0.093066	1.609747
0.093164	1.607748
0.093262	1.603135
0.093359	1.610591
0.093457	1.613178
0.093555	1.607210
0.093652	1.616708
0.093750	1.639371
0.093848	1.636643
0.093945	1.599789
0.094043	1.594590
0.094141	1.596164
0.094238	1.590393
0.094336	1.572654
0.094434	1.544833
0.094531	1.537957
0.094629	1.550307
0.094727	1.595312
0.094824	1.555840
0.094922	1.581942
0.095020	1.561697
0.095117	1.534340
0.095215	1.504693
0.095312	1.458503
0.095410	1.464773
0.095508	1.468151
0.095605	1.568873
0.095703	1.583952
0.095801	1.590611
0.095898	1.575015
0.095996	1.564255
0.096094	1.550017
0.096191	1.539859
0.096289	1.526012
0.096387	1.514911
0.096484	1.497529
0.096582	1.487996
0.096680	1.503765
0.096777	1.527620
0.096875	1.528140
0.096973	1.514894
0.097070	1.484656
0.097168	1.456860
0.097266	1.460253
0.097363	1.461063
0.097461	1.462390
0.097559	1.436653
0.097656	1.407111
0.097754	1.396040
0.097852	1.405959
0.097949	1.426744
0.098047	1.433037
0.098145	1.423877
0.098242	1.412880
0.098340	1.463128
0.098437	1.473621
0.098535	1.482076
0.098633	1.507818
0.098730	1.526389
0.098828	1.541968
0.098926	1.551058
0.099023	1.559988
0.099121	1.566751
0.099219	1.573983
0.099316	1.580169
0.099414	1.586674
0.099512	1.592674
0.099609	1.599362
0.099707	1.605978
0.099805	1.613005
0.099902	1.619499
0.100000	1.625601
0.100098	1.632514
0.100195	1.642132
0.100293	1.644689
0.100391	1.643910
0.100488	1.645094
0.100586	1.652489
0.100684	1.663541
0.100781	1.667614
0.100879	1.668326
0.100977	1.672057
0.101074	1.679228
0.101172	1.687579
0.101270	1.697872
0.101367	1.705989
0.101465	1.715901
0.101562	1.709681
0.101660	1.697125
0.101758	1.718642
0.101855	1.716755
0.101953	1.710695
0.102051	1.718514
0.102148	1.720983
0.102246	1.724170
0.102344	1.729326
0.102441	1.721439
0.102539	1.714226
0.102637	1.688942
0.102734	1.635830
0.102832	1.685962
0.102930	1.696235
0.103027	1.683905
0.103125	1.711981
0.103223	1.708644
0.103320	1.674227
0.103418	1.646087
0.103516	1.610260
0.103613	1.605264
0.103711	1.644135
0.103809	1.670260
0.103906	1.641104
0.104004	1.652507
0.104102	1.665900
0.104199	1.661491
0.104297	1.683003
0.104395	1.700972
0.104492	1.699510
0.104590	1.666358
0.104687	1.722112
0.104785	1.721701
0.104883	1.710516
0.104980	1.664718
0.105078	1.661309
0.105176	1.680316
0.105273	1.683733
0.105371	1.698297
0.105469	1.720406
0.105566	1.710863
0.105664	1.707670
0.105762	1.700165
0.105859	1.688648
0.105957	1.667002
0.106055	1.654480
0.106152	1.671630
0.106250	1.673768
0.106348	1.676159
0.106445	1.658940
0.106543	1.676745
0.106641	1.658360
0.106738	1.630446
0.106836	1.619748
0.106934	1.607675
0.107031	1.594027
0.107129	1.592862
0.107227	1.589085
0.107324	1.564279
0.107422	1.560519
0.107520	1.560050
0.107617	1.577055
0.107715	1.575572
0.107812	1.578248
0.107910	1.576542
0.108008	1.561104
0.108105	1.540432
0.108203	1.553349
0.108301	1.544130
0.108398	1.563266
0.108496	1.565079
0.108594	1.577858
0.108691	1.538324
0.108789	1.533875
0.108887	1.586598
0.108984	1.568358
0.109082	1.567020
0.109180	1.530654
0.109277	1.537147
0.109375	1.557731
0.109473	1.582896
0.109570	1.589978
0.109668	1.572893
0.109766	1.552933
0.109863	1.536678
0.109961	1.529092
0.110059	1.501832
0.110156	1.508154
0.110254	1.543127
0.110352	1.574779
0.110449	1.531022
0.110547	1.495455
0.110645	1.526509
0.110742	1.530854
0.110840	1.542045
0.110937	1.526320
0.111035	1.522919
0.111133	1.513307
0.111230	1.500430
0.111328	1.490859
0.111426	1.493439
0.111523	1.477984
0.111621	1.482706
0.111719	1.498850
0.111816	1.495161
0.111914	1.481104
0.112012	1.493701
0.112109	1.491820
0.112207	1.500853
0.112305	1.523110
0.112402	1.538484
0.112500	1.532534
0.112598	1.530325
0.112695	1.531789
0.112793	1.534055
0.112891	1.537477
0.112988	1.542201
0.113086	1.546330
0.113184	1.549499
0.113281	1.551064
0.113379	1.550597
0.113477	1.548545
0.113574	1.547022
0.113672	1.546998
0.113770	1.548001
0.113867	1.550000
0.113965	1.553025
0.114062	1.556603
0.114160	1.560344
0.114258	1.564257
0.114355	1.568430
0.114453	1.572647
0.114551	1.577162
0.114648	1.581741
0.114746	1.586722
0.114844	1.591730
0.114941	1.597028
0.115039	1.602191
0.115137	1.607537
0.115234	1.612827
0.115332	1.618189
0.115430	1.623626
0.115527	1.629160
0.115625	1.634741
0.115723	1.640827
0.115820	1.646851
0.115918	1.653015
0.116016	1.658157
0.116113	1.662864
0.116211	1.666842
0.116309	1.671629
0.116406	1.675967
0.116504	1.681411
0.116602	1.687218
0.116699	1.694809
0.116797	1.701943
0.116895	1.707446
0.116992	1.705329
0.117090	1.709256
0.117187	1.695977
0.117285	1.685188
0.117383	1.611914
0.117480	1.652885
0.117578	1.682267
0.117676	1.646843
0.117773	1.634236
0.117871	1.648484
0.117969	1.676845
0.118066	1.640311
0.118164	1.619181
0.118262	1.594880
0.118359	1.607159
0.118457	1.620476
0.118555	1.633161
0.118652	1.629579
0.118750	1.658128
0.118848	1.653880
0.118945	1.640373
0.119043	1.654550
0.119141	1.626063
0.119238	1.625421
0.119336	1.643304
0.119434	1.658428
0.119531	1.665476
0.119629	1.653235
0.119727	1.660288
0.119824	1.649393
0.119922	1.600937
0.120020	1.550785
0.120117	1.537272
0.120215	1.590851
0.120312	1.588095
0.120410	1.601060
0.120508	1.589525
0.120605	1.579891
0.120703	1.614265
0.120801	1.602775
0.120898	1.607693
0.120996	1.621751
0.121094	1.618278
0.121191	1.691925
0.121289	1.727863
0.121387	1.721674
0.121484	1.710631
0.121582	1.674591
0.121680	1.634789
0.121777	1.654624
0.121875	1.648709
0.121973	1.649660
0.122070	1.669191
0.122168	1.636070
0.122266	1.668471
0.122363	1.667497
0.122461	1.654839
0.122559	1.677097
0.122656	1.676860
0.122754	1.639264
0.122852	1.638966
0.122949	1.653072
0.123047	1.642797
0.123145	1.614942
0.123242	1.612976
0.123340	1.616893
0.123437	1.608866
0.123535	1.599935
0.123633	1.600151
0.123730	1.602117
0.123828	1.575059
0.123926	1.532603
0.124023	1.535077
0.124121	1.533642
0.124219	1.526274
0.124316	1.514444
0.124414	1.491748
0.124512	1.481021
0.124609	1.460216
0.124707	1.415196
0.124805	1.380225
0.124902	1.339609
0.125000	1.314935
0.125098	1.330085
0.125195	1.422810
0.125293	1.467823
0.125391	1.444058
0.125488	1.430345
0.125586	1.414031
0.125684	1.425283
0.125781	1.450077
0.125879	1.494724
0.125977	1.481891
0.126074	1.348777
0.126172	1.314089
0.126270	1.342341
0.126367	1.394850
0.126465	1.430039
0.126562	1.436104
0.126660	1.461154
0.126758	1.483503
0.126855	1.466773
0.126953	1.416750
0.127051	1.352024
0.127148	1.318769
0.127246	1.324938
0.127344	1.349294
0.127441	1.366198
0.127539	1.378822
0.127637	1.368094
0.127734	1.348812
0.127832	1.342257
0.127930	1.327372
0.128027	1.309723
0.128125	1.292105
0.128223	1.279191
0.128320	1.274598
0.128418	1.274147
0.128516	1.269013
0.128613	1.264560
0.128711	1.272142
0.128809	1.313819
0.128906	1.365112
0.129004	1.407798
0.129102	1.440272
0.129199	1.498242
0.129297	1.493122
0.129395	1.472942
0.129492	1.507519
0.129590	1.528479
0.129687	1.545968
0.129785	1.560940
0.129883	1.574973
0.129980	1.589400
0.130078	1.605642
0.130176	1.622738
0.130273	1.637033
0.130371	1.644841
0.130469	1.656701
0.130566	1.671400
0.130664	1.668228
0.130762	1.658353
0.130859	1.658674
0.130957	1.671852
0.131055	1.669561
0.131152	1.634617
0.131250	1.661939
0.131348	1.667653
0.131445	1.664918
0.131543	1.667015
0.131641	1.652696
0.131738	1.644079
0.131836	1.642850
0.131934	1.608263
0.132031	1.573883
0.132129	1.555776
0.132227	1.532154
0.132324	1.561776
0.132422	1.572235
0.132520	1.563592
0.132617	1.565076
0.132715	1.573570
0.132812	1.509028
0.132910	1.493630
0.133008	1.502577
0.133105	1.488038
0.133203	1.515353
0.133301	1.554892
0.133398	1.568265
0.133496	1.552913
0.133594	1.538682
0.133691	1.536900
0.133789	1.535609
0.133887	1.548577
0.133984	1.566092
0.134082	1.598030
0.134180	1.621152
0.134277	1.616758
0.134375	1.606646
0.134473	1.588192
0.134570	1.562543
0.134668	1.551735
0.134766	1.580843
0.134863	1.627865
0.134961	1.626909
0.135059	1.609730
0.135156	1.596905
0.135254	1.574672
0.135352	1.588669
0.135449	1.600697
0.135547	1.595275
0.135645	1.597563
0.135742	1.609407
0.135840	1.621325
0.135937	1.571523
0.136035	1.571640
0.136133	1.609168
0.136230	1.645278
0.136328	1.601500
0.136426	1.563901
0.136523	1.535136
0.136621	1.531695
0.136719	1.547189
0.136816	1.550053
0.136914	1.542482
0.137012	1.529082
0.137109	1.519136
0.137207	1.501104
0.137305	1.473391
0.137402	1.468176
0.137500	1.476344
0.137598	1.481564
0.137695	1.498725
0.137793	1.493950
0.137891	1.505608
0.137988	1.495683
0.138086	1.485566
0.138184	1.479166
0.138281	1.482264
0.138379	1.490362
0.138477	1.481629
0.138574	1.448158
0.138672	1.446682
0.138770	1.468733
0.138867	1.506413
0.138965	1.513945
0.139062	1.518366
0.139160	1.485964
0.139258	1.450918
0.139355	1.453936
0.139453	1.460843
0.139551	1.483191
0.139648	1.486703
0.139746	1.466969
0.139844	1.423618
0.139941	1.387747
0.140039	1.389151
0.140137	1.423500
0.140234	1.429267
0.140332	1.416524
0.140430	1.371849
0.140527	1.340959
0.140625	1.306515
0.140723	1.344911
0.140820	1.445369
0.140918	1.472522
0.141016	1.489818
0.141113	1.507589
0.141211	1.531268
0.141309	1.549750
0.141406	1.517719
0.141504	1.517396
0.141602	1.522812
0.141699	1.509742
0.141797	1.458861
0.141895	1.392228
0.141992	1.359226
0.142090	1.317716
0.142187	1.350866
0.142285	1.395098
0.142383	1.485315
0.142480	1.429974
0.142578	1.441420
0.142676	1.554017
0.142773	1.553967
0.142871	1.569739
0.142969	1.567524
0.143066	1.582185
0.143164	1.585176
0.143262	1.597895
0.143359	1.604063
0.143457	1.618877
0.143555	1.624388
0.143652	1.623843
0.143750	1.621560
0.143848	1.623281
0.143945	1.624732
0.144043	1.633257
0.144141	1.642432
0.144238	1.652612
0.144336	1.660655
0.144434	1.673203
0.144531	1.689965
0.144629	1.679035
0.144727	1.680795
0.144824	1.679974
0.144922	1.697890
0.145020	1.702588
0.145117	1.671242
0.145215	1.682056
0.145312	1.689539
0.145410	1.663839
0.145508	1.628331
0.145605	1.671517
0.145703	1.682527
0.145801	1.689697
0.145898	1.705543
0.145996	1.700859
0.146094	1.665529
0.146191	1.701418
0.146289	1.702390
0.146387	1.682659
0.146484	1.671315
0.146582	1.659712
0.146680	1.659051
0.146777	1.675785
0.146875	1.682667
0.146973	1.662614
0.147070	1.646175
0.147168	1.627936
0.147266	1.639761
0.147363	1.647135
0.147461	1.638098
0.147559	1.628357
0.147656	1.628545
0.147754	1.621780
0.147852	1.600736
0.147949	1.569301
0.148047	1.552605
0.148145	1.563217
0.148242	1.555432
0.148340	1.562485
0.148437	1.582153
0.148535	1.566576
0.148633	1.572468
0.148730	1.570645
0.148828	1.573879
0.148926	1.580905
0.149023	1.573739
0.149121	1.578966
0.149219	1.585350
0.149316	1.608629
0.149414	1.617619
0.149512	1.591638
0.149609	1.561803
0.149707	1.549756
0.149805	1.530601
0.149902	1.534609
0.150000	1.533016
0.150098	1.554820
0.150195	1.572156
0.150293	1.566131
0.150391	1.548950
0.150488	1.525258
0.150586	1.491531
0.150684	1.513772
0.150781	1.512342
0.150879	1.534977
0.150977	1.522177
0.151074	1.527916
0.151172	1.528439
0.151270	1.550835
0.151367	1.539014
0.151465	1.518009
0.151562	1.529376
0.151660	1.536498
0.151758	1.562310
0.151855	1.551141
0.151953	1.574549
0.152051	1.597006
0.152148	1.594876
0.152246	1.581561
0.152344	1.581689
0.152441	1.563325
0.152539	1.554595
0.152637	1.562719
0.152734	1.564395
0.152832	1.546592
0.152930	1.552408
0.153027	1.573789
0.153125	1.542979
0.153223	1.543470
0.153320	1.537921
0.153418	1.549174
0.153516	1.519406
0.153613	1.495278
0.153711	1.448940
0.153809	1.410350
0.153906	1.467907
0.154004	1.507147
0.154102	1.491847
0.154199	1.472388
0.154297	1.372249
0.154395	1.379745
0.154492	1.350443
0.154590	1.401929
0.154687	1.481748
0.154785	1.510983
0.154883	1.531097
0.154980	1.506990
0.155078	1.477046
0.155176	1.494931
0.155273	1.562899
0.155371	1.482168
0.155469	1.467120
0.155566	1.515651
0.155664	1.515744
0.155762	1.517685
0.155859	1.557609
0.155957	1.471580
0.156055	1.387813
0.156152	1.309400
0.156250	1.301512
0.156348	1.308552
0.156445	1.312416
0.156543	1.316358
0.156641	1.323493
0.156738	1.334727
0.156836	1.391333
0.156934	1.396762
0.157031	1.368459
0.157129	1.357167
0.157227	1.328238
0.157324	1.311006
0.157422	1.296365
0.157520	1.272240
0.157617	1.305181
0.157715	1.392488
0.157812	1.435424
0.157910	1.473314
0.158008	1.474612
0.158105	1.459508
0.158203	1.436195
0.158301	1.433654
0.158398	1.445240
0.158496	1.426403
0.158594	1.423982
0.158691	1.443539
0.158789	1.452438
0.158887	1.439929
0.158984	1.411050
0.159082	1.396586
0.159180	1.382254
0.159277	1.355583
0.159375	1.336171
0.159473	1.323409
0.159570	1.307732
0.159668	1.299907
0.159766	1.325668
0.159863	1.339449
0.159961	1.354623
0.160059	1.414777
0.160156	1.486347
0.160254	1.502819
0.160352	1.533404
0.160449	1.571269
0.160547	1.591660
0.160645	1.609711
0.160742	1.623231
0.160840	1.599452
0.160937	1.593933
0.161035	1.568753
0.161133	1.527017
0.161230	1.480722
0.161328	1.454560
0.161426	1.444951
0.161523	1.443980
0.161621	1.495949
0.161719	1.572501
0.161816	1.579875
0.161914	1.545975
0.162012	1.526468
0.162109	1.499794
0.162207	1.526278
0.162305	1.568071
0.162402	1.580258
0.162500	1.592136
0.162598	1.581299
0.162695	1.590151
0.162793	1.581681
0.162891	1.572935
0.162988	1.587179
0.163086	1.640007
0.163184	1.649736
0.163281	1.624936
0.163379	1.574032
0.163477	1.599773
0.163574	1.612943
0.163672	1.645662
0.163770	1.678886
0.163867	1.638011
0.163965	1.609715
0.164062	1.617515
0.164160	1.608513
0.164258	1.637230
0.164355	1.672062
0.164453	1.638016
0.164551	1.661314
0.164648	1.638167
0.164746	1.618863
0.164844	1.597092
0.164941	1.591043
0.165039	1.593749
0.165137	1.575538
0.165234	1.569628
0.165332	1.550152
0.165430	1.553227
0.165527	1.568177
0.165625	1.567712
0.165723	1.550417
0.165820	1.528085
0.165918	1.582480
0.166016	1.619718
0.166113	1.609733
0.166211	1.589712
0.166309	1.598440
0.166406	1.604474
0.166504	1.587979
0.166602	1.579056
0.166699	1.556117
0.166797	1.508301
0.166895	1.491702
0.166992	1.426941
0.167090	1.429479
0.167187	1.393967
0.167285	1.449112
0.167383	1.538521
0.167480	1.547640
0.167578	1.556439
0.167676	1.558260
0.167773	1.546354
0.167871	1.538495
0.167969	1.513842
0.168066	1.426981
0.168164	1.394450
0.168262	1.461135
0.168359	1.501737
0.168457	1.480994
0.168555	1.503926
0.168652	1.484627
0.168750	1.455710
0.168848	1.431120
0.168945	1.407722
0.169043	1.378661
0.169141	1.346249
0.169238	1.338650
0.169336	1.349654
0.169434	1.343751
0.169531	1.331801
0.169629	1.326300
0.169727	1.320157
0.169824	1.316447
0.169922	1.318496
0.170020	1.324893
0.170117	1.344559
0.170215	1.355083
0.170312	1.349892
0.170410	1.335555
0.170508	1.321103
0.170605	1.316972
0.170703	1.312733
0.170801	1.307065
0.170898	1.308000
0.170996	1.311486
0.171094	1.303720
0.171191	1.300548
0.171289	1.296838
0.171387	1.296222
0.171484	1.307124
0.171582	1.329697
0.171680	1.349701
0.171777	1.365976
0.171875	1.380548
0.171973	1.399212
0.172070	1.400963
0.172168	1.420573
0.172266	1.468057
0.172363	1.463210
0.172461	1.430558
0.172559	1.436738
0.172656	1.486868
0.172754	1.479226
0.172852	1.493734
0.172949	1.514683
0.173047	1.518012
0.173145	1.557699
0.173242	1.566071
0.173340	1.570183
0.173437	1.577756
0.173535	1.585375
0.173633	1.577338
0.173730	1.515958
0.173828	1.527688
0.173926	1.553722
0.174023	1.506385
0.174121	1.470384
0.174219	1.514061
0.174316	1.540577
0.174414	1.521061
0.174512	1.526768
0.174609	1.567810
0.174707	1.556609
0.174805	1.581356
0.174902	1.574141
0.175000	1.561966
0.175098	1.571119
0.175195	1.548831
0.175293	1.544625
0.175391	1.527299
0.175488	1.506053
0.175586	1.513820
0.175684	1.524771
0.175781	1.547122
0.175879	1.547727
0.175977	1.540247
0.176074	1.571566
0.176172	1.577799
0.176270	1.575216
0.176367	1.558851
0.176465	1.526279
0.176562	1.501025
0.176660	1.472463
0.176758	1.471698
0.176855	1.498206
0.176953	1.544529
0.177051	1.553997
0.177148	1.534189
0.177246	1.505928
0.177344	1.531493
0.177441	1.496841
0.177539	1.537836
0.177637	1.543288
0.177734	1.537832
0.177832	1.568662
0.177930	1.524163
0.178027	1.528428
0.178125	1.522494
0.178223	1.526763
0.178320	1.542650
0.178418	1.546850
0.178516	1.555840
0.178613	1.592662
0.178711	1.604426
0.178809	1.578063
0.178906	1.483230
0.179004	1.498978
0.179102	1.548507
0.179199	1.542495
0.179297	1.513112
0.179395	1.501143
0.179492	1.494148
0.179590	1.485204
0.179687	1.473203
0.179785	1.479439
0.179883	1.476163
0.179980	1.473107
0.180078	1.489754
0.180176	1.496308
0.180273	1.496558
0.180371	1.492431
0.180469	1.483930
0.180566	1.463550
0.180664	1.446791
0.180762	1.437378
0.180859	1.438385
0.180957	1.435598
0.181055	1.422345
0.181152	1.410510
0.181250	1.412420
0.181348	1.411315
0.181445	1.405702
0.181543	1.401904
0.181641	1.399039
0.181738	1.394936
0.181836	1.385486
0.181934	1.379420
0.182031	1.387145
0.182129	1.403299
0.182227	1.410375
0.182324	1.412301
0.182422	1.415239
0.182520	1.415699
0.182617	1.394906
0.182715	1.373199
0.182812	1.344038
0.182910	1.320114
0.183008	1.279634
0.183105	1.323415
0.183203	1.420726
0.183301	1.472253
0.183398	1.421158
0.183496	1.371870
0.183594	1.444946
0.183691	1.493229
0.183789	1.507694
0.183887	1.476216
0.183984	1.467284
0.184082	1.432771
0.184180	1.402443
0.184277	1.383958
0.184375	1.375472
0.184473	1.382829
0.184570	1.432930
0.184668	1.523577
0.184766	1.552610
0.184863	1.561339
0.184961	1.558180
0.185059	1.528188
0.185156	1.477686
0.185254	1.478634
0.185352	1.457085
0.185449	1.442743
0.185547	1.448743
0.185645	1.476848
0.185742	1.496165
0.185840	1.471887
0.185937	1.452308
0.186035	1.448606
0.186133	1.442994
0.186230	1.443974
0.186328	1.443524
0.186426	1.432954
0.186523	1.452618
0.186621	1.439151
0.186719	1.426425
0.186816	1.441670
0.186914	1.454927
0.187012	1.383441
0.187109	1.323935
0.187207	1.325037
0.187305	1.317543
0.187402	1.347325
0.187500	1.376897
0.187598	1.352192
0.187695	1.422368
0.187793	1.528104
0.187891	1.533706
0.187988	1.549458
0.188086	1.502009
0.188184	1.432059
0.188281	1.369959
0.188379	1.334224
0.188477	1.312190
0.188574	1.373428
0.188672	1.545175
0.188770	1.570995
0.188867	1.527163
0.188965	1.536709
0.189062	1.531419
0.189160	1.487403
0.189258	1.411659
0.189355	1.331213
0.189453	1.286763
0.189551	1.291975
0.189648	1.343321
0.189746	1.369286
0.189844	1.379068
0.189941	1.403178
0.190039	1.379565
0.190137	1.387893
0.190234	1.492251
0.190332	1.512217
0.190430	1.477134
0.190527	1.434884
0.190625	1.512817
0.190723	1.523570
0.190820	1.575263
0.190918	1.622736
0.191016	1.622169
0.191113	1.628610
0.191211	1.653636
0.191309	1.653035
0.191406	1.684974
0.191504	1.631983
0.191602	1.545970
0.191699	1.568184
0.191797	1.602866
0.191895	1.599935
0.191992	1.546542
0.192090	1.555257
0.192187	1.530370
0.192285	1.470833
0.192383	1.433022
0.192480	1.521650
0.192578	1.550443
0.192676	1.520658
0.192773	1.531556
0.192871	1.487325
0.192969	1.475327
0.193066	1.500231
0.193164	1.478986
0.193262	1.534968
0.193359	1.532340
0.193457	1.510637
0.193555	1.520984
0.193652	1.513415
0.193750	1.507244
0.193848	1.505631
0.193945	1.499156
0.194043	1.491665
0.194141	1.517774
0.194238	1.493942
0.194336	1.468835
0.194434	1.490280
0.194531	1.518033
0.194629	1.560284
0.194727	1.640631
0.194824	1.644139
0.194922	1.613744
0.195020	1.657994
0.195117	1.657794
0.195215	1.654305
0.195312	1.643451
0.195410	1.650257
0.195508	1.650163
0.195605	1.688165
0.195703	1.683223
0.195801	1.625708
0.195898	1.490678
0.195996	1.523539
0.196094	1.541540
0.196191	1.600822
0.196289	1.644074
0.196387	1.581661
0.196484	1.567990
0.196582	1.595389
0.196680	1.629126
0.196777	1.612222
0.196875	1.570981
0.196973	1.541305
0.197070	1.498010
0.197168	1.476422
0.197266	1.470615
0.197363	1.431914
0.197461	1.474196
0.197559	1.540052
0.197656	1.562141
0.197754	1.551480
0.197852	1.548004
0.197949	1.551082
0.198047	1.538127
0.198145	1.494622
0.198242	1.488165
0.198340	1.474802
0.198437	1.452268
0.198535	1.470966
0.198633	1.506619
0.198730	1.507506
0.198828	1.504522
0.198926	1.520929
0.199023	1.507523
0.199121	1.493710
0.199219	1.487135
0.199316	1.475630
0.199414	1.441616
0.199512	1.387583
0.199609	1.354347
0.199707	1.393924
0.199805	1.495021
0.199902	1.530764
0.200000	1.537792
0.200098	1.548522
0.200195	1.558377
0.200293	1.556720
0.200391	1.548507
0.200488	1.582301
0.200586	1.615392
0.200684	1.584938
0.200781	1.516323
0.200879	1.453576
0.200977	1.454672
0.201074	1.436774
0.201172	1.465832
0.201270	1.492885
0.201367	1.531584
0.201465	1.523892
0.201562	1.487689
0.201660	1.432842
0.201758	1.417594
0.201855	1.485696
0.201953	1.533212
0.202051	1.577879
0.202148	1.568399
0.202246	1.608224
0.202344	1.591846
0.202441	1.551355
0.202539	1.571747
0.202637	1.573224
0.202734	1.610821
0.202832	1.619969
0.202930	1.613175
0.203027	1.576530
0.203125	1.572263
0.203223	1.559545
0.203320	1.557751
0.203418	1.537767
0.203516	1.539552
0.203613	1.611230
0.203711	1.637194
0.203809	1.646677
0.203906	1.614844
0.204004	1.622831
0.204102	1.623629
0.204199	1.665321
0.204297	1.669798
0.204395	1.639598
0.204492	1.619519
0.204590	1.602468
0.204687	1.598960
0.204785	1.607977
0.204883	1.622321
0.204980	1.619951
0.205078	1.655604
0.205176	1.651472
0.205273	1.666050
0.205371	1.693389
0.205469	1.691616
0.205566	1.690918
0.205664	1.678629
0.205762	1.629058
0.205859	1.608326
0.205957	1.602413
0.206055	1.620546
0.206152	1.606667
0.206250	1.614452
0.206348	1.615485
0.206445	1.597965
0.206543	1.578522
0.206641	1.588434
0.206738	1.592663
0.206836	1.555735
0.206934	1.549538
0.207031	1.549717
0.207129	1.581265
0.207227	1.586090
0.207324	1.568714
0.207422	1.576551
0.207520	1.590925
0.207617	1.614110
0.207715	1.614641
0.207812	1.598160
0.207910	1.623046
0.208008	1.606489
0.208105	1.557948
0.208203	1.552723
0.208301	1.567693
0.208398	1.551752
0.208496	1.523388
0.208594	1.492927
0.208691	1.537147
0.208789	1.600924
0.208887	1.622847
0.208984	1.628137
0.209082	1.632147
0.209180	1.618949
0.209277	1.591097
0.209375	1.575251
0.209473	1.585808
0.209570	1.647211
0.209668	1.562047
0.209766	1.508878
0.209863	1.514231
0.209961	1.498603
0.210059	1.463178
0.210156	1.431626
0.210254	1.406225
0.210352	1.372772
0.210449	1.378852
0.210547	1.395334
0.210645	1.433991
0.210742	1.479119
0.210840	1.513984
0.210937	1.507979
0.211035	1.521123
0.211133	1.519287
0.211230	1.495159
0.211328	1.482905
0.211426	1.505661
0.211523	1.533614
0.211621	1.533386
0.211719	1.542527
0.211816	1.541393
0.211914	1.531386
0.212012	1.530986
0.212109	1.538285
0.212207	1.530581
0.212305	1.517623
0.212402	1.506324
0.212500	1.506483
0.212598	1.500817
0.212695	1.508026
0.212793	1.485314
0.212891	1.454929
0.212988	1.428137
0.213086	1.392746
0.213184	1.362258
0.213281	1.342385
0.213379	1.331903
0.213477	1.321088
0.213574	1.312215
0.213672	1.309988
0.213770	1.317446
0.213867	1.330869
0.213965	1.344510
0.214062	1.349564
0.214160	1.350069
0.214258	1.347727
0.214355	1.336922
0.214453	1.319808
0.214551	1.302317
0.214648	1.289495
0.214746	1.283149
0.214844	1.287477
0.214941	1.303860
0.215039	1.323864
0.215137	1.334871
0.215234	1.338235
0.215332	1.337359
0.215430	1.345265
0.215527	1.360852
0.215625	1.410184
0.215723	1.462361
0.215820	1.455966
0.215918	1.466179
0.216016	1.502522
0.216113	1.541483
0.216211	1.562022
0.216309	1.566917
0.216406	1.571957
0.216504	1.570215
0.216602	1.519002
0.216699	1.437308
0.216797	1.363056
0.216895	1.392973
0.216992	1.402811
0.217090	1.414673
0.217187	1.511303
0.217285	1.558110
0.217383	1.586271
0.217480	1.608093
0.217578	1.616487
0.217676	1.588729
0.217773	1.562768
0.217871	1.547839
0.217969	1.544058
0.218066	1.543948
0.218164	1.538388
0.218262	1.536125
0.218359	1.533041
0.218457	1.533550
0.218555	1.535776
0.218652	1.540943
0.218750	1.547183
0.218848	1.554640
0.218945	1.561817
0.219043	1.569274
0.219141	1.576097
0.219238	1.583109
0.219336	1.590321
0.219434	1.597920
0.219531	1.605763
0.219629	1.613574
0.219727	1.621120
0.219824	1.627677
0.219922	1.633099
0.220020	1.637775
0.220117	1.643135
0.220215	1.648685
0.220312	1.655122
0.220410	1.660145
0.220508	1.666472
0.220605	1.672472
0.220703	1.694641
0.220801	1.688280
0.220898	1.683927
0.220996	1.697951
0.221094	1.698644
0.221191	1.718180
0.221289	1.690352
0.221387	1.697357
0.221484	1.711387
0.221582	1.693960
0.221680	1.701969
0.221777	1.700533
0.221875	1.707020
0.221973	1.701727
0.222070	1.656941
0.222168	1.683598
0.222266	1.680110
0.222363	1.624976
0.222461	1.598142
0.222559	1.545001
0.222656	1.522675
0.222754	1.523053
0.222852	1.569134
0.222949	1.536940
0.223047	1.506520
0.223145	1.488488
0.223242	1.535286
0.223340	1.564742
0.223437	1.565058
0.223535	1.563697
0.223633	1.581795
0.223730	1.630190
0.223828	1.620224
0.223926	1.610976
0.224023	1.660670
0.224121	1.612177
0.224219	1.572515
0.224316	1.555791
0.224414	1.585008
0.224512	1.601186
0.224609	1.598636
0.224707	1.592990
0.224805	1.579004
0.224902	1.510746
0.225000	1.606189
0.225098	1.604976
0.225195	1.585706
0.225293	1.574937
0.225391	1.531274
0.225488	1.453553
0.225586	1.393897
0.225684	1.364664
0.225781	1.431218
0.225879	1.539191
0.225977	1.641855
0.226074	1.632119
0.226172	1.571913
0.226270	1.567520
0.226367	1.592627
0.226465	1.617664
0.226562	1.645987
0.226660	1.650659
0.226758	1.625252
0.226855	1.629529
0.226953	1.596192
0.227051	1.586096
0.227148	1.605700
0.227246	1.608383
0.227344	1.626587
0.227441	1.631943
0.227539	1.621632
0.227637	1.614898
0.227734	1.610847
0.227832	1.610115
0.227930	1.606887
0.228027	1.586126
0.228125	1.585603
0.228223	1.595993
0.228320	1.577163
0.228418	1.575640
0.228516	1.572974
0.228613	1.544861
0.228711	1.531097
0.228809	1.515265
0.228906	1.519151
0.229004	1.519156
0.229102	1.483969
0.229199	1.469989
0.229297	1.472785
0.229395	1.478850
0.229492	1.478621
0.229590	1.477566
0.229687	1.465393
0.229785	1.439512
0.229883	1.408478
0.229980	1.372158
0.230078	1.354569
0.230176	1.341720
0.230273	1.346280
0.230371	1.394307
0.230469	1.457699
0.230566	1.492197
0.230664	1.488022
0.230762	1.475939
0.230859	1.451763
0.230957	1.433410
0.231055	1.416869
0.231152	1.402128
0.231250	1.383398
0.231348	1.395191
0.231445	1.429361
0.231543	1.430813
0.231641	1.432897
0.231738	1.417023
0.231836	1.395110
0.231934	1.403576
0.232031	1.419947
0.232129	1.404913
0.232227	1.363482
0.232324	1.339289
0.232422	1.361038
0.232520	1.391678
0.232617	1.429654
0.232715	1.446886
0.232812	1.460760
0.232910	1.479309
0.233008	1.504760
0.233105	1.513930
0.233203	1.517205
0.233301	1.521279
0.233398	1.524856
0.233496	1.528150
0.233594	1.531277
0.233691	1.534269
0.233789	1.537123
0.233887	1.539781
0.233984	1.542467
0.234082	1.545058
0.234180	1.547956
0.234277	1.550989
0.234375	1.554837
0.234473	1.559211
0.234570	1.564498
0.234668	1.569873
0.234766	1.575877
0.234863	1.581988
0.234961	1.588604
0.235059	1.594845
0.235156	1.601502
0.235254	1.607851
0.235352	1.616073
0.235449	1.621518
0.235547	1.620974
0.235645	1.618972
0.235742	1.619100
0.235840	1.619654
0.235937	1.622959
0.236035	1.625607
0.236133	1.629151
0.236230	1.629770
0.236328	1.633592
0.236426	1.634096
0.236523	1.629808
0.236621	1.599920
0.236719	1.558495
0.236816	1.556459
0.236914	1.526435
0.237012	1.575928
0.237109	1.624249
0.237207	1.640493
0.237305	1.680892
0.237402	1.681366
0.237500	1.668691
0.237598	1.667410
0.237695	1.675522
0.237793	1.678767
0.237891	1.661813
0.237988	1.619524
0.238086	1.582235
0.238184	1.601022
0.238281	1.624899
0.238379	1.607383
0.238477	1.598039
0.238574	1.539072
0.238672	1.543053
0.238770	1.532562
0.238867	1.529528
0.238965	1.481489
0.239062	1.521307
0.239160	1.536346
0.239258	1.575643
0.239355	1.564116
0.239453	1.572976
0.239551	1.553187
0.239648	1.491895
0.239746	1.489307
0.239844	1.478790
0.239941	1.505870
0.240039	1.501346
0.240137	1.530015
0.240234	1.511735
0.240332	1.508169
0.240430	1.563453
0.240527	1.577999
0.240625	1.573102
0.240723	1.578767
0.240820	1.547093
0.240918	1.624788
0.241016	1.652003
0.241113	1.687980
0.241211	1.703335
0.241309	1.671330
0.241406	1.726357
0.241504	1.706239
0.241602	1.684723
0.241699	1.652292
0.241797	1.617821
0.241895	1.630351
0.241992	1.673276
0.242090	1.666442
0.242187	1.644755
0.242285	1.639525
0.242383	1.642798
0.242480	1.617659
0.242578	1.621886
0.242676	1.621380
0.242773	1.611906
0.242871	1.643939
0.242969	1.651524
0.243066	1.630138
0.243164	1.605171
0.243262	1.586401
0.243359	1.574780
0.243457	1.579721
0.243555	1.583586
0.243652	1.538983
0.243750	1.525455
0.243848	1.494854
0.243945	1.481193
0.244043	1.469883
0.244141	1.428207
0.244238	1.406220
0.244336	1.414250
0.244434	1.408125
0.244531	1.372664
0.244629	1.346008
0.244727	1.331923
0.244824	1.296410
0.244922	1.270899
0.245020	1.379911
0.245117	1.442979
0.245215	1.464418
0.245312	1.489081
0.245410	1.476020
0.245508	1.429960
0.245605	1.382040
0.245703	1.396251
0.245801	1.409271
0.245898	1.404938
0.245996	1.377108
0.246094	1.337413
0.246191	1.308370
0.246289	1.307577
0.246387	1.317878
0.246484	1.333351
0.246582	1.406062
0.246680	1.450410
0.246777	1.484275
0.246875	1.525882
0.246973	1.548373
0.247070	1.533276
0.247168	1.522513
0.247266	1.528436
0.247363	1.531197
0.247461	1.533705
0.247559	1.537540
0.247656	1.541935
0.247754	1.547203
0.247852	1.552939
0.247949	1.559495
0.248047	1.566161
0.248145	1.573489
0.248242	1.580114
0.248340	1.587162
0.248437	1.593086
0.248535	1.599946
0.248633	1.605691
0.248730	1.613355
0.248828	1.619625
0.248926	1.628245
0.249023	1.632829
0.249121	1.640080
0.249219	1.640035
0.249316	1.618115
0.249414	1.638688
0.249512	1.650594
0.249609	1.659157
0.249707	1.664746
0.249805	1.668732
0.249902	1.678418
0.250000	1.666351
0.250098	1.668958
0.250195	1.678748
0.250293	1.672705
0.250391	1.689327
0.250488	1.677431
0.250586	1.653545
0.250684	1.599107
0.250781	1.607518
0.250879	1.636751
0.250977	1.659037
0.251074	1.693065
0.251172	1.692615
0.251270	1.699653
0.251367	1.701041
0.251465	1.691499
0.251562	1.672271
0.251660	1.615876
0.251758	1.605091
0.251855	1.577146
0.251953	1.587736
0.252051	1.606407
0.252148	1.624531
0.252246	1.622497
0.252344	1.577183
0.252441	1.613512
0.252539	1.639636
0.252637	1.664522
0.252734	1.681884
0.252832	1.694172
0.252930	1.682925
0.253027	1.674822
0.253125	1.642346
0.253223	1.552052
0.253320	1.575278
0.253418	1.584168
0.253516	1.581664
0.253613	1.588335
0.253711	1.604823
0.253809	1.596123
0.253906	1.589925
0.254004	1.572999
0.254102	1.577222
0.254199	1.584734
0.254297	1.585158
0.254395	1.573199
0.254492	1.564647
0.254590	1.577127
0.254687	1.585219
0.254785	1.577013
0.254883	1.566493
0.254980	1.564096
0.255078	1.587202
0.255176	1.590263
0.255273	1.600663
0.255371	1.580953
0.255469	1.559464
0.255566	1.543104
0.255664	1.546886
0.255762	1.556398
0.255859	1.544896
0.255957	1.517642
0.256055	1.509374
0.256152	1.533557
0.256250	1.566820
0.256348	1.572972
0.256445	1.603282
0.256543	1.581647
0.256641	1.577513
0.256738	1.569727
0.256836	1.618441
0.256934	1.663713
0.257031	1.675558
0.257129	1.636422
0.257227	1.600846
0.257324	1.575552
0.257422	1.585090
0.257520	1.590312
0.257617	1.585409
0.257715	1.568655
0.257812	1.559837
0.257910	1.583031
0.258008	1.545539
0.258105	1.519442
0.258203	1.530060
0.258301	1.561765
0.258398	1.548156
0.258496	1.544357
0.258594	1.528251
0.258691	1.511766
0.258789	1.492604
0.258887	1.469760
0.258984	1.436414
0.259082	1.433376
0.259180	1.446699
0.259277	1.458831
0.259375	1.441859
0.259473	1.435162
0.259570	1.449270
0.259668	1.473032
0.259766	1.472249
0.259863	1.467864
0.259961	1.458703
0.260059	1.459867
0.260156	1.455764
0.260254	1.442113
0.260352	1.445874
0.260449	1.444608
0.260547	1.482124
0.260645	1.510138
0.260742	1.482534
0.260840	1.471403
0.260937	1.464412
0.261035	1.447290
0.261133	1.454688
0.261230	1.457077
0.261328	1.435314
0.261426	1.400209
0.261523	1.438939
0.261621	1.468277
0.261719	1.480353
0.261816	1.481162
0.261914	1.460070
0.262012	1.448605
0.262109	1.471050
0.262207	1.511087
0.262305	1.506067
0.262402	1.478980
0.262500	1.464645
0.262598	1.439415
0.262695	1.412113
0.262793	1.364194
0.262891	1.335838
0.262988	1.343571
0.263086	1.340148
0.263184	1.316834
0.263281	1.333580
0.263379	1.394808
0.263477	1.443050
0.263574	1.477480
0.263672	1.490981
0.263770	1.491696
0.263867	1.496202
0.263965	1.506250
0.264062	1.517430
0.264160	1.527161
0.264258	1.533641
0.264355	1.540596
0.264453	1.546273
0.264551	1.553519
0.264648	1.559954
0.264746	1.569629
0.264844	1.579226
0.264941	1.593423
0.265039	1.605791
0.265137	1.619370
0.265234	1.625806
0.265332	1.612397
0.265430	1.588723
0.265527	1.590590
0.265625	1.576935
0.265723	1.601263
0.265820	1.627131
0.265918	1.647448
0.266016	1.669597
0.266113	1.687957
0.266211	1.678800
0.266309	1.655559
0.266406	1.672480
0.266504	1.620910
0.266602	1.579076
0.266699	1.552980
0.266797	1.606280
0.266895	1.601429
0.266992	1.627040
0.267090	1.625484
0.267187	1.612040
0.267285	1.608650
0.267383	1.614535
0.267480	1.655209
0.267578	1.640793
0.267676	1.611316
0.267773	1.597540
0.267871	1.616826
0.267969	1.665971
0.268066	1.655101
0.268164	1.630517
0.268262	1.659463
0.268359	1.678734
0.268457	1.650327
0.268555	1.644346
0.268652	1.611053
0.268750	1.578301
0.268848	1.586204
0.268945	1.619110
0.269043	1.645178
0.269141	1.634266
0.269238	1.612453
0.269336	1.562297
0.269434	1.570792
0.269531	1.564600
0.269629	1.583747
0.269727	1.606450
0.269824	1.607177
0.269922	1.628953
0.270020	1.632059
0.270117	1.617204
0.270215	1.568766
0.270312	1.542345
0.270410	1.529052
0.270508	1.542174
0.270605	1.579140
0.270703	1.582875
0.270801	1.587161
0.270898	1.601582
0.270996	1.582440
0.271094	1.569663
0.271191	1.592416
0.271289	1.604324
0.271387	1.597068
0.271484	1.584473
0.271582	1.545172
0.271680	1.572839
0.271777	1.603113
0.271875	1.589510
0.271973	1.556127
0.272070	1.584328
0.272168	1.645560
0.272266	1.636010
0.272363	1.638860
0.272461	1.621739
0.272559	1.619402
0.272656	1.563743
0.272754	1.534739
0.272852	1.515791
0.272949	1.543754
0.273047	1.573799
0.273145	1.610676
0.273242	1.654475
0.273340	1.625554
0.273437	1.621825
0.273535	1.558301
0.273633	1.515506
0.273730	1.471497
0.273828	1.519559
0.273926	1.532538
0.274023	1.549192
0.274121	1.554453
0.274219	1.552594
0.274316	1.548554
0.274414	1.521367
0.274512	1.501523
0.274609	1.470575
0.274707	1.434360
0.274805	1.396201
0.274902	1.372308
0.275000	1.402629
0.275098	1.420222
0.275195	1.469596
0.275293	1.522681
0.275391	1.542962
0.275488	1.549416
0.275586	1.516146
0.275684	1.498237
0.275781	1.506060
0.275879	1.475886
0.275977	1.450470
0.276074	1.421781
0.276172	1.374774
0.276270	1.358482
0.276367	1.377330
0.276465	1.419076
0.276562	1.437389
0.276660	1.415644
0.276758	1.475998
0.276855	1.497898
0.276953	1.520932
0.277051	1.548782
0.277148	1.516292
0.277246	1.508776
0.277344	1.480423
0.277441	1.448188
0.277539	1.465204
0.277637	1.508420
0.277734	1.531605
0.277832	1.534926
0.277930	1.547208
0.278027	1.563328
0.278125	1.584858
0.278223	1.593886
0.278320	1.594263
0.278418	1.538104
0.278516	1.541629
0.278613	1.625736
0.278711	1.645577
0.278809	1.658026
0.278906	1.629604
0.279004	1.637635
0.279102	1.623228
0.279199	1.627818
0.279297	1.663735
0.279395	1.681066
0.279492	1.673460
0.279590	1.679166
0.279687	1.668090
0.279785	1.663097
0.279883	1.667446
0.279980	1.709422
0.280078	1.709506
0.280176	1.694848
0.280273	1.695526
0.280371	1.705652
0.280469	1.682742
0.280566	1.664905
0.280664	1.647488
0.280762	1.603966
0.280859	1.589130
0.280957	1.617366
0.281055	1.678941
0.281152	1.713467
0.281250	1.708056
0.281348	1.669017
0.281445	1.625847
0.281543	1.532341
0.281641	1.534651
0.281738	1.564607
0.281836	1.572849
0.281934	1.606951
0.282031	1.621925
0.282129	1.623549
0.282227	1.589389
0.282324	1.546900
0.282422	1.580025
0.282520	1.604199
0.282617	1.609134
0.282715	1.626739
0.282812	1.670988
0.282910	1.650169
0.283008	1.642164
0.283105	1.644960
0.283203	1.681223
0.283301	1.652829
0.283398	1.652005
0.283496	1.656559
0.283594	1.654428
0.283691	1.647058
0.283789	1.633634
0.283887	1.638750
0.283984	1.662537
0.284082	1.612054
0.284180	1.546252
0.284277	1.526803
0.284375	1.500776
0.284473	1.490976
0.284570	1.476757
0.284668	1.468778
0.284766	1.454441
0.284863	1.460474
0.284961	1.470556
0.285059	1.501925
0.285156	1.504906
0.285254	1.477443
0.285352	1.483183
0.285449	1.554522
0.285547	1.557477
0.285645	1.571981
0.285742	1.567016
0.285840	1.530886
0.285937	1.518536
0.286035	1.522280
0.286133	1.534959
0.286230	1.565105
0.286328	1.634769
0.286426	1.644908
0.286523	1.651847
0.286621	1.623512
0.286719	1.607809
0.286816	1.598252
0.286914	1.559196
0.287012	1.557303
0.287109	1.591254
0.287207	1.579746
0.287305	1.584393
0.287402	1.546218
0.287500	1.541831
0.287598	1.583381
0.287695	1.594414
0.287793	1.570183
0.287891	1.576967
0.287988	1.588876
0.288086	1.628682
0.288184	1.562554
0.288281	1.522656
0.288379	1.537766
0.288477	1.519844
0.288574	1.512240
0.288672	1.494579
0.288770	1.483462
0.288867	1.473097
0.288965	1.458207
0.289062	1.450710
0.289160	1.442294
0.289258	1.400877
0.289355	1.374101
0.289453	1.366269
0.289551	1.360947
0.289648	1.324486
0.289746	1.286676
0.289844	1.276239
0.289941	1.262069
0.290039	1.250446
0.290137	1.253666
0.290234	1.272631
0.290332	1.305207
0.290430	1.332719
0.290527	1.340848
0.290625	1.328492
0.290723	1.298483
0.290820	1.260768
0.290918	1.256612
0.291016	1.327640
0.291113	1.457581
0.291211	1.534894
0.291309	1.535418
0.291406	1.544465
0.291504	1.542093
0.291602	1.534849
0.291699	1.537504
0.291797	1.512809
0.291895	1.469490
0.291992	1.452509
0.292090	1.453075
0.292187	1.511901
0.292285	1.505778
0.292383	1.471977
0.292480	1.523754
0.292578	1.569314
0.292676	1.564023
0.292773	1.562862
0.292871	1.606664
0.292969	1.618432
0.293066	1.598729
0.293164	1.617128
0.293262	1.603123
0.293359	1.567659
0.293457	1.551849
0.293555	1.552924
0.293652	1.555830
0.293750	1.516203
0.293848	1.406679
0.293945	1.337132
0.294043	1.394093
0.294141	1.503312
0.294238	1.594366
0.294336	1.602772
0.294434	1.573083
0.294531	1.583336
0.294629	1.574528
0.294727	1.570389
0.294824	1.576717
0.294922	1.569738
0.295020	1.510850
0.295117	1.504896
0.295215	1.444248
0.295312	1.397530
0.295410	1.460227
0.295508	1.484861
0.295605	1.501927
0.295703	1.502001
0.295801	1.460330
0.295898	1.484174
0.295996	1.573039
0.296094	1.625876
0.296191	1.650075
0.296289	1.602123
0.296387	1.579161
0.296484	1.600907
0.296582	1.541473
0.296680	1.567154
0.296777	1.596740
0.296875	1.598941
0.296973	1.586399
0.297070	1.551599
0.297168	1.502335
0.297266	1.455963
0.297363	1.450906
0.297461	1.436138
0.297559	1.369503
0.297656	1.350125
0.297754	1.338815
0.297852	1.349811
0.297949	1.366914
0.298047	1.365616
0.298145	1.396058
0.298242	1.508354
0.298340	1.524345
0.298437	1.526899
0.298535	1.561360
0.298633	1.567070
0.298730	1.551766
0.298828	1.557108
0.298926	1.558700
0.299023	1.548452
0.299121	1.544244
0.299219	1.541622
0.299316	1.538721
0.299414	1.551210
0.299512	1.573758
0.299609	1.551055
0.299707	1.538052
0.299805	1.525589
0.299902	1.535898
0.300000	1.521478
0.300098	1.525127
0.300195	1.532512
0.300293	1.523950
0.300391	1.528570
0.300488	1.558794
0.300586	1.568689
0.300684	1.558136
0.300781	1.536182
0.300879	1.508625
0.300977	1.506423
0.301074	1.501586
0.301172	1.493796
0.301270	1.475611
0.301367	1.480044
0.301465	1.465078
0.301562	1.429073
0.301660	1.404075
0.301758	1.390539
0.301855	1.369944
0.301953	1.342778
0.302051	1.315448
0.302148	1.294886
0.302246	1.282225
0.302344	1.272528
0.302441	1.276999
0.302539	1.285187
0.302637	1.291335
0.302734	1.301553
0.302832	1.329008
0.302930	1.371343
0.303027	1.415097
0.303125	1.443401
0.303223	1.456800
0.303320	1.459247
0.303418	1.465391
0.303516	1.412031
0.303613	1.434374
0.303711	1.521948
0.303809	1.525056
0.303906	1.521665
0.304004	1.526057
0.304102	1.504659
0.304199	1.506113
0.304297	1.546975
0.304395	1.562161
0.304492	1.555816
0.304590	1.541532
0.304687	1.489459
0.304785	1.475536
0.304883	1.508103
0.304980	1.565899
0.305078	1.570211
0.305176	1.495075
0.305273	1.404562
0.305371	1.356657
0.305469	1.424231
0.305566	1.508520
0.305664	1.474180
0.305762	1.568121
0.305859	1.566793
0.305957	1.573932
0.306055	1.633521
0.306152	1.615610
0.306250	1.598332
0.306348	1.511403
0.306445	1.455238
0.306543	1.469357
0.306641	1.486874
0.306738	1.461671
0.306836	1.396622
0.306934	1.383832
0.307031	1.416156
0.307129	1.468569
0.307227	1.436190
0.307324	1.557081
0.307422	1.586807
0.307520	1.575321
0.307617	1.565836
0.307715	1.476022
0.307812	1.433255
0.307910	1.430016
0.308008	1.433267
0.308105	1.423290
0.308203	1.408281
0.308301	1.387306
0.308398	1.375944
0.308496	1.366768
0.308594	1.346593
0.308691	1.335081
0.308789	1.343392
0.308887	1.356971
0.308984	1.350088
0.309082	1.337104
0.309180	1.313831
0.309277	1.357274
0.309375	1.391439
0.309473	1.380834
0.309570	1.389615
0.309668	1.456574
0.309766	1.508516
0.309863	1.525229
0.309961	1.460188
0.310059	1.458099
0.310156	1.466333
0.310254	1.452175
0.310352	1.457185
0.310449	1.433040
0.310547	1.422673
0.310645	1.395555
0.310742	1.385684
0.310840	1.408218
0.310937	1.492324
0.311035	1.524973
0.311133	1.554229
0.311230	1.559390
0.311328	1.531325
0.311426	1.503204
0.311523	1.489491
0.311621	1.503931
0.311719	1.521572
0.311816	1.547467
0.311914	1.555764
0.312012	1.556279
0.312109	1.565516
0.312207	1.570799
0.312305	1.576416
0.312402	1.559388
0.312500	1.538346
0.312598	1.550568
0.312695	1.547204
0.312793	1.529282
0.312891	1.512089
0.312988	1.512131
0.313086	1.519435
0.313184	1.527205
0.313281	1.519396
0.313379	1.521228
0.313477	1.557603
0.313574	1.575304
0.313672	1.600356
0.313770	1.641491
0.313867	1.627503
0.313965	1.644295
0.314062	1.659372
0.314160	1.646602
0.314258	1.595292
0.314355	1.629128
0.314453	1.643654
0.314551	1.611468
0.314648	1.592170
0.314746	1.585665
0.314844	1.564793
0.314941	1.500802
0.315039	1.444254
0.315137	1.462705
0.315234	1.500695
0.315332	1.501902
0.315430	1.519477
0.315527	1.522219
0.315625	1.490300
0.315723	1.491835
0.315820	1.524514
0.315918	1.527190
0.316016	1.566142
0.316113	1.563136
0.316211	1.534308
0.316309	1.515623
0.316406	1.469796
0.316504	1.419093
0.316602	1.393587
0.316699	1.369767
0.316797	1.343806
0.316895	1.346959
0.316992	1.368679
0.317090	1.350983
0.317187	1.303078
0.317285	1.321981
0.317383	1.390612
0.317480	1.442263
0.317578	1.475664
0.317676	1.484855
0.317773	1.470977
0.317871	1.487553
0.317969	1.515105
0.318066	1.528863
0.318164	1.545873
0.318262	1.558446
0.318359	1.578799
0.318457	1.597183
0.318555	1.613404
0.318652	1.636134
0.318750	1.627370
0.318848	1.640905
0.318945	1.616505
0.319043	1.595774
0.319141	1.627132
0.319238	1.636492
0.319336	1.590721
0.319434	1.599876
0.319531	1.598840
0.319629	1.567512
0.319727	1.538567
0.319824	1.553649
0.319922	1.609912
0.320020	1.622405
0.320117	1.594779
0.320215	1.577021
0.320312	1.591941
0.320410	1.577135
0.320508	1.581656
0.320605	1.617463
0.320703	1.593554
0.320801	1.576210
0.320898	1.548453
0.320996	1.485439
0.321094	1.561810
0.321191	1.522670
0.321289	1.498963
0.321387	1.522235
0.321484	1.514054
0.321582	1.493365
0.321680	1.483419
0.321777	1.453341
0.321875	1.437552
0.321973	1.396087
0.322070	1.337432
0.322168	1.389199
0.322266	1.506496
0.322363	1.599555
0.322461	1.571415
0.322559	1.595999
0.322656	1.586001
0.322754	1.593528
0.322852	1.597942
0.322949	1.571906
0.323047	1.581794
0.323145	1.591577
0.323242	1.590093
0.323340	1.604657
0.323437	1.497308
0.323535	1.386864
0.323633	1.445542
0.323730	1.527034
0.323828	1.607230
0.323926	1.647313
0.324023	1.606767
0.324121	1.600707
0.324219	1.612374
0.324316	1.624280
0.324414	1.634858
0.324512	1.582983
0.324609	1.560193
0.324707	1.544483
0.324805	1.523994
0.324902	1.503052
0.325000	1.523038
0.325098	1.522860
0.325195	1.525223
0.325293	1.524974
0.325391	1.548873
0.325488	1.546529
0.325586	1.527542
0.325684	1.533061
0.325781	1.514882
0.325879	1.522452
0.325977	1.517252
0.326074	1.442200
0.326172	1.434253
0.326270	1.458174
0.326367	1.430585
0.326465	1.395395
0.326562	1.347999
0.326660	1.335774
0.326758	1.438417
0.326855	1.458434
0.326953	1.431688
0.327051	1.397482
0.327148	1.390926
0.327246	1.410131
0.327344	1.407360
0.327441	1.436068
0.327539	1.507713
0.327637	1.553695
0.327734	1.569126
0.327832	1.570974
0.327930	1.583694
0.328027	1.550259
0.328125	1.520339
0.328223	1.489846
0.328320	1.530833
0.328418	1.578022
0.328516	1.584091
0.328613	1.590653
0.328711	1.587691
0.328809	1.541011
0.328906	1.541792
0.329004	1.554285
0.329102	1.543831
0.329199	1.511694
0.329297	1.513003
0.329395	1.546718
0.329492	1.573667
0.329590	1.578457
0.329687	1.537047
0.329785	1.521686
0.329883	1.562931
0.329980	1.636953
0.330078	1.579358
0.330176	1.568247
0.330273	1.608936
0.330371	1.590426
0.330469	1.564820
0.330566	1.592262
0.330664	1.572609
0.330762	1.554725
0.330859	1.475561
0.330957	1.501519
0.331055	1.534804
0.331152	1.495579
0.331250	1.384603
0.331348	1.379024
0.331445	1.416224
0.331543	1.381008
0.331641	1.372080
0.331738	1.423236
0.331836	1.415099
0.331934	1.357993
0.332031	1.344449
0.332129	1.383635
0.332227	1.449891
0.332324	1.446087
0.332422	1.488227
0.332520	1.468721
0.332617	1.407735
0.332715	1.435448
0.332812	1.380842
0.332910	1.316746
0.333008	1.299208
0.333105	1.362842
0.333203	1.450264
0.333301	1.429427
0.333398	1.482067
0.333496	1.503332
0.333594	1.515615
0.333691	1.509537
0.333789	1.494858
0.333887	1.455100
0.333984	1.382277
0.334082	1.406426
0.334180	1.489227
0.334277	1.490215
0.334375	1.462509
0.334473	1.455879
0.334570	1.496748
0.334668	1.497684
0.334766	1.496078
0.334863	1.505213
0.334961	1.497935
0.335059	1.495226
0.335156	1.488716
0.335254	1.485160
0.335352	1.492716
0.335449	1.482407
0.335547	1.458827
0.335645	1.450141
0.335742	1.444246
0.335840	1.436560
0.335937	1.418703
0.336035	1.383228
0.336133	1.339392
0.336230	1.307140
0.336328	1.279712
0.336426	1.317329
0.336523	1.398394
0.336621	1.410339
0.336719	1.392785
0.336816	1.330276
0.336914	1.365599
0.337012	1.461524
0.337109	1.466038
0.337207	1.488869
0.337305	1.533821
0.337402	1.541039
0.337500	1.506680
0.337598	1.479967
0.337695	1.497887
0.337793	1.523024
0.337891	1.536009
0.337988	1.557075
0.338086	1.521948
0.338184	1.505643
0.338281	1.506625
0.338379	1.525723
0.338477	1.526353
0.338574	1.486117
0.338672	1.469559
0.338770	1.422402
0.338867	1.407153
0.338965	1.400320
0.339062	1.398903
0.339160	1.372825
0.339258	1.409699
0.339355	1.425231
0.339453	1.424245
0.339551	1.469201
0.339648	1.440141
0.339746	1.400482
0.339844	1.391426
0.339941	1.369453
0.340039	1.364091
0.340137	1.402609
0.340234	1.483389
0.340332	1.545899
0.340430	1.509928
0.340527	1.475194
0.340625	1.438266
0.340723	1.417913
0.340820	1.387533
0.340918	1.360647
0.341016	1.358308
0.341113	1.367419
0.341211	1.340224
0.341309	1.318296
0.341406	1.315152
0.341504	1.304535
0.341602	1.313101
0.341699	1.335187
0.341797	1.336145
0.341895	1.335845
0.341992	1.331764
0.342090	1.322253
0.342187	1.313431
0.342285	1.281604
0.342383	1.254901
0.342480	1.255793
0.342578	1.278283
0.342676	1.316080
0.342773	1.344594
0.342871	1.353483
0.342969	1.363983
0.343066	1.383007
0.343164	1.398363
0.343262	1.386402
0.343359	1.334210
0.343457	1.272940
0.343555	1.469092
0.343652	1.580432
0.343750	1.593164
0.343848	1.596195
0.343945	1.555096
0.344043	1.610184
0.344141	1.586799
0.344238	1.622933
0.344336	1.628111
0.344434	1.606192
0.344531	1.638309
0.344629	1.618206
0.344727	1.611005
0.344824	1.590665
0.344922	1.529060
0.345020	1.445018
0.345117	1.387738
0.345215	1.405795
0.345312	1.411328
0.345410	1.382129
0.345508	1.379063
0.345605	1.413866
0.345703	1.418773
0.345801	1.383137
0.345898	1.415967
0.345996	1.426589
0.346094	1.440089
0.346191	1.449557
0.346289	1.422388
0.346387	1.436743
0.346484	1.444460
0.346582	1.419680
0.346680	1.448334
0.346777	1.492409
0.346875	1.491443
0.346973	1.511015
0.347070	1.534590
0.347168	1.528562
0.347266	1.495504
0.347363	1.413491
0.347461	1.447517
0.347559	1.493185
0.347656	1.463455
0.347754	1.437645
0.347852	1.413184
0.347949	1.403777
0.348047	1.423251
0.348145	1.447897
0.348242	1.467217
0.348340	1.484427
0.348437	1.486167
0.348535	1.469657
0.348633	1.438517
0.348730	1.406154
0.348828	1.369984
0.348926	1.335743
0.349023	1.312076
0.349121	1.309216
0.349219	1.317328
0.349316	1.321375
0.349414	1.321953
0.349512	1.320918
0.349609	1.317322
0.349707	1.319859
0.349805	1.318411
0.349902	1.326120
0.350000	1.372199
0.350098	1.411365
0.350195	1.451717
0.350293	1.477051
0.350391	1.477452
0.350488	1.465990
0.350586	1.441519
0.350684	1.423483
0.350781	1.423051
0.350879	1.428143
0.350977	1.418156
0.351074	1.404662
0.351172	1.396286
0.351270	1.392861
0.351367	1.392780
0.351465	1.398918
0.351562	1.402244
0.351660	1.395066
0.351758	1.396734
0.351855	1.392739
0.351953	1.359462
0.352051	1.307641
0.352148	1.276012
0.352246	1.266559
0.352344	1.264743
0.352441	1.259449
0.352539	1.246831
0.352637	1.234086
0.352734	1.284333
0.352832	1.350507
0.352930	1.369299
0.353027	1.389786
0.353125	1.410182
0.353223	1.394842
0.353320	1.372870
0.353418	1.373029
0.353516	1.381038
0.353613	1.404220
0.353711	1.411841
0.353809	1.390658
0.353906	1.368279
0.354004	1.383666
0.354102	1.397156
0.354199	1.389655
0.354297	1.386416
0.354395	1.412220
0.354492	1.445824
0.354590	1.457034
0.354687	1.477206
0.354785	1.488255
0.354883	1.460304
0.354980	1.425828
0.355078	1.478686
0.355176	1.444093
0.355273	1.493728
0.355371	1.579246
0.355469	1.556931
0.355566	1.565860
0.355664	1.527666
0.355762	1.481740
0.355859	1.417619
0.355957	1.352828
0.356055	1.310080
0.356152	1.290930
0.356250	1.291144
0.356348	1.323616
0.356445	1.357453
0.356543	1.353370
0.356641	1.358529
0.356738	1.372394
0.356836	1.378792
0.356934	1.372658
0.357031	1.354083
0.357129	1.335675
0.357227	1.319986
0.357324	1.302276
0.357422	1.280077
0.357520	1.267648
0.357617	1.259201
0.357715	1.244563
0.357812	1.236851
0.357910	1.275976
0.358008	1.327753
0.358105	1.365332
0.358203	1.382543
0.358301	1.396657
0.358398	1.425504
0.358496	1.416476
0.358594	1.395033
0.358691	1.377548
0.358789	1.373947
0.358887	1.373279
0.358984	1.387750
0.359082	1.411559
0.359180	1.427257
0.359277	1.417064
0.359375	1.420969
0.359473	1.426990
0.359570	1.427405
0.359668	1.422750
0.359766	1.412053
0.359863	1.390085
0.359961	1.350651
0.360059	1.318551
0.360156	1.304857
0.360254	1.296006
0.360352	1.287332
0.360449	1.284628
0.360547	1.310150
0.360645	1.345895
0.360742	1.381545
0.360840	1.405979
0.360937	1.432242
0.361035	1.436694
0.361133	1.405365
0.361230	1.382564
0.361328	1.415057
0.361426	1.411431
0.361523	1.372392
0.361621	1.382489
0.361719	1.432784
0.361816	1.426105
0.361914	1.366601
0.362012	1.325826
0.362109	1.355533
0.362207	1.389482
0.362305	1.371790
0.362402	1.343149
0.362500	1.309357
0.362598	1.290020
0.362695	1.274151
0.362793	1.262922
0.362891	1.251528
0.362988	1.253332
0.363086	1.276518
0.363184	1.306124
0.363281	1.328784
0.363379	1.360638
0.363477	1.361358
0.363574	1.370280
0.363672	1.375697
0.363770	1.382608
0.363867	1.385828
0.363965	1.366947
0.364062	1.330865
0.364160	1.293315
0.364258	1.292800
0.364355	1.312052
0.364453	1.311458
0.364551	1.301223
0.364648	1.311909
0.364746	1.315371
0.364844	1.322383
0.364941	1.354178
0.365039	1.402892
0.365137	1.455393
0.365234	1.494494
0.365332	1.514135
0.365430	1.508215
0.365527	1.491076
0.365625	1.491075
0.365723	1.491227
0.365820	1.467918
0.365918	1.442809
0.366016	1.480052
0.366113	1.519404
0.366211	1.472498
0.366309	1.451718
0.366406	1.482588
0.366504	1.515832
0.366602	1.529200
0.366699	1.540080
0.366797	1.532034
0.366895	1.502022
0.366992	1.467955
0.367090	1.461802
0.367187	1.506540
0.367285	1.549667
0.367383	1.557546
0.367480	1.559393
0.367578	1.538695
0.367676	1.535214
0.367773	1.542162
0.367871	1.547781
0.367969	1.540845
0.368066	1.535835
0.368164	1.538904
0.368262	1.524443
0.368359	1.512725
0.368457	1.454499
0.368555	1.399026
0.368652	1.352057
0.368750	1.307454
0.368848	1.274906
0.368945	1.258334
0.369043	1.257368
0.369141	1.264908
0.369238	1.277464
0.369336	1.293816
0.369434	1.337806
0.369531	1.366900
0.369629	1.385757
0.369727	1.369023
0.369824	1.360650
0.369922	1.380135
0.370020	1.444602
0.370117	1.492489
0.370215	1.518889
0.370312	1.583132
0.370410	1.641738
0.370508	1.654246
0.370605	1.662896
0.370703	1.622478
0.370801	1.599600
0.370898	1.599210
0.370996	1.529785
0.371094	1.506459
0.371191	1.500680
0.371289	1.514853
0.371387	1.526266
0.371484	1.545280
0.371582	1.546828
0.371680	1.520204
0.371777	1.516289
0.371875	1.533335
0.371973	1.527536
0.372070	1.506241
0.372168	1.487416
0.372266	1.474783
0.372363	1.487983
0.372461	1.524060
0.372559	1.526299
0.372656	1.515887
0.372754	1.473789
0.372852	1.441496
0.372949	1.417261
0.373047	1.472092
0.373145	1.489777
0.373242	1.520149
0.373340	1.525198
0.373437	1.536113
0.373535	1.514420
0.373633	1.541321
0.373730	1.561612
0.373828	1.570613
0.373926	1.527191
0.374023	1.513013
0.374121	1.514150
0.374219	1.468771
0.374316	1.458365
0.374414	1.504477
0.374512	1.567911
0.374609	1.573873
0.374707	1.553024
0.374805	1.524395
0.374902	1.542190
0.375000	1.547146
0.375098	1.520286
0.375195	1.507082
0.375293	1.543622
0.375391	1.557598
0.375488	1.555446
0.375586	1.548404
0.375684	1.535460
0.375781	1.534893
0.375879	1.536385
0.375977	1.541321
0.376074	1.579194
0.376172	1.592341
0.376270	1.574706
0.376367	1.580363
0.376465	1.595477
0.376562	1.579333
0.376660	1.588645
0.376758	1.579601
0.376855	1.545213
0.376953	1.510296
0.377051	1.492900
0.377148	1.480335
0.377246	1.501902
0.377344	1.518361
0.377441	1.563047
0.377539	1.554149
0.377637	1.524886
0.377734	1.506162
0.377832	1.497510
0.377930	1.484054
0.378027	1.497126
0.378125	1.509217
0.378223	1.528507
0.378320	1.511154
0.378418	1.496083
0.378516	1.470282
0.378613	1.524254
0.378711	1.544716
0.378809	1.498795
0.378906	1.487615
0.379004	1.483373
0.379102	1.457374
0.379199	1.486815
0.379297	1.549178
0.379395	1.566210
0.379492	1.560797
0.379590	1.539416
0.379687	1.549824
0.379785	1.553760
0.379883	1.543885
0.379980	1.532213
0.380078	1.484069
0.380176	1.490414
0.380273	1.499640
0.380371	1.510717
0.380469	1.534818
0.380566	1.538641
0.380664	1.519595
0.380762	1.519919
0.380859	1.520924
0.380957	1.502401
0.381055	1.518217
0.381152	1.526358
0.381250	1.531948
0.381348	1.538270
0.381445	1.526026
0.381543	1.511001
0.381641	1.492304
0.381738	1.473956
0.381836	1.438299
0.381934	1.420148
0.382031	1.440396
0.382129	1.441774
0.382227	1.445604
0.382324	1.443229
0.382422	1.451831
0.382520	1.454600
0.382617	1.449699
0.382715	1.489474
0.382812	1.512790
0.382910	1.507046
0.383008	1.494614
0.383105	1.469141
0.383203	1.424993
0.383301	1.388646
0.383398	1.377709
0.383496	1.376476
0.383594	1.379353
0.383691	1.381510
0.383789	1.406436
0.383887	1.435940
0.383984	1.451661
0.384082	1.445803
0.384180	1.416338
0.384277	1.391900
0.384375	1.367866
0.384473	1.334232
0.384570	1.306074
0.384668	1.327722
0.384766	1.363193
0.384863	1.381781
0.384961	1.393481
0.385059	1.398732
0.385156	1.405069
0.385254	1.392960
0.385352	1.362887
0.385449	1.349989
0.385547	1.359897
0.385645	1.380133
0.385742	1.391655
0.385840	1.403571
0.385937	1.418030
0.386035	1.446339
0.386133	1.479260
0.386230	1.474902
0.386328	1.444219
0.386426	1.408056
0.386523	1.360952
0.386621	1.442170
0.386719	1.533512
0.386816	1.537792
0.386914	1.538844
0.387012	1.548107
0.387109	1.555993
0.387207	1.548029
0.387305	1.551504
0.387402	1.560672
0.387500	1.572706
0.387598	1.599416
0.387695	1.616459
0.387793	1.625819
0.387891	1.637118
0.387988	1.637629
0.388086	1.640058
0.388184	1.651634
0.388281	1.645899
0.388379	1.640732
0.388477	1.635561
0.388574	1.648840
0.388672	1.619309
0.388770	1.582732
0.388867	1.563349
0.388965	1.623413
0.389062	1.650666
0.389160	1.688397
0.389258	1.666157
0.389355	1.613994
0.389453	1.646617
0.389551	1.590786
0.389648	1.588547
0.389746	1.619136
0.389844	1.621503
0.389941	1.594848
0.390039	1.551393
0.390137	1.553332
0.390234	1.612229
0.390332	1.640968
0.390430	1.618037
0.390527	1.606627
0.390625	1.587419
0.390723	1.572995
0.390820	1.580287
0.390918	1.572921
0.391016	1.564972
0.391113	1.557918
0.391211	1.570021
0.391309	1.599278
0.391406	1.645101
0.391504	1.650796
0.391602	1.630185
0.391699	1.628473
0.391797	1.603002
0.391895	1.557774
0.391992	1.543338
0.392090	1.590291
0.392187	1.610446
0.392285	1.582992
0.392383	1.572996
0.392480	1.610372
0.392578	1.576529
0.392676	1.600301
0.392773	1.621910
0.392871	1.602874
0.392969	1.621714
0.393066	1.654286
0.393164	1.672738
0.393262	1.669233
0.393359	1.668573
0.393457	1.652800
0.393555	1.688365
0.393652	1.683410
0.393750	1.654926
0.393848	1.634098
0.393945	1.647691
0.394043	1.642864
0.394141	1.646183
0.394238	1.670108
0.394336	1.658310
0.394434	1.640146
0.394531	1.629769
0.394629	1.630424
0.394727	1.620898
0.394824	1.611091
0.394922	1.636207
0.395020	1.685799
0.395117	1.673502
0.395215	1.631833
0.395312	1.649846
0.395410	1.616211
0.395508	1.570084
0.395605	1.517108
0.395703	1.505653
0.395801	1.480300
0.395898	1.446964
0.395996	1.429278
0.396094	1.459344
0.396191	1.464940
0.396289	1.474516
0.396387	1.438463
0.396484	1.398275
0.396582	1.445428
0.396680	1.420167
0.396777	1.390926
0.396875	1.355534
0.396973	1.335392
0.397070	1.298765
0.397168	1.282883
0.397266	1.359694
0.397363	1.459253
0.397461	1.512218
0.397559	1.579818
0.397656	1.613753
0.397754	1.620094
0.397852	1.629732
0.397949	1.609356
0.398047	1.604976
0.398145	1.604445
0.398242	1.603474
0.398340	1.599941
0.398437	1.558986
0.398535	1.527436
0.398633	1.531380
0.398730	1.540686
0.398828	1.552560
0.398926	1.547059
0.399023	1.520018
0.399121	1.481327
0.399219	1.461970
0.399316	1.423042
0.399414	1.417799
0.399512	1.417998
0.399609	1.403446
0.399707	1.440320
0.399805	1.452990
0.399902	1.402020
0.400000	1.342646
0.400098	1.347916
0.400195	1.376841
0.400293	1.348528
0.400391	1.328035
0.400488	1.346506
0.400586	1.355508
0.400684	1.359575
0.400781	1.355445
0.400879	1.341825
0.400977	1.326479
0.401074	1.336952
0.401172	1.383989
0.401270	1.403207
0.401367	1.413475
0.401465	1.405057
0.401562	1.378444
0.401660	1.366873
0.401758	1.363770
0.401855	1.356909
0.401953	1.324151
0.402051	1.293978
0.402148	1.272186
0.402246	1.265549
0.402344	1.276236
0.402441	1.333926
0.402539	1.429681
0.402637	1.448166
0.402734	1.390648
0.402832	1.386563
0.402930	1.569290
0.403027	1.583755
0.403125	1.607327
0.403223	1.619264
0.403320	1.570381
0.403418	1.549073
0.403516	1.609241
0.403613	1.591666
0.403711	1.535501
0.403809	1.520839
0.403906	1.612507
0.404004	1.655521
0.404102	1.650391
0.404199	1.625967
0.404297	1.541184
0.404395	1.542946
0.404492	1.590383
0.404590	1.590459
0.404687	1.583168
0.404785	1.616874
0.404883	1.615627
0.404980	1.634698
0.405078	1.643125
0.405176	1.628194
0.405273	1.640723
0.405371	1.625812
0.405469	1.641610
0.405566	1.647416
0.405664	1.680212
0.405762	1.733515
0.405859	1.687383
0.405957	1.678385
0.406055	1.678878
0.406152	1.651057
0.406250	1.649575
0.406348	1.659351
0.406445	1.613832
0.406543	1.586315
0.406641	1.561322
0.406738	1.560707
0.406836	1.572317
0.406934	1.582423
0.407031	1.599194
0.407129	1.613836
0.407227	1.497727
0.407324	1.462167
0.407422	1.481493
0.407520	1.506187
0.407617	1.565910
0.407715	1.570372
0.407812	1.574586
0.407910	1.555345
0.408008	1.543535
0.408105	1.596670
0.408203	1.626390
0.408301	1.639242
0.408398	1.611056
0.408496	1.553917
0.408594	1.559870
0.408691	1.543362
0.408789	1.524103
0.408887	1.519332
0.408984	1.575025
0.409082	1.594679
0.409180	1.590952
0.409277	1.560345
0.409375	1.505008
0.409473	1.521460
0.409570	1.552040
0.409668	1.554027
0.409766	1.541437
0.409863	1.493051
0.409961	1.486599
0.410059	1.476779
0.410156	1.489520
0.410254	1.511184
0.410352	1.518225
0.410449	1.506558
0.410547	1.507123
0.410645	1.513410
0.410742	1.522800
0.410840	1.514080
0.410937	1.497756
0.411035	1.505005
0.411133	1.503417
0.411230	1.508743
0.411328	1.511224
0.411426	1.522947
0.411523	1.523535
0.411621	1.514129
0.411719	1.476234
0.411816	1.504651
0.411914	1.507351
0.412012	1.480032
0.412109	1.513481
0.412207	1.560344
0.412305	1.577117
0.412402	1.559666
0.412500	1.542672
0.412598	1.544356
0.412695	1.543317
0.412793	1.537027
0.412891	1.536036
0.412988	1.489891
0.413086	1.472266
0.413184	1.511513
0.413281	1.495972
0.413379	1.495870
0.413477	1.537241
0.413574	1.457108
0.413672	1.495144
0.413770	1.549087
0.413867	1.525852
0.413965	1.539865
0.414062	1.599755
0.414160	1.570313
0.414258	1.563039
0.414355	1.606099
0.414453	1.537800
0.414551	1.483402
0.414648	1.462948
0.414746	1.468864
0.414844	1.469321
0.414941	1.485250
0.415039	1.534005
0.415137	1.598797
0.415234	1.565616
0.415332	1.543480
0.415430	1.533348
0.415527	1.526081
0.415625	1.516564
0.415723	1.506827
0.415820	1.490893
0.415918	1.462302
0.416016	1.398917
0.416113	1.375886
0.416211	1.355320
0.416309	1.387436
0.416406	1.450226
0.416504	1.454494
0.416602	1.471226
0.416699	1.507111
0.416797	1.530986
0.416895	1.529746
0.416992	1.507654
0.417090	1.474817
0.417187	1.451457
0.417285	1.443025
0.417383	1.466439
0.417480	1.546670
0.417578	1.565968
0.417676	1.550624
0.417773	1.540122
0.417871	1.481265
0.417969	1.457958
0.418066	1.448169
0.418164	1.390547
0.418262	1.342653
0.418359	1.329457
0.418457	1.359394
0.418555	1.335652
0.418652	1.343937
0.418750	1.345521
0.418848	1.332513
0.418945	1.335131
0.419043	1.401176
0.419141	1.465468
0.419238	1.466207
0.419336	1.476787
0.419434	1.526174
0.419531	1.566094
0.419629	1.579357
0.419727	1.572839
0.419824	1.540249
0.419922	1.534588
0.420020	1.530826
0.420117	1.490217
0.420215	1.476834
0.420312	1.514182
0.420410	1.511004
0.420508	1.515068
0.420605	1.523020
0.420703	1.548277
0.420801	1.594591
0.420898	1.610750
0.420996	1.599800
0.421094	1.578032
0.421191	1.533901
0.421289	1.564224
0.421387	1.626242
0.421484	1.640244
0.421582	1.620087
0.421680	1.611407
0.421777	1.619778
0.421875	1.623726
0.421973	1.602646
0.422070	1.558867
0.422168	1.576010
0.422266	1.577207
0.422363	1.569086
0.422461	1.563601
0.422559	1.556695
0.422656	1.568503
0.422754	1.557565
0.422852	1.547486
0.422949	1.502536
0.423047	1.484014
0.423145	1.487115
0.423242	1.508292
0.423340	1.486374
0.423437	1.478444
0.423535	1.524017
0.423633	1.516045
0.423730	1.499363
0.423828	1.517308
0.423926	1.562831
0.424023	1.585189
0.424121	1.573486
0.424219	1.572583
0.424316	1.586266
0.424414	1.616674
0.424512	1.619558
0.424609	1.621719
0.424707	1.602646
0.424805	1.571527
0.424902	1.580570
0.425000	1.575671
0.425098	1.577409
0.425195	1.581905
0.425293	1.617731
0.425391	1.612144
0.425488	1.588121
0.425586	1.574297
0.425684	1.601650
0.425781	1.608987
0.425879	1.594157
0.425977	1.586838
0.426074	1.593735
0.426172	1.595816
0.426270	1.544211
0.426367	1.496110
0.426465	1.566585
0.426562	1.580011
0.426660	1.580559
0.426758	1.599093
0.426855	1.611265
0.426953	1.603618
0.427051	1.605691
0.427148	1.604965
0.427246	1.580640
0.427344	1.578865
0.427441	1.524700
0.427539	1.504019
0.427637	1.483080
0.427734	1.481366
0.427832	1.469777
0.427930	1.467167
0.428027	1.514308
0.428125	1.516227
0.428223	1.520727
0.428320	1.506073
0.428418	1.470158
0.428516	1.478423
0.428613	1.498788
0.428711	1.504934
0.428809	1.519265
0.428906	1.520684
0.429004	1.516388
0.429102	1.502847
0.429199	1.472654
0.429297	1.465851
0.429395	1.462978
0.429492	1.461451
0.429590	1.479755
0.429687	1.497591
0.429785	1.516661
0.429883	1.567767
0.429980	1.593037
0.430078	1.582057
0.430176	1.557159
0.430273	1.533324
0.430371	1.479014
0.430469	1.471010
0.430566	1.481661
0.430664	1.518193
0.430762	1.514274
0.430859	1.468524
0.430957	1.464535
0.431055	1.470543
0.431152	1.518319
0.431250	1.524083
0.431348	1.500755
0.431445	1.491562
0.431543	1.545742
0.431641	1.543099
0.431738	1.516558
0.431836	1.499785
0.431934	1.479840
0.432031	1.468239
0.432129	1.468405
0.432227	1.486091
0.432324	1.518150
0.432422	1.529765
0.432520	1.543843
0.432617	1.606588
0.432715	1.647061
0.432812	1.627870
0.432910	1.665845
0.433008	1.696507
0.433105	1.679634
0.433203	1.650326
0.433301	1.618505
0.433398	1.601268
0.433496	1.607124
0.433594	1.621708
0.433691	1.628547
0.433789	1.607643
0.433887	1.560769
0.433984	1.552688
0.434082	1.581787
0.434180	1.567183
0.434277	1.570266
0.434375	1.552132
0.434473	1.543665
0.434570	1.541319
0.434668	1.537735
0.434766	1.533360
0.434863	1.528429
0.434961	1.527086
0.435059	1.538815
0.435156	1.557773
0.435254	1.577939
0.435352	1.593286
0.435449	1.601787
0.435547	1.604795
0.435645	1.606412
0.435742	1.603400
0.435840	1.605708
0.435937	1.605460
0.436035	1.607146
0.436133	1.605378
0.436230	1.622642
0.436328	1.611418
0.436426	1.606596
0.436523	1.599185
0.436621	1.653536
0.436719	1.732163
0.436816	1.700348
0.436914	1.676498
0.437012	1.670091
0.437109	1.660175
0.437207	1.613616
0.437305	1.515933
0.437402	1.544474
0.437500	1.543463
0.437598	1.545288
0.437695	1.646879
0.437793	1.673226
0.437891	1.661407
0.437988	1.625811
0.438086	1.615238
0.438184	1.653165
0.438281	1.635564
0.438379	1.612813
0.438477	1.641541
0.438574	1.670476
0.438672	1.671658
0.438770	1.658707
0.438867	1.667215
0.438965	1.677252
0.439062	1.647456
0.439160	1.633698
0.439258	1.669810
0.439355	1.682897
0.439453	1.643493
0.439551	1.691638
0.439648	1.692934
0.439746	1.621977
0.439844	1.646754
0.439941	1.636264
0.440039	1.701688
0.440137	1.683712
0.440234	1.655368
0.440332	1.633842
0.440430	1.658057
0.440527	1.675942
0.440625	1.699253
0.440723	1.690782
0.440820	1.660072
0.440918	1.659782
0.441016	1.592536
0.441113	1.541813
0.441211	1.598185
0.441309	1.602092
0.441406	1.582824
0.441504	1.582577
0.441602	1.612069
0.441699	1.566939
0.441797	1.546889
0.441895	1.621748
0.441992	1.560317
0.442090	1.517242
0.442187	1.514998
0.442285	1.495635
0.442383	1.478304
0.442480	1.463284
0.442578	1.520790
0.442676	1.550420
0.442773	1.574272
0.442871	1.564655
0.442969	1.515156
0.443066	1.519367
0.443164	1.543213
0.443262	1.546230
0.443359	1.584053
0.443457	1.580481
0.443555	1.577028
0.443652	1.520224
0.443750	1.464770
0.443848	1.472851
0.443945	1.520537
0.444043	1.500753
0.444141	1.514091
0.444238	1.505128
0.444336	1.470232
0.444434	1.569356
0.444531	1.553132
0.444629	1.501535
0.444727	1.415520
0.444824	1.481788
0.444922	1.497813
0.445020	1.490510
0.445117	1.542077
0.445215	1.528063
0.445312	1.475225
0.445410	1.441975
0.445508	1.461604
0.445605	1.481660
0.445703	1.510002
0.445801	1.515846
0.445898	1.512884
0.445996	1.591430
0.446094	1.637818
0.446191	1.643184
0.446289	1.617149
0.446387	1.607672
0.446484	1.653510
0.446582	1.651567
0.446680	1.628235
0.446777	1.609880
0.446875	1.626117
0.446973	1.650087
0.447070	1.617966
0.447168	1.600686
0.447266	1.557912
0.447363	1.556412
0.447461	1.559605
0.447559	1.583912
0.447656	1.602999
0.447754	1.622791
0.447852	1.622542
0.447949	1.612049
0.448047	1.631830
0.448145	1.638581
0.448242	1.631739
0.448340	1.615446
0.448437	1.603113
0.448535	1.595089
0.448633	1.604821
0.448730	1.628540
0.448828	1.605712
0.448926	1.624488
0.449023	1.622378
0.449121	1.619397
0.449219	1.596723
0.449316	1.571162
0.449414	1.560436
0.449512	1.513280
0.449609	1.473739
0.449707	1.459029
0.449805	1.501826
0.449902	1.521888
0.450000	1.541318
0.450098	1.539073
0.450195	1.550891
0.450293	1.577504
0.450391	1.558291
0.450488	1.537036
0.450586	1.556747
0.450684	1.562152
0.450781	1.553649
0.450879	1.546511
0.450977	1.543639
0.451074	1.537683
0.451172	1.548189
0.451270	1.539278
0.451367	1.515025
0.451465	1.504337
0.451562	1.517114
0.451660	1.493247
0.451758	1.481146
0.451855	1.551257
0.451953	1.560554
0.452051	1.553238
0.452148	1.582860
0.452246	1.616479
0.452344	1.600623
0.452441	1.595748
0.452539	1.583904
0.452637	1.570546
0.452734	1.563347
0.452832	1.559531
0.452930	1.575501
0.453027	1.592073
0.453125	1.597908
0.453223	1.604311
0.453320	1.601680
0.453418	1.580934
0.453516	1.562820
0.453613	1.553706
0.453711	1.541384
0.453809	1.555689
0.453906	1.560873
0.454004	1.604473
0.454102	1.610346
0.454199	1.614506
0.454297	1.603166
0.454395	1.634707
0.454492	1.650327
0.454590	1.648242
0.454687	1.631419
0.454785	1.592618
0.454883	1.564275
0.454980	1.626018
0.455078	1.713363
0.455176	1.721147
0.455273	1.727625
0.455371	1.737910
0.455469	1.692642
0.455566	1.656481
0.455664	1.605336
0.455762	1.593008
0.455859	1.570911
0.455957	1.606257
0.456055	1.637958
0.456152	1.600485
0.456250	1.501153
0.456348	1.461215
0.456445	1.409109
0.456543	1.429823
0.456641	1.485779
0.456738	1.507253
0.456836	1.565569
0.456934	1.548795
0.457031	1.562981
0.457129	1.566980
0.457227	1.582216
0.457324	1.580091
0.457422	1.589029
0.457520	1.613411
0.457617	1.608197
0.457715	1.624940
0.457812	1.648731
0.457910	1.681804
0.458008	1.672235
0.458105	1.684661
0.458203	1.693686
0.458301	1.705461
0.458398	1.702873
0.458496	1.693459
0.458594	1.716537
0.458691	1.710910
0.458789	1.691427
0.458887	1.656595
0.458984	1.671947
0.459082	1.674191
0.459180	1.691365
0.459277	1.661171
0.459375	1.634131
0.459473	1.617191
0.459570	1.626127
0.459668	1.599190
0.459766	1.577396
0.459863	1.534437
0.459961	1.540601
0.460059	1.542859
0.460156	1.568659
0.460254	1.597832
0.460352	1.617712
0.460449	1.613408
0.460547	1.624177
0.460645	1.646897
0.460742	1.645384
0.460840	1.659926
0.460937	1.653051
0.461035	1.651225
0.461133	1.676998
0.461230	1.689342
0.461328	1.695967
0.461426	1.693623
0.461523	1.674244
0.461621	1.647380
0.461719	1.649405
0.461816	1.639730
0.461914	1.634006
0.462012	1.642750
0.462109	1.641613
0.462207	1.638867
0.462305	1.597231
0.462402	1.571643
0.462500	1.638517
0.462598	1.638260
0.462695	1.628859
0.462793	1.670843
0.462891	1.665609
0.462988	1.625636
0.463086	1.645906
0.463184	1.658802
0.463281	1.634618
0.463379	1.636843
0.463477	1.603006
0.463574	1.589205
0.463672	1.553157
0.463770	1.543899
0.463867	1.578124
0.463965	1.578470
0.464062	1.546547
0.464160	1.540025
0.464258	1.600238
0.464355	1.584986
0.464453	1.560439
0.464551	1.536608
0.464648	1.548826
0.464746	1.555517
0.464844	1.571200
0.464941	1.583812
0.465039	1.572493
0.465137	1.553886
0.465234	1.552867
0.465332	1.574443
0.465430	1.598488
0.465527	1.557435
0.465625	1.504897
0.465723	1.492213
0.465820	1.514687
0.465918	1.516544
0.466016	1.488698
0.466113	1.463380
0.466211	1.444030
0.466309	1.460645
0.466406	1.512889
0.466504	1.532669
0.466602	1.516950
0.466699	1.506361
0.466797	1.505920
0.466895	1.506085
0.466992	1.536997
0.467090	1.553390
0.467187	1.519636
0.467285	1.477663
0.467383	1.466894
0.467480	1.464380
0.467578	1.442579
0.467676	1.447847
0.467773	1.549554
0.467871	1.604407
0.467969	1.546214
0.468066	1.523720
0.468164	1.455635
0.468262	1.423433
0.468359	1.454727
0.468457	1.368555
0.468555	1.381620
0.468652	1.419897
0.468750	1.397713
0.468848	1.371936
0.468945	1.380029
0.469043	1.412883
0.469141	1.433902
0.469238	1.433021
0.469336	1.423141
0.469434	1.424804
0.469531	1.419733
0.469629	1.415316
0.469727	1.433838
0.469824	1.479462
0.469922	1.478523
0.470020	1.439090
0.470117	1.444528
0.470215	1.447244
0.470312	1.448899
0.470410	1.466890
0.470508	1.455984
0.470605	1.451463
0.470703	1.437146
0.470801	1.412246
0.470898	1.385094
0.470996	1.380397
0.471094	1.429733
0.471191	1.437197
0.471289	1.433711
0.471387	1.408198
0.471484	1.350785
0.471582	1.295829
0.471680	1.250687
0.471777	1.253763
0.471875	1.297712
0.471973	1.343146
0.472070	1.421187
0.472168	1.491870
0.472266	1.524865
0.472363	1.551300
0.472461	1.569621
0.472559	1.589964
0.472656	1.606402
0.472754	1.623200
0.472852	1.634501
0.472949	1.642478
0.473047	1.642562
0.473145	1.669783
0.473242	1.670148
0.473340	1.668605
0.473437	1.657381
0.473535	1.728855
0.473633	1.705539
0.473730	1.738549
0.473828	1.717286
0.473926	1.705397
0.474023	1.668474
0.474121	1.622361
0.474219	1.635605
0.474316	1.607451
0.474414	1.600022
0.474512	1.612643
0.474609	1.614800
0.474707	1.630274
0.474805	1.637114
0.474902	1.616012
0.475000	1.664098
0.475098	1.700570
0.475195	1.712527
0.475293	1.702925
0.475391	1.701843
0.475488	1.684741
0.475586	1.683779
0.475684	1.685932
0.475781	1.694605
0.475879	1.710633
0.475977	1.632026
0.476074	1.571805
0.476172	1.559965
0.476270	1.543197
0.476367	1.554514
0.476465	1.635619
0.476562	1.635990
0.476660	1.596627
0.476758	1.591635
0.476855	1.567885
0.476953	1.554518
0.477051	1.577968
0.477148	1.624252
0.477246	1.595507
0.477344	1.573376
0.477441	1.564852
0.477539	1.444485
0.477637	1.371440
0.477734	1.484981
0.477832	1.549159
0.477930	1.549802
0.478027	1.508804
0.478125	1.469961
0.478223	1.452435
0.478320	1.515432
0.478418	1.607740
0.478516	1.651214
0.478613	1.610495
0.478711	1.628808
0.478809	1.591251
0.478906	1.557534
0.479004	1.580120
0.479102	1.573511
0.479199	1.552779
0.479297	1.524832
0.479395	1.521234
0.479492	1.517070
0.479590	1.516737
0.479687	1.488166
0.479785	1.488478
0.479883	1.475882
0.479980	1.488376
0.480078	1.508275
0.480176	1.534767
0.480273	1.535185
0.480371	1.544681
0.480469	1.515709
0.480566	1.516205
0.480664	1.514689
0.480762	1.469947
0.480859	1.450265
0.480957	1.470277
0.481055	1.483341
0.481152	1.472605
0.481250	1.437032
0.481348	1.453885
0.481445	1.487562
0.481543	1.502794
0.481641	1.494186
0.481738	1.513247
0.481836	1.530565
0.481934	1.521995
0.482031	1.523430
0.482129	1.520740
0.482227	1.528349
0.482324	1.556019
0.482422	1.573412
0.482520	1.574275
0.482617	1.575052
0.482715	1.571272
0.482812	1.501996
0.482910	1.500033
0.483008	1.542917
0.483105	1.526059
0.483203	1.511866
0.483301	1.501971
0.483398	1.458173
0.483496	1.403111
0.483594	1.364351
0.483691	1.350361
0.483789	1.335164
0.483887	1.410448
0.483984	1.520483
0.484082	1.531006
0.484180	1.532930
0.484277	1.546804
0.484375	1.533454
0.484473	1.516618
0.484570	1.491808
0.484668	1.456522
0.484766	1.471716
0.484863	1.459963
0.484961	1.446203
0.485059	1.403194
0.485156	1.436350
0.485254	1.441322
0.485352	1.451801
0.485449	1.487178
0.485547	1.536080
0.485645	1.561151
0.485742	1.572103
0.485840	1.575690
0.485937	1.589072
0.486035	1.606364
0.486133	1.609784
0.486230	1.617929
0.486328	1.618744
0.486426	1.614301
0.486523	1.614154
0.486621	1.615944
0.486719	1.613116
0.486816	1.627270
0.486914	1.632773
0.487012	1.643656
0.487109	1.650764
0.487207	1.655719
0.487305	1.659978
0.487402	1.667679
0.487500	1.664575
0.487598	1.666236
0.487695	1.673772
0.487793	1.680632
0.487891	1.693316
0.487988	1.697217
0.488086	1.701295
0.488184	1.695589
0.488281	1.676865
0.488379	1.675572
0.488477	1.691059
0.488574	1.694377
0.488672	1.703643
0.488770	1.653967
0.488867	1.655001
0.488965	1.693796
0.489062	1.669357
0.489160	1.691098
0.489258	1.692320
0.489355	1.693434
0.489453	1.690967
0.489551	1.641653
0.489648	1.634914
0.489746	1.640754
0.489844	1.644393
0.489941	1.613876
0.490039	1.596983
0.490137	1.583237
0.490234	1.574131
0.490332	1.590897
0.490430	1.595044
0.490527	1.579187
0.490625	1.594193
0.490723	1.602007
0.490820	1.605926
0.490918	1.607750
0.491016	1.627411
0.491113	1.630559
0.491211	1.606148
0.491309	1.591593
0.491406	1.638343
0.491504	1.673247
0.491602	1.679343
0.491699	1.676912
0.491797	1.668113
0.491895	1.604249
0.491992	1.597252
0.492090	1.618017
0.492187	1.601042
0.492285	1.598465
0.492383	1.609719
0.492480	1.599814
0.492578	1.580257
0.492676	1.582493
0.492773	1.574164
0.492871	1.565267
0.492969	1.558928
0.493066	1.562992
0.493164	1.539122
0.493262	1.546025
0.493359	1.541514
0.493457	1.570890
0.493555	1.571009
0.493652	1.512401
0.493750	1.507813
0.493848	1.500498
0.493945	1.530532
0.494043	1.541655
0.494141	1.546111
0.494238	1.513652
0.494336	1.575623
0.494434	1.525200
0.494531	1.471627
0.494629	1.478561
0.494727	1.487862
0.494824	1.489882
0.494922	1.501509
0.495020	1.502576
0.495117	1.518244
0.495215	1.536966
0.495312	1.528814
0.495410	1.570018
0.495508	1.620964
0.495605	1.596738
0.495703	1.548383
0.495801	1.514794
0.495898	1.475238
0.495996	1.467908
0.496094	1.478282
0.496191	1.470900
0.496289	1.433082
0.496387	1.428393
0.496484	1.418140
0.496582	1.440415
0.496680	1.447722
0.496777	1.460094
0.496875	1.478056
0.496973	1.512541
0.497070	1.536486
0.497168	1.535673
0.497266	1.510769
0.497363	1.544119
0.497461	1.570349
0.497559	1.543669
0.497656	1.527066
0.497754	1.509041
0.497852	1.509019
0.497949	1.475367
0.498047	1.438149
0.498145	1.413397
0.498242	1.395824
0.498340	1.390204
0.498437	1.392943
0.498535	1.401009
0.498633	1.363788
0.498730	1.376684
0.498828	1.412343
0.498926	1.385382
0.499023	1.362917
0.499121	1.362768
0.499219	1.372783
0.499316	1.415051
0.499414	1.457710
0.499512	1.566812
0.499609	1.561042
0.499707	1.506163
0.499805	1.521516
0.499902	1.477658
0.500000	1.439240
0.500098	1.405109
0.500195	1.390056
0.500293	1.431661
0.500391	1.429034
0.500488	1.444261
0.500586	1.525327
0.500684	1.535648
0.500781	1.518576
0.500879	1.501693
0.500977	1.488586
0.501074	1.497574
0.501172	1.530240
0.501270	1.537553
0.501367	1.531560
0.501465	1.552895
0.501562	1.558620
0.501660	1.570544
0.501758	1.586683
0.501855	1.597973
0.501953	1.610005
0.502051	1.617476
0.502148	1.623341
0.502246	1.622276
0.502344	1.617111
0.502441	1.598039
0.502539	1.571640
0.502637	1.549601
0.502734	1.540083
0.502832	1.540813
0.502930	1.538575
0.503027	1.542217
0.503125	1.554073
0.503223	1.565014
0.503320	1.572842
0.503418	1.578966
0.503516	1.584689
0.503613	1.590402
0.503711	1.596146
0.503809	1.601638
0.503906	1.606867
0.504004	1.612020
0.504102	1.617089
0.504199	1.622335
0.504297	1.627364
0.504395	1.632932
0.504492	1.638844
0.504590	1.645387
0.504687	1.651197
0.504785	1.657198
0.504883	1.663645
0.504980	1.669850
0.505078	1.672721
0.505176	1.676671
0.505273	1.679675
0.505371	1.684384
0.505469	1.688942
0.505566	1.703393
0.505664	1.710665
0.505762	1.721244
0.505859	1.713505
0.505957	1.716820
0.506055	1.713123
0.506152	1.700044
0.506250	1.701171
0.506348	1.691787
0.506445	1.674000
0.506543	1.675628
0.506641	1.675722
0.506738	1.665086
0.506836	1.675547
0.506934	1.638204
0.507031	1.636272
0.507129	1.609747
0.507227	1.609983
0.507324	1.624116
0.507422	1.636414
0.507520	1.615148
0.507617	1.588244
0.507715	1.664006
0.507812	1.694281
0.507910	1.707716
0.508008	1.663479
0.508105	1.638548
0.508203	1.610602
0.508301	1.584894
0.508398	1.589598
0.508496	1.565361
0.508594	1.564570
0.508691	1.536759
0.508789	1.538371
0.508887	1.555366
0.508984	1.553206
0.509082	1.572797
0.509180	1.561482
0.509277	1.560981
0.509375	1.533411
0.509473	1.592207
0.509570	1.628317
0.509668	1.664894
0.509766	1.681913
0.509863	1.637638
0.509961	1.651831
0.510059	1.669382
0.510156	1.665853
0.510254	1.657790
0.510352	1.656006
0.510449	1.638336
0.510547	1.599715
0.510645	1.588953
0.510742	1.586385
0.510840	1.568612
0.510937	1.556236
0.511035	1.564861
0.511133	1.566223
0.511230	1.552576
0.511328	1.536006
0.511426	1.531413
0.511523	1.548065
0.511621	1.568695
0.511719	1.595655
0.511816	1.587163
0.511914	1.570378
0.512012	1.566774
0.512109	1.548525
0.512207	1.534305
0.512305	1.525105
0.512402	1.519478
0.512500	1.520816
0.512598	1.523384
0.512695	1.533132
0.512793	1.544635
0.512891	1.556846
0.512988	1.560592
0.513086	1.546058
0.513184	1.520059
0.513281	1.511724
0.513379	1.515902
0.513477	1.535075
0.513574	1.546223
0.513672	1.502292
0.513770	1.438914
0.513867	1.424228
0.513965	1.411417
0.514062	1.366247
0.514160	1.317026
0.514258	1.281496
0.514355	1.253138
0.514453	1.245076
0.514551	1.245174
0.514648	1.261654
0.514746	1.320777
0.514844	1.376356
0.514941	1.428359
0.515039	1.454995
0.515137	1.497174
0.515234	1.475926
0.515332	1.408549
0.515430	1.436927
0.515527	1.489306
0.515625	1.456125
0.515723	1.439609
0.515820	1.418910
0.515918	1.377232
0.516016	1.391174
0.516113	1.396876
0.516211	1.451556
0.516309	1.504270
0.516406	1.524453
0.516504	1.563450
0.516602	1.571124
0.516699	1.576528
0.516797	1.572809
0.516895	1.576227
0.516992	1.551118
0.517090	1.526792
0.517187	1.493242
0.517285	1.453874
0.517383	1.419542
0.517480	1.416167
0.517578	1.391656
0.517676	1.399538
0.517773	1.534830
0.517871	1.569499
0.517969	1.587015
0.518066	1.615836
0.518164	1.667158
0.518262	1.671528
0.518359	1.639140
0.518457	1.553339
0.518555	1.510661
0.518652	1.519372
0.518750	1.515796
0.518848	1.565079
0.518945	1.560147
0.519043	1.547957
0.519141	1.530659
0.519238	1.529962
0.519336	1.481882
0.519434	1.436586
0.519531	1.386756
0.519629	1.410835
0.519727	1.468715
0.519824	1.480864
0.519922	1.505340
0.520020	1.450591
0.520117	1.442312
0.520215	1.426295
0.520312	1.364043
0.520410	1.430485
0.520508	1.453274
0.520605	1.492386
0.520703	1.513024
0.520801	1.522252
0.520898	1.557029
0.520996	1.581108
0.521094	1.543320
0.521191	1.508389
0.521289	1.464286
0.521387	1.477965
0.521484	1.488459
0.521582	1.462306
0.521680	1.432356
0.521777	1.452885
0.521875	1.401537
0.521973	1.394329
0.522070	1.408709
0.522168	1.407122
0.522266	1.420867
0.522363	1.472141
0.522461	1.472813
0.522559	1.516454
0.522656	1.577245
0.522754	1.581629
0.522852	1.561555
0.522949	1.504121
0.523047	1.507962
0.523145	1.520345
0.523242	1.521341
0.523340	1.548987
0.523437	1.549046
0.523535	1.534305
0.523633	1.510911
0.523730	1.447327
0.523828	1.408924
0.523926	1.444985
0.524023	1.496218
0.524121	1.493135
0.524219	1.487014
0.524316	1.493396
0.524414	1.477659
0.524512	1.471608
0.524609	1.496969
0.524707	1.496222
0.524805	1.463391
0.524902	1.432306
0.525000	1.414337
0.525098	1.405338
0.525195	1.416202
0.525293	1.416259
0.525391	1.407056
0.525488	1.408666
0.525586	1.410195
0.525684	1.405775
0.525781	1.396672
0.525879	1.379552
0.525977	1.365298
0.526074	1.360934
0.526172	1.360443
0.526270	1.371441
0.526367	1.397235
0.526465	1.415065
0.526562	1.404586
0.526660	1.363947
0.526758	1.359337
0.526855	1.408827
0.526953	1.447479
0.527051	1.469222
0.527148	1.486947
0.527246	1.498912
0.527344	1.506225
0.527441	1.515782
0.527539	1.503306
0.527637	1.497458
0.527734	1.480417
0.527832	1.483542
0.527930	1.460047
0.528027	1.523535
0.528125	1.538077
0.528223	1.543255
0.528320	1.569369
0.528418	1.562800
0.528516	1.585233
0.528613	1.591984
0.528711	1.599684
0.528809	1.530446
0.528906	1.524174
0.529004	1.538698
0.529102	1.541702
0.529199	1.608216
0.529297	1.633512
0.529395	1.589343
0.529492	1.597826
0.529590	1.575104
0.529687	1.453419
0.529785	1.423364
0.529883	1.447430
0.529980	1.492670
0.530078	1.479465
0.530176	1.411904
0.530273	1.351935
0.530371	1.341349
0.530469	1.346325
0.530566	1.363787
0.530664	1.370046
0.530762	1.323858
0.530859	1.346244
0.530957	1.394581
0.531055	1.422387
0.531152	1.374563
0.531250	1.335687
0.531348	1.341288
0.531445	1.383677
0.531543	1.461638
0.531641	1.506150
0.531738	1.490370
0.531836	1.483102
0.531934	1.493083
0.532031	1.477152
0.532129	1.439036
0.532227	1.436361
0.532324	1.456784
0.532422	1.535659
0.532520	1.610021
0.532617	1.586968
0.532715	1.581904
0.532812	1.608490
0.532910	1.592563
0.533008	1.556038
0.533105	1.552591
0.533203	1.559122
0.533301	1.501744
0.533398	1.460289
0.533496	1.533565
0.533594	1.511495
0.533691	1.492996
0.533789	1.518446
0.533887	1.543712
0.533984	1.503608
0.534082	1.500166
0.534180	1.507748
0.534277	1.473513
0.534375	1.450471
0.534473	1.463907
0.534570	1.411110
0.534668	1.373331
0.534766	1.431953
0.534863	1.382885
0.534961	1.378269
0.535059	1.391093
0.535156	1.471297
0.535254	1.501031
0.535352	1.420638
0.535449	1.448533
0.535547	1.438462
0.535645	1.508247
0.535742	1.490080
0.535840	1.476182
0.535937	1.522062
0.536035	1.533094
0.536133	1.544465
0.536230	1.560312
0.536328	1.590438
0.536426	1.580595
0.536523	1.573254
0.536621	1.589864
0.536719	1.591318
0.536816	1.592689
0.536914	1.594031
0.537012	1.586949
0.537109	1.573403
0.537207	1.589406
0.537305	1.610656
0.537402	1.600679
0.537500	1.593620
0.537598	1.570328
0.537695	1.550279
0.537793	1.543809
0.537891	1.571920
0.537988	1.581672
0.538086	1.551076
0.538184	1.504020
0.538281	1.471066
0.538379	1.449217
0.538477	1.436035
0.538574	1.436754
0.538672	1.412894
0.538770	1.418615
0.538867	1.453805
0.538965	1.470497
0.539062	1.451916
0.539160	1.433444
0.539258	1.408290
0.539355	1.396614
0.539453	1.396244
0.539551	1.391175
0.539648	1.389042
0.539746	1.380479
0.539844	1.379992
0.539941	1.379573
0.540039	1.373954
0.540137	1.361782
0.540234	1.344508
0.540332	1.319360
0.540430	1.293246
0.540527	1.271509
0.540625	1.254852
0.540723	1.246843
0.540820	1.256662
0.540918	1.286284
0.541016	1.319399
0.541113	1.343950
0.541211	1.375971
0.541309	1.423123
0.541406	1.437428
0.541504	1.444063
0.541602	1.437978
0.541699	1.445026
0.541797	1.433809
0.541895	1.430188
0.541992	1.488881
0.542090	1.494065
0.542187	1.493679
0.542285	1.479611
0.542383	1.457532
0.542480	1.438084
0.542578	1.443867
0.542676	1.477384
0.542773	1.465398
0.542871	1.507936
0.542969	1.542775
0.543066	1.508739
0.543164	1.483606
0.543262	1.562949
0.543359	1.586458
0.543457	1.581762
0.543555	1.586296
0.543652	1.571410
0.543750	1.557053
0.543848	1.521300
0.543945	1.522267
0.544043	1.508743
0.544141	1.478376
0.544238	1.502259
0.544336	1.473343
0.544434	1.411085
0.544531	1.414088
0.544629	1.368977
0.544727	1.478235
0.544824	1.592734
0.544922	1.564184
0.545020	1.592950
0.545117	1.572592
0.545215	1.560196
0.545312	1.588014
0.545410	1.583496
0.545508	1.532971
0.545605	1.482241
0.545703	1.430743
0.545801	1.393924
0.545898	1.418798
0.545996	1.452391
0.546094	1.485727
0.546191	1.436952
0.546289	1.402360
0.546387	1.414102
0.546484	1.424857
0.546582	1.466595
0.546680	1.500438
0.546777	1.539062
0.546875	1.544718
0.546973	1.550454
0.547070	1.587889
0.547168	1.612841
0.547266	1.610091
0.547363	1.607075
0.547461	1.596617
0.547559	1.584260
0.547656	1.575110
0.547754	1.597834
0.547852	1.617975
0.547949	1.603524
0.548047	1.628484
0.548145	1.632045
0.548242	1.606307
0.548340	1.607814
0.548437	1.571137
0.548535	1.538603
0.548633	1.519372
0.548730	1.501871
0.548828	1.485182
0.548926	1.467400
0.549023	1.482526
0.549121	1.505202
0.549219	1.503237
0.549316	1.486570
0.549414	1.433591
0.549512	1.423359
0.549609	1.461543
0.549707	1.484875
0.549805	1.518089
0.549902	1.527754
0.550000	1.551079
0.550098	1.554901
0.550195	1.574273
0.550293	1.569430
0.550391	1.545941
0.550488	1.580242
0.550586	1.586614
0.550684	1.584251
0.550781	1.563918
0.550879	1.504075
0.550977	1.429489
0.551074	1.446148
0.551172	1.487964
0.551270	1.469289
0.551367	1.424556
0.551465	1.491451
0.551562	1.556107
0.551660	1.583934
0.551758	1.640580
0.551855	1.691165
0.551953	1.661828
0.552051	1.540022
0.552148	1.522757
0.552246	1.574394
0.552344	1.568906
0.552441	1.534856
0.552539	1.529611
0.552637	1.528284
0.552734	1.504848
0.552832	1.439291
0.552930	1.410272
0.553027	1.397975
0.553125	1.414270
0.553223	1.392950
0.553320	1.362385
0.553418	1.488692
0.553516	1.568649
0.553613	1.574571
0.553711	1.553960
0.553809	1.485342
0.553906	1.403630
0.554004	1.407226
0.554102	1.372092
0.554199	1.416018
0.554297	1.504181
0.554395	1.520787
0.554492	1.563415
0.554590	1.564995
0.554687	1.587499
0.554785	1.600511
0.554883	1.624639
0.554980	1.615473
0.555078	1.575314
0.555176	1.536540
0.555273	1.554836
0.555371	1.614286
0.555469	1.623387
0.555566	1.656748
0.555664	1.667253
0.555762	1.657419
0.555859	1.610932
0.555957	1.651141
0.556055	1.656033
0.556152	1.660036
0.556250	1.588325
0.556348	1.578852
0.556445	1.551137
0.556543	1.597278
0.556641	1.615773
0.556738	1.607695
0.556836	1.662940
0.556934	1.638161
0.557031	1.620588
0.557129	1.608871
0.557227	1.576344
0.557324	1.545286
0.557422	1.544609
0.557520	1.533589
0.557617	1.544098
0.557715	1.569049
0.557812	1.570203
0.557910	1.578775
0.558008	1.599432
0.558105	1.591431
0.558203	1.603146
0.558301	1.602363
0.558398	1.617688
0.558496	1.647330
0.558594	1.624021
0.558691	1.574135
0.558789	1.549271
0.558887	1.537165
0.558984	1.547518
0.559082	1.557925
0.559180	1.569769
0.559277	1.588870
0.559375	1.606036
0.559473	1.590875
0.559570	1.580240
0.559668	1.550900
0.559766	1.545180
0.559863	1.552969
0.559961	1.541250
0.560059	1.534993
0.560156	1.516495
0.560254	1.504078
0.560352	1.490931
0.560449	1.502833
0.560547	1.485326
0.560645	1.444693
0.560742	1.418074
0.560840	1.404597
0.560937	1.373536
0.561035	1.368336
0.561133	1.382071
0.561230	1.409806
0.561328	1.429600
0.561426	1.403301
0.561523	1.395636
0.561621	1.389460
0.561719	1.379280
0.561816	1.367866
0.561914	1.366973
0.562012	1.375240
0.562109	1.383132
0.562207	1.374137
0.562305	1.366738
0.562402	1.375117
0.562500	1.405179
0.562598	1.449182
0.562695	1.454481
0.562793	1.427127
0.562891	1.399705
0.562988	1.401502
0.563086	1.427326
0.563184	1.467948
0.563281	1.503475
0.563379	1.493929
0.563477	1.477358
0.563574	1.469975
0.563672	1.479620
0.563770	1.488711
0.563867	1.481496
0.563965	1.464894
0.564062	1.472802
0.564160	1.500214
0.564258	1.508478
0.564355	1.507634
0.564453	1.491255
0.564551	1.497378
0.564648	1.512648
0.564746	1.508359
0.564844	1.490087
0.564941	1.470215
0.565039	1.452841
0.565137	1.422242
0.565234	1.374212
0.565332	1.354853
0.565430	1.349732
0.565527	1.331275
0.565625	1.311737
0.565723	1.289452
0.565820	1.270056
0.565918	1.265609
0.566016	1.284437
0.566113	1.301163
0.566211	1.299420
0.566309	1.322579
0.566406	1.363610
0.566504	1.368803
0.566602	1.431805
0.566699	1.484313
0.566797	1.525444
0.566895	1.566630
0.566992	1.563859
0.567090	1.605650
0.567187	1.597543
0.567285	1.550315
0.567383	1.504052
0.567480	1.464404
0.567578	1.418667
0.567676	1.403863
0.567773	1.399060
0.567871	1.405905
0.567969	1.437092
0.568066	1.467372
0.568164	1.488474
0.568262	1.458697
0.568359	1.413643
0.568457	1.353468
0.568555	1.336160
0.568652	1.315477
0.568750	1.326986
0.568848	1.384130
0.568945	1.386312
0.569043	1.410451
0.569141	1.449962
0.569238	1.480051
0.569336	1.493381
0.569434	1.492117
0.569531	1.483771
0.569629	1.459132
0.569727	1.426504
0.569824	1.396956
0.569922	1.362836
0.570020	1.360499
0.570117	1.393244
0.570215	1.431707
0.570312	1.492716
0.570410	1.542892
0.570508	1.570937
0.570605	1.575728
0.570703	1.566020
0.570801	1.545838
0.570898	1.545410
0.570996	1.566283
0.571094	1.574567
0.571191	1.608776
0.571289	1.623345
0.571387	1.680019
0.571484	1.674541
0.571582	1.594495
0.571680	1.596054
0.571777	1.582951
0.571875	1.537900
0.571973	1.572953
0.572070	1.627775
0.572168	1.645218
0.572266	1.644349
0.572363	1.636149
0.572461	1.651159
0.572559	1.628296
0.572656	1.624612
0.572754	1.626807
0.572852	1.621338
0.572949	1.549044
0.573047	1.556768
0.573145	1.571612
0.573242	1.561710
0.573340	1.577296
0.573437	1.503220
0.573535	1.454472
0.573633	1.468049
0.573730	1.504050
0.573828	1.527464
0.573926	1.559753
0.574023	1.571447
0.574121	1.601255
0.574219	1.612320
0.574316	1.650702
0.574414	1.637530
0.574512	1.626863
0.574609	1.574858
0.574707	1.567876
0.574805	1.609055
0.574902	1.657969
0.575000	1.538354
0.575098	1.441009
0.575195	1.485300
0.575293	1.531257
0.575391	1.554391
0.575488	1.565089
0.575586	1.497205
0.575684	1.553425
0.575781	1.564834
0.575879	1.545969
0.575977	1.543513
0.576074	1.562489
0.576172	1.573478
0.576270	1.560433
0.576367	1.483546
0.576465	1.430251
0.576562	1.490806
0.576660	1.584922
0.576758	1.548977
0.576855	1.558248
0.576953	1.539846
0.577051	1.410552
0.577148	1.357832
0.577246	1.403878
0.577344	1.425679
0.577441	1.434765
0.577539	1.382958
0.577637	1.352616
0.577734	1.367299
0.577832	1.389842
0.577930	1.401749
0.578027	1.431960
0.578125	1.435539
0.578223	1.411296
0.578320	1.433153
0.578418	1.404465
0.578516	1.416377
0.578613	1.459558
0.578711	1.399129
0.578809	1.367216
0.578906	1.367581
0.579004	1.427295
0.579102	1.421272
0.579199	1.407617
0.579297	1.385341
0.579395	1.397701
0.579492	1.450757
0.579590	1.511365
0.579687	1.507544
0.579785	1.485706
0.579883	1.443264
0.579980	1.443773
0.580078	1.450519
0.580176	1.465785
0.580273	1.453648
0.580371	1.460989
0.580469	1.514678
0.580566	1.554840
0.580664	1.586190
0.580762	1.562023
0.580859	1.558535
0.580957	1.560161
0.581055	1.584477
0.581152	1.599063
0.581250	1.587835
0.581348	1.569988
0.581445	1.604951
0.581543	1.607685
0.581641	1.558970
0.581738	1.526538
0.581836	1.493666
0.581934	1.468228
0.582031	1.446985
0.582129	1.423724
0.582227	1.416233
0.582324	1.395689
0.582422	1.432006
0.582520	1.406782
0.582617	1.405017
0.582715	1.429266
0.582812	1.484373
0.582910	1.554881
0.583008	1.520649
0.583105	1.502079
0.583203	1.545269
0.583301	1.557279
0.583398	1.520019
0.583496	1.538368
0.583594	1.546154
0.583691	1.488629
0.583789	1.484708
0.583887	1.445202
0.583984	1.428384
0.584082	1.445419
0.584180	1.491864
0.584277	1.502857
0.584375	1.519233
0.584473	1.507715
0.584570	1.492908
0.584668	1.500803
0.584766	1.503552
0.584863	1.531889
0.584961	1.509305
0.585059	1.461406
0.585156	1.470030
0.585254	1.400373
0.585352	1.383805
0.585449	1.416526
0.585547	1.421612
0.585645	1.429664
0.585742	1.404498
0.585840	1.345935
0.585937	1.279890
0.586035	1.317602
0.586133	1.373766
0.586230	1.406832
0.586328	1.453412
0.586426	1.459512
0.586523	1.448093
0.586621	1.483979
0.586719	1.503968
0.586816	1.494547
0.586914	1.470138
0.587012	1.470599
0.587109	1.469064
0.587207	1.510655
0.587305	1.503498
0.587402	1.468119
0.587500	1.493144
0.587598	1.459963
0.587695	1.416562
0.587793	1.430052
0.587891	1.453230
0.587988	1.472746
0.588086	1.454721
0.588184	1.467794
0.588281	1.518658
0.588379	1.512726
0.588477	1.534535
0.588574	1.532619
0.588672	1.568928
0.588770	1.551549
0.588867	1.497091
0.588965	1.473100
0.589062	1.443445
0.589160	1.419882
0.589258	1.413844
0.589355	1.453764
0.589453	1.486848
0.589551	1.513867
0.589648	1.520508
0.589746	1.520452
0.589844	1.500181
0.589941	1.496957
0.590039	1.483879
0.590137	1.480791
0.590234	1.469225
0.590332	1.475783
0.590430	1.488526
0.590527	1.480082
0.590625	1.450588
0.590723	1.430661
0.590820	1.413861
0.590918	1.384358
0.591016	1.361807
0.591113	1.345103
0.591211	1.326176
0.591309	1.308220
0.591406	1.290400
0.591504	1.279244
0.591602	1.288685
0.591699	1.315938
0.591797	1.396990
0.591895	1.402017
0.591992	1.336460
0.592090	1.282446
0.592187	1.353652
0.592285	1.428659
0.592383	1.474872
0.592480	1.514681
0.592578	1.522339
0.592676	1.515666
0.592773	1.496781
0.592871	1.465210
0.592969	1.418167
0.593066	1.391766
0.593164	1.382270
0.593262	1.391955
0.593359	1.402547
0.593457	1.444992
0.593555	1.503292
0.593652	1.526461
0.593750	1.505006
0.593848	1.510976
0.593945	1.506970
0.594043	1.503948
0.594141	1.449524
0.594238	1.488788
0.594336	1.536424
0.594434	1.519206
0.594531	1.503592
0.594629	1.569726
0.594727	1.550088
0.594824	1.524678
0.594922	1.507823
0.595020	1.502697
0.595117	1.527641
0.595215	1.499129
0.595312	1.473192
0.595410	1.499417
0.595508	1.493341
0.595605	1.470494
0.595703	1.441181
0.595801	1.445566
0.595898	1.526876
0.595996	1.523205
0.596094	1.530251
0.596191	1.516628
0.596289	1.535465
0.596387	1.573242
0.596484	1.549479
0.596582	1.494307
0.596680	1.438280
0.596777	1.466902
0.596875	1.500288
0.596973	1.461756
0.597070	1.464975
0.597168	1.479950
0.597266	1.494018
0.597363	1.462446
0.597461	1.610148
0.597559	1.561339
0.597656	1.498004
0.597754	1.495861
0.597852	1.529068
0.597949	1.445267
0.598047	1.407939
0.598145	1.486610
0.598242	1.505583
0.598340	1.497594
0.598437	1.562402
0.598535	1.543788
0.598633	1.516171
0.598730	1.539890
0.598828	1.507046
0.598926	1.537945
0.599023	1.516948
0.599121	1.567782
0.599219	1.514573
0.599316	1.528470
0.599414	1.560167
0.599512	1.539419
0.599609	1.538846
0.599707	1.516954
0.599805	1.504776
0.599902	1.481219
0.600000	1.493912
0.600098	1.471362
0.600195	1.502844
0.600293	1.462243
0.600391	1.406529
0.600488	1.448594
0.600586	1.461448
0.600684	1.553948
0.600781	1.514839
0.600879	1.479264
0.600977	1.505925
0.601074	1.488996
0.601172	1.503616
0.601270	1.533030
0.601367	1.505290
0.601465	1.504413
0.601562	1.499562
0.601660	1.467827
0.601758	1.464791
0.601855	1.514221
0.601953	1.564757
0.602051	1.537907
0.602148	1.587923
0.602246	1.578300
0.602344	1.496244
0.602441	1.516128
0.602539	1.568661
0.602637	1.594586
0.602734	1.570879
0.602832	1.479915
0.602930	1.496307
0.603027	1.476400
0.603125	1.388469
0.603223	1.318167
0.603320	1.362041
0.603418	1.417409
0.603516	1.434157
0.603613	1.383783
0.603711	1.386795
0.603809	1.440965
0.603906	1.457689
0.604004	1.422653
0.604102	1.430309
0.604199	1.425913
0.604297	1.336720
0.604395	1.283660
0.604492	1.345909
0.604590	1.433981
0.604687	1.425485
0.604785	1.419163
0.604883	1.393138
0.604980	1.362110
0.605078	1.354714
0.605176	1.373126
0.605273	1.382971
0.605371	1.400613
0.605469	1.415078
0.605566	1.447835
0.605664	1.464483
0.605762	1.476429
0.605859	1.419596
0.605957	1.386875
0.606055	1.431200
0.606152	1.445635
0.606250	1.455897
0.606348	1.429684
0.606445	1.490813
0.606543	1.526845
0.606641	1.530631
0.606738	1.493743
0.606836	1.453035
0.606934	1.434064
0.607031	1.399810
0.607129	1.469023
0.607227	1.572835
0.607324	1.576542
0.607422	1.593305
0.607520	1.609295
0.607617	1.618477
0.607715	1.578340
0.607812	1.572835
0.607910	1.530774
0.608008	1.470629
0.608105	1.497201
0.608203	1.612543
0.608301	1.628413
0.608398	1.600301
0.608496	1.591066
0.608594	1.554182
0.608691	1.552764
0.608789	1.549689
0.608887	1.497315
0.608984	1.517436
0.609082	1.580788
0.609180	1.686239
0.609277	1.696930
0.609375	1.693297
0.609473	1.748632
0.609570	1.759180
0.609668	1.735664
0.609766	1.721160
0.609863	1.721136
0.609961	1.703024
0.610059	1.722049
0.610156	1.719248
0.610254	1.724558
0.610352	1.731392
0.610449	1.691062
0.610547	1.665607
0.610645	1.696427
0.610742	1.718561
0.610840	1.703729
0.610937	1.690544
0.611035	1.636616
0.611133	1.606996
0.611230	1.580116
0.611328	1.558462
0.611426	1.477096
0.611523	1.425429
0.611621	1.557056
0.611719	1.558521
0.611816	1.551534
0.611914	1.532598
0.612012	1.530486
0.612109	1.549134
0.612207	1.536543
0.612305	1.506222
0.612402	1.440418
0.612500	1.455973
0.612598	1.471176
0.612695	1.515667
0.612793	1.553656
0.612891	1.547830
0.612988	1.527038
0.613086	1.503229
0.613184	1.514071
0.613281	1.501323
0.613379	1.481942
0.613477	1.475288
0.613574	1.523260
0.613672	1.531323
0.613770	1.550482
0.613867	1.564505
0.613965	1.581338
0.614062	1.603188
0.614160	1.614453
0.614258	1.638493
0.614355	1.653248
0.614453	1.603640
0.614551	1.588153
0.614648	1.572269
0.614746	1.550362
0.614844	1.562137
0.614941	1.567120
0.615039	1.563016
0.615137	1.549621
0.615234	1.554955
0.615332	1.558186
0.615430	1.539769
0.615527	1.543451
0.615625	1.570368
0.615723	1.588815
0.615820	1.588486
0.615918	1.580050
0.616016	1.568684
0.616113	1.575159
0.616211	1.570219
0.616309	1.587959
0.616406	1.544375
0.616504	1.565008
0.616602	1.595941
0.616699	1.584496
0.616797	1.576870
0.616895	1.598295
0.616992	1.609823
0.617090	1.582147
0.617187	1.532150
0.617285	1.510807
0.617383	1.529945
0.617480	1.561789
0.617578	1.550909
0.617676	1.504508
0.617773	1.469795
0.617871	1.501318
0.617969	1.516507
0.618066	1.509847
0.618164	1.506081
0.618262	1.496495
0.618359	1.479341
0.618457	1.444875
0.618555	1.417587
0.618652	1.418605
0.618750	1.441810
0.618848	1.430335
0.618945	1.451678
0.619043	1.478826
0.619141	1.550930
0.619238	1.519692
0.619336	1.495006
0.619434	1.493403
0.619531	1.453057
0.619629	1.457260
0.619727	1.506607
0.619824	1.508619
0.619922	1.440810
0.620020	1.503917
0.620117	1.477147
0.620215	1.488427
0.620312	1.497885
0.620410	1.485411
0.620508	1.481725
0.620605	1.461989
0.620703	1.408150
0.620801	1.369609
0.620898	1.364827
0.620996	1.378927
0.621094	1.382159
0.621191	1.370286
0.621289	1.364994
0.621387	1.374985
0.621484	1.384299
0.621582	1.376617
0.621680	1.360540
0.621777	1.351988
0.621875	1.356640
0.621973	1.361582
0.622070	1.360018
0.622168	1.370958
0.622266	1.373598
0.622363	1.368493
0.622461	1.358874
0.622559	1.350855
0.622656	1.341013
0.622754	1.370747
0.622852	1.408802
0.622949	1.455812
0.623047	1.513096
0.623145	1.541620
0.623242	1.546227
0.623340	1.545968
0.623437	1.550056
0.623535	1.606748
0.623633	1.594731
0.623730	1.592148
0.623828	1.618301
0.623926	1.618211
0.624023	1.640585
0.624121	1.633875
0.624219	1.643505
0.624316	1.651191
0.624414	1.659676
0.624512	1.666966
0.624609	1.679880
0.624707	1.704679
0.624805	1.692011
0.624902	1.650616
0.625000	1.640343
0.625098	1.624460
0.625195	1.662339
0.625293	1.634318
0.625391	1.590464
0.625488	1.576006
0.625586	1.593679
0.625684	1.577603
0.625781	1.548048
0.625879	1.568258
0.625977	1.599271
0.626074	1.592369
0.626172	1.606493
0.626270	1.613741
0.626367	1.582756
0.626465	1.573105
0.626562	1.578477
0.626660	1.551429
0.626758	1.593962
0.626855	1.651956
0.626953	1.631556
0.627051	1.627034
0.627148	1.614620
0.627246	1.609782
0.627344	1.580909
0.627441	1.599955
0.627539	1.555888
0.627637	1.551214
0.627734	1.604729
0.627832	1.589720
0.627930	1.556908
0.628027	1.574208
0.628125	1.580931
0.628223	1.572348
0.628320	1.515653
0.628418	1.552444
0.628516	1.563202
0.628613	1.583377
0.628711	1.566670
0.628809	1.568527
0.628906	1.574764
0.629004	1.560574
0.629102	1.553914
0.629199	1.555662
0.629297	1.553375
0.629395	1.530208
0.629492	1.551364
0.629590	1.589153
0.629687	1.606505
0.629785	1.595984
0.629883	1.593975
0.629980	1.576435
0.630078	1.578685
0.630176	1.574069
0.630273	1.580947
0.630371	1.583496
0.630469	1.593494
0.630566	1.564971
0.630664	1.566312
0.630762	1.575671
0.630859	1.564697
0.630957	1.568452
0.631055	1.567041
0.631152	1.558806
0.631250	1.525407
0.631348	1.533182
0.631445	1.491723
0.631543	1.466644
0.631641	1.472921
0.631738	1.495506
0.631836	1.481577
0.631934	1.481148
0.632031	1.458098
0.632129	1.431447
0.632227	1.428356
0.632324	1.427565
0.632422	1.424347
0.632520	1.437078
0.632617	1.399637
0.632715	1.359368
0.632812	1.357714
0.632910	1.371502
0.633008	1.357912
0.633105	1.391426
0.633203	1.417078
0.633301	1.384319
0.633398	1.377142
0.633496	1.439662
0.633594	1.476777
0.633691	1.467184
0.633789	1.440127
0.633887	1.510464
0.633984	1.553252
0.634082	1.537762
0.634180	1.514873
0.634277	1.462876
0.634375	1.443173
0.634473	1.421445
0.634570	1.397657
0.634668	1.393176
0.634766	1.398358
0.634863	1.393706
0.634961	1.393117
0.635059	1.387484
0.635156	1.374464
0.635254	1.428858
0.635352	1.478559
0.635449	1.526222
0.635547	1.519847
0.635645	1.485489
0.635742	1.491517
0.635840	1.498151
0.635937	1.513825
0.636035	1.504043
0.636133	1.496162
0.636230	1.503777
0.636328	1.532804
0.636426	1.556469
0.636523	1.498204
0.636621	1.482409
0.636719	1.470797
0.636816	1.474433
0.636914	1.552846
0.637012	1.566480
0.637109	1.585113
0.637207	1.605710
0.637305	1.572299
0.637402	1.565021
0.637500	1.500975
0.637598	1.502232
0.637695	1.529040
0.637793	1.544549
0.637891	1.555959
0.637988	1.548690
0.638086	1.556959
0.638184	1.563172
0.638281	1.587434
0.638379	1.584447
0.638477	1.581385
0.638574	1.563204
0.638672	1.541028
0.638770	1.517634
0.638867	1.515094
0.638965	1.486890
0.639062	1.449167
0.639160	1.424348
0.639258	1.400071
0.639355	1.415911
0.639453	1.408969
0.639551	1.433034
0.639648	1.445576
0.639746	1.507886
0.639844	1.442134
0.639941	1.475537
0.640039	1.554781
0.640137	1.546847
0.640234	1.557462
0.640332	1.540321
0.640430	1.527642
0.640527	1.514615
0.640625	1.525931
0.640723	1.528738
0.640820	1.545796
0.640918	1.558574
0.641016	1.592964
0.641113	1.624878
0.641211	1.630437
0.641309	1.627588
0.641406	1.633379
0.641504	1.655762
0.641602	1.624705
0.641699	1.613098
0.641797	1.631740
0.641895	1.633615
0.641992	1.626456
0.642090	1.626791
0.642187	1.640664
0.642285	1.614129
0.642383	1.589479
0.642480	1.592658
0.642578	1.584007
0.642676	1.573937
0.642773	1.517371
0.642871	1.474179
0.642969	1.478798
0.643066	1.437050
0.643164	1.403978
0.643262	1.464727
0.643359	1.569020
0.643457	1.560992
0.643555	1.567859
0.643652	1.584992
0.643750	1.611529
0.643848	1.625859
0.643945	1.635954
0.644043	1.652586
0.644141	1.674631
0.644238	1.735393
0.644336	1.739433
0.644434	1.751775
0.644531	1.741077
0.644629	1.753419
0.644727	1.711799
0.644824	1.699243
0.644922	1.697681
0.645020	1.578995
0.645117	1.603458
0.645215	1.596948
0.645312	1.622303
0.645410	1.583626
0.645508	1.627593
0.645605	1.695316
0.645703	1.701050
0.645801	1.686299
0.645898	1.710540
0.645996	1.665901
0.646094	1.649998
0.646191	1.673963
0.646289	1.617065
0.646387	1.619095
0.646484	1.608481
0.646582	1.621493
0.646680	1.623649
0.646777	1.629429
0.646875	1.563881
0.646973	1.497926
0.647070	1.492729
0.647168	1.507781
0.647266	1.520550
0.647363	1.506766
0.647461	1.527261
0.647559	1.511922
0.647656	1.467514
0.647754	1.463180
0.647852	1.447339
0.647949	1.440301
0.648047	1.420826
0.648145	1.402718
0.648242	1.379100
0.648340	1.389458
0.648437	1.426531
0.648535	1.447872
0.648633	1.439625
0.648730	1.422561
0.648828	1.419970
0.648926	1.454604
0.649023	1.470661
0.649121	1.465595
0.649219	1.459674
0.649316	1.461584
0.649414	1.443424
0.649512	1.426874
0.649609	1.423419
0.649707	1.423336
0.649805	1.404620
0.649902	1.380565
0.650000	1.376921
0.650098	1.385864
0.650195	1.405652
0.650293	1.431317
0.650391	1.452733
0.650488	1.452161
0.650586	1.445010
0.650684	1.430789
0.650781	1.429891
0.650879	1.412329
0.650977	1.403956
0.651074	1.424895
0.651172	1.432868
0.651270	1.451111
0.651367	1.432309
0.651465	1.457366
0.651562	1.506107
0.651660	1.506171
0.651758	1.511689
0.651855	1.524173
0.651953	1.502909
0.652051	1.480570
0.652148	1.447477
0.652246	1.397716
0.652344	1.331406
0.652441	1.361602
0.652539	1.413094
0.652637	1.440991
0.652734	1.486788
0.652832	1.513930
0.652930	1.531263
0.653027	1.537739
0.653125	1.541139
0.653223	1.542811
0.653320	1.546774
0.653418	1.551686
0.653516	1.559114
0.653613	1.569486
0.653711	1.583281
0.653809	1.599418
0.653906	1.602303
0.654004	1.598924
0.654102	1.587347
0.654199	1.618819
0.654297	1.610341
0.654395	1.656198
0.654492	1.652431
0.654590	1.616632
0.654687	1.626501
0.654785	1.631859
0.654883	1.627752
0.654980	1.614159
0.655078	1.592741
0.655176	1.561555
0.655273	1.610955
0.655371	1.653774
0.655469	1.663383
0.655566	1.658348
0.655664	1.655293
0.655762	1.649387
0.655859	1.668845
0.655957	1.645182
0.656055	1.644503
0.656152	1.669790
0.656250	1.668619
0.656348	1.653423
0.656445	1.638806
0.656543	1.618536
0.656641	1.604591
0.656738	1.617874
0.656836	1.665866
0.656934	1.671550
0.657031	1.655855
0.657129	1.667172
0.657227	1.645961
0.657324	1.617041
0.657422	1.563168
0.657520	1.542528
0.657617	1.520540
0.657715	1.498511
0.657812	1.502451
0.657910	1.525472
0.658008	1.585147
0.658105	1.585074
0.658203	1.530092
0.658301	1.526012
0.658398	1.490348
0.658496	1.484406
0.658594	1.524250
0.658691	1.496344
0.658789	1.555016
0.658887	1.589113
0.658984	1.573611
0.659082	1.576044
0.659180	1.592523
0.659277	1.604164
0.659375	1.634413
0.659473	1.618683
0.659570	1.594561
0.659668	1.564279
0.659766	1.570114
0.659863	1.571739
0.659961	1.583406
0.660059	1.593256
0.660156	1.573890
0.660254	1.564364
0.660352	1.569906
0.660449	1.568481
0.660547	1.577654
0.660645	1.577746
0.660742	1.578981
0.660840	1.539704
0.660937	1.558269
0.661035	1.575675
0.661133	1.573879
0.661230	1.575271
0.661328	1.600012
0.661426	1.613204
0.661523	1.581354
0.661621	1.546034
0.661719	1.501466
0.661816	1.439662
0.661914	1.377801
0.662012	1.378830
0.662109	1.452433
0.662207	1.482062
0.662305	1.490707
0.662402	1.508471
0.662500	1.506606
0.662598	1.431719
0.662695	1.450043
0.662793	1.475767
0.662891	1.452822
0.662988	1.399200
0.663086	1.411603
0.663184	1.505599
0.663281	1.515766
0.663379	1.529954
0.663477	1.541492
0.663574	1.540164
0.663672	1.570890
0.663770	1.538155
0.663867	1.489260
0.663965	1.490815
0.664062	1.491829
0.664160	1.520424
0.664258	1.472654
0.664355	1.461067
0.664453	1.439194
0.664551	1.539084
0.664648	1.541497
0.664746	1.509224
0.664844	1.500113
0.664941	1.480879
0.665039	1.452760
0.665137	1.472223
0.665234	1.545158
0.665332	1.452530
0.665430	1.340696
0.665527	1.379654
0.665625	1.415630
0.665723	1.434333
0.665820	1.453756
0.665918	1.455535
0.666016	1.478916
0.666113	1.484633
0.666211	1.468478
0.666309	1.404055
0.666406	1.449096
0.666504	1.518279
0.666602	1.491310
0.666699	1.387072
0.666797	1.371507
0.666895	1.354350
0.666992	1.380458
0.667090	1.434489
0.667187	1.467262
0.667285	1.441972
0.667383	1.450807
0.667480	1.552062
0.667578	1.584184
0.667676	1.590490
0.667773	1.576621
0.667871	1.592948
0.667969	1.610673
0.668066	1.589988
0.668164	1.571537
0.668262	1.495372
0.668359	1.462047
0.668457	1.469618
0.668555	1.442399
0.668652	1.456184
0.668750	1.474008
0.668848	1.449211
0.668945	1.438443
0.669043	1.447035
0.669141	1.459308
0.669238	1.450959
0.669336	1.480135
0.669434	1.456236
0.669531	1.415250
0.669629	1.390038
0.669727	1.412224
0.669824	1.487256
0.669922	1.496820
0.670020	1.482941
0.670117	1.452936
0.670215	1.425532
0.670312	1.439828
0.670410	1.456086
0.670508	1.454149
0.670605	1.454178
0.670703	1.451189
0.670801	1.418135
0.670898	1.415864
0.670996	1.462174
0.671094	1.454950
0.671191	1.460344
0.671289	1.442721
0.671387	1.463247
0.671484	1.444990
0.671582	1.424685
0.671680	1.433458
0.671777	1.427065
0.671875	1.400505
0.671973	1.370674
0.672070	1.332258
0.672168	1.342503
0.672266	1.360367
0.672363	1.353537
0.672461	1.383803
0.672559	1.415454
0.672656	1.382390
0.672754	1.355580
0.672852	1.375389
0.672949	1.356314
0.673047	1.335666
0.673145	1.344175
0.673242	1.361250
0.673340	1.405867
0.673437	1.434944
0.673535	1.427145
0.673633	1.455407
0.673730	1.477986
0.673828	1.433683
0.673926	1.421504
0.674023	1.369777
0.674121	1.387749
0.674219	1.516834
0.674316	1.475766
0.674414	1.415385
0.674512	1.363167
0.674609	1.354596
0.674707	1.369492
0.674805	1.373420
0.674902	1.383383
0.675000	1.418433
0.675098	1.452744
0.675195	1.464660
0.675293	1.449531
0.675391	1.437954
0.675488	1.446320
0.675586	1.450992
0.675684	1.414189
0.675781	1.408952
0.675879	1.404694
0.675977	1.385318
0.676074	1.374955
0.676172	1.362906
0.676270	1.336678
0.676367	1.317746
0.676465	1.289691
0.676562	1.272174
0.676660	1.264405
0.676758	1.274761
0.676855	1.305797
0.676953	1.359175
0.677051	1.376565
0.677148	1.370074
0.677246	1.379104
0.677344	1.377916
0.677441	1.373028
0.677539	1.367598
0.677637	1.360638
0.677734	1.352494
0.677832	1.342012
0.677930	1.368831
0.678027	1.401326
0.678125	1.351293
0.678223	1.310665
0.678320	1.320916
0.678418	1.300709
0.678516	1.278227
0.678613	1.285982
0.678711	1.295116
0.678809	1.288125
0.678906	1.280276
0.679004	1.274019
0.679102	1.282403
0.679199	1.326841
0.679297	1.353214
0.679395	1.355473
0.679492	1.370045
0.679590	1.380136
0.679687	1.370061
0.679785	1.340303
0.679883	1.333193
0.679980	1.375259
0.680078	1.404177
0.680176	1.398457
0.680273	1.372368
0.680371	1.345217
0.680469	1.316617
0.680566	1.281477
0.680664	1.244182
0.680762	1.245257
0.680859	1.277048
0.680957	1.286724
0.681055	1.292690
0.681152	1.324905
0.681250	1.348116
0.681348	1.354892
0.681445	1.390927
0.681543	1.405092
0.681641	1.377101
0.681738	1.339826
0.681836	1.350521
0.681934	1.367947
0.682031	1.412131
0.682129	1.397025
0.682227	1.357751
0.682324	1.327511
0.682422	1.335210
0.682520	1.347080
0.682617	1.335834
0.682715	1.338708
0.682812	1.327457
0.682910	1.308984
0.683008	1.289001
0.683105	1.293199
0.683203	1.313568
0.683301	1.367585
0.683398	1.401444
0.683496	1.381316
0.683594	1.338179
0.683691	1.337204
0.683789	1.359875
0.683887	1.443456
0.683984	1.436556
0.684082	1.390548
0.684180	1.355517
0.684277	1.399168
0.684375	1.410770
0.684473	1.398900
0.684570	1.397017
0.684668	1.368144
0.684766	1.366767
0.684863	1.376400
0.684961	1.373976
0.685059	1.346281
0.685156	1.349239
0.685254	1.326123
0.685352	1.342000
0.685449	1.381136
0.685547	1.401303
0.685645	1.380386
0.685742	1.359258
0.685840	1.341561
0.685937	1.312696
0.686035	1.291727
0.686133	1.291097
0.686230	1.306477
0.686328	1.343555
0.686426	1.405422
0.686523	1.452100
0.686621	1.471739
0.686719	1.477658
0.686816	1.474269
0.686914	1.466777
0.687012	1.437776
0.687109	1.398259
0.687207	1.384001
0.687305	1.379946
0.687402	1.370563
0.687500	1.368312
0.687598	1.398737
0.687695	1.423831
0.687793	1.402986
0.687891	1.374940
0.687988	1.377245
0.688086	1.382476
0.688184	1.371957
0.688281	1.364526
0.688379	1.386845
0.688477	1.402681
0.688574	1.386575
0.688672	1.407085
0.688770	1.486177
0.688867	1.500731
0.688965	1.469970
0.689062	1.425874
0.689160	1.378442
0.689258	1.364869
0.689355	1.395138
0.689453	1.413727
0.689551	1.385196
0.689648	1.384535
0.689746	1.405649
0.689844	1.413431
0.689941	1.372150
0.690039	1.475459
0.690137	1.573664
0.690234	1.566584
0.690332	1.592139
0.690430	1.563793
0.690527	1.560314
0.690625	1.539773
0.690723	1.541092
0.690820	1.545225
0.690918	1.540243
0.691016	1.525816
0.691113	1.488663
0.691211	1.438446
0.691309	1.458386
0.691406	1.468527
0.691504	1.480758
0.691602	1.558373
0.691699	1.579005
0.691797	1.550049
0.691895	1.567867
0.691992	1.608255
0.692090	1.612192
0.692187	1.636971
0.692285	1.639061
0.692383	1.647567
0.692480	1.670504
0.692578	1.638097
0.692676	1.647377
0.692773	1.639722
0.692871	1.625590
0.692969	1.630763
0.693066	1.608886
0.693164	1.590886
0.693262	1.636702
0.693359	1.652316
0.693457	1.653870
0.693555	1.647485
0.693652	1.652474
0.693750	1.587190
0.693848	1.581871
0.693945	1.568644
0.694043	1.561669
0.694141	1.550704
0.694238	1.593548
0.694336	1.640898
0.694434	1.663874
0.694531	1.635918
0.694629	1.624855
0.694727	1.562436
0.694824	1.570582
0.694922	1.658215
0.695020	1.635202
0.695117	1.654932
0.695215	1.654363
0.695312	1.619083
0.695410	1.597684
0.695508	1.611169
0.695605	1.556379
0.695703	1.519259
0.695801	1.539381
0.695898	1.562606
0.695996	1.557396
0.696094	1.562269
0.696191	1.558596
0.696289	1.553563
0.696387	1.507654
0.696484	1.469792
0.696582	1.464654
0.696680	1.490590
0.696777	1.533650
0.696875	1.541053
0.696973	1.533927
0.697070	1.497567
0.697168	1.469103
0.697266	1.414436
0.697363	1.379044
0.697461	1.354346
0.697559	1.358458
0.697656	1.350627
0.697754	1.357347
0.697852	1.420308
0.697949	1.576551
0.698047	1.625252
0.698145	1.490198
0.698242	1.431238
0.698340	1.423435
0.698437	1.460217
0.698535	1.522699
0.698633	1.577760
0.698730	1.613165
0.698828	1.590704
0.698926	1.542156
0.699023	1.475854
0.699121	1.415920
0.699219	1.424225
0.699316	1.485638
0.699414	1.489375
0.699512	1.522357
0.699609	1.522389
0.699707	1.534447
0.699805	1.522219
0.699902	1.543970
0.700000	1.528393
0.700098	1.509725
0.700195	1.447617
0.700293	1.424607
0.700391	1.456106
0.700488	1.446660
0.700586	1.454239
0.700684	1.437656
0.700781	1.428169
0.700879	1.447731
0.700977	1.507926
0.701074	1.521310
0.701172	1.517116
0.701270	1.507833
0.701367	1.469558
0.701465	1.443623
0.701562	1.445732
0.701660	1.440008
0.701758	1.420491
0.701855	1.403804
0.701953	1.397770
0.702051	1.390933
0.702148	1.387822
0.702246	1.398826
0.702344	1.405846
0.702441	1.397714
0.702539	1.380362
0.702637	1.380866
0.702734	1.420927
0.702832	1.474555
0.702930	1.518664
0.703027	1.548986
0.703125	1.516112
0.703223	1.443601
0.703320	1.403155
0.703418	1.403980
0.703516	1.397241
0.703613	1.447665
0.703711	1.525834
0.703809	1.533916
0.703906	1.554388
0.704004	1.568048
0.704102	1.611974
0.704199	1.615978
0.704297	1.617418
0.704395	1.583714
0.704492	1.615071
0.704590	1.634899
0.704687	1.646883
0.704785	1.664997
0.704883	1.652935
0.704980	1.649244
0.705078	1.634278
0.705176	1.581135
0.705273	1.544627
0.705371	1.550497
0.705469	1.558038
0.705566	1.546582
0.705664	1.552413
0.705762	1.577691
0.705859	1.582037
0.705957	1.586869
0.706055	1.623948
0.706152	1.592751
0.706250	1.595761
0.706348	1.601207
0.706445	1.583177
0.706543	1.568491
0.706641	1.593145
0.706738	1.594496
0.706836	1.570898
0.706934	1.599529
0.707031	1.636344
0.707129	1.591587
0.707227	1.597521
0.707324	1.617969
0.707422	1.608929
0.707520	1.596837
0.707617	1.599559
0.707715	1.591440
0.707812	1.601809
0.707910	1.588538
0.708008	1.537753
0.708105	1.554219
0.708203	1.539280
0.708301	1.550772
0.708398	1.576178
0.708496	1.629959
0.708594	1.650210
0.708691	1.641118
0.708789	1.619141
0.708887	1.632439
0.708984	1.639885
0.709082	1.611168
0.709180	1.561422
0.709277	1.530387
0.709375	1.490164
0.709473	1.473460
0.709570	1.467214
0.709668	1.453525
0.709766	1.489898
0.709863	1.534535
0.709961	1.521801
0.710059	1.490921
0.710156	1.509796
0.710254	1.492396
0.710352	1.445801
0.710449	1.425797
0.710547	1.426019
0.710645	1.415740
0.710742	1.387122
0.710840	1.414151
0.710937	1.445470
0.711035	1.442646
0.711133	1.450536
0.711230	1.437147
0.711328	1.433919
0.711426	1.433474
0.711523	1.422002
0.711621	1.411552
0.711719	1.408071
0.711816	1.397570
0.711914	1.390863
0.712012	1.384932
0.712109	1.373899
0.712207	1.346093
0.712305	1.330418
0.712402	1.328219
0.712500	1.333504
0.712598	1.337358
0.712695	1.343073
0.712793	1.356333
0.712891	1.381623
0.712988	1.414727
0.713086	1.435027
0.713184	1.434980
0.713281	1.442697
0.713379	1.431531
0.713477	1.405971
0.713574	1.443524
0.713672	1.464251
0.713770	1.442718
0.713867	1.443490
0.713965	1.492454
0.714062	1.494852
0.714160	1.499961
0.714258	1.527192
0.714355	1.519374
0.714453	1.532734
0.714551	1.607573
0.714648	1.600539
0.714746	1.632691
0.714844	1.633732
0.714941	1.597136
0.715039	1.554430
0.715137	1.503171
0.715234	1.470774
0.715332	1.365957
0.715430	1.296366
0.715527	1.265711
0.715625	1.317255
0.715723	1.370702
0.715820	1.526634
0.715918	1.606181
0.716016	1.600369
0.716113	1.637931
0.716211	1.646306
0.716309	1.646219
0.716406	1.640610
0.716504	1.644980
0.716602	1.645682
0.716699	1.659126
0.716797	1.673782
0.716895	1.646175
0.716992	1.633948
0.717090	1.648824
0.717187	1.644185
0.717285	1.625312
0.717383	1.612479
0.717480	1.616263
0.717578	1.608900
0.717676	1.617553
0.717773	1.656811
0.717871	1.674766
0.717969	1.666496
0.718066	1.654619
0.718164	1.657331
0.718262	1.664579
0.718359	1.648193
0.718457	1.650252
0.718555	1.708087
0.718652	1.675099
0.718750	1.672960
0.718848	1.711971
0.718945	1.696518
0.719043	1.731592
0.719141	1.734685
0.719238	1.704563
0.719336	1.711668
0.719434	1.709995
0.719531	1.697562
0.719629	1.666068
0.719727	1.666258
0.719824	1.685843
0.719922	1.649018
0.720020	1.640122
0.720117	1.586096
0.720215	1.571261
0.720312	1.578286
0.720410	1.595863
0.720508	1.628859
0.720605	1.636370
0.720703	1.631884
0.720801	1.639913
0.720898	1.612165
0.720996	1.609182
0.721094	1.628736
0.721191	1.622754
0.721289	1.604816
0.721387	1.591279
0.721484	1.599138
0.721582	1.575118
0.721680	1.599464
0.721777	1.637814
0.721875	1.648093
0.721973	1.679321
0.722070	1.691078
0.722168	1.674349
0.722266	1.652769
0.722363	1.661166
0.722461	1.677427
0.722559	1.692647
0.722656	1.707193
0.722754	1.713694
0.722852	1.676127
0.722949	1.646436
0.723047	1.612567
0.723145	1.631795
0.723242	1.667853
0.723340	1.652376
0.723437	1.688080
0.723535	1.672740
0.723633	1.634443
0.723730	1.629336
0.723828	1.635960
0.723926	1.658157
0.724023	1.629587
0.724121	1.615491
0.724219	1.652904
0.724316	1.655097
0.724414	1.677487
0.724512	1.672022
0.724609	1.641156
0.724707	1.618538
0.724805	1.621761
0.724902	1.598391
0.725000	1.582287
0.725098	1.575868
0.725195	1.562264
0.725293	1.531489
0.725391	1.503715
0.725488	1.492419
0.725586	1.499974
0.725684	1.502718
0.725781	1.489502
0.725879	1.468853
0.725977	1.446845
0.726074	1.433186
0.726172	1.429197
0.726270	1.422735
0.726367	1.411028
0.726465	1.395389
0.726562	1.385867
0.726660	1.375082
0.726758	1.355495
0.726855	1.345238
0.726953	1.381534
0.727051	1.427785
0.727148	1.437776
0.727246	1.447699
0.727344	1.462779
0.727441	1.465931
0.727539	1.453850
0.727637	1.426946
0.727734	1.393099
0.727832	1.394582
0.727930	1.427324
0.728027	1.432750
0.728125	1.425391
0.728223	1.438276
0.728320	1.453273
0.728418	1.463525
0.728516	1.472037
0.728613	1.475209
0.728711	1.466021
0.728809	1.454402
0.728906	1.443928
0.729004	1.433829
0.729102	1.426146
0.729199	1.417815
0.729297	1.415020
0.729395	1.420978
0.729492	1.434771
0.729590	1.437383
0.729687	1.456068
0.729785	1.531991
0.729883	1.571997
0.729980	1.570973
0.730078	1.546495
0.730176	1.530425
0.730273	1.526660
0.730371	1.527408
0.730469	1.532356
0.730566	1.529579
0.730664	1.518771
0.730762	1.515334
0.730859	1.578266
0.730957	1.625381
0.731055	1.620857
0.731152	1.598859
0.731250	1.544817
0.731348	1.539238
0.731445	1.521208
0.731543	1.521657
0.731641	1.483565
0.731738	1.459722
0.731836	1.502469
0.731934	1.461123
0.732031	1.488022
0.732129	1.513838
0.732227	1.529420
0.732324	1.594488
0.732422	1.589435
0.732520	1.553906
0.732617	1.494218
0.732715	1.484350
0.732812	1.439412
0.732910	1.451134
0.733008	1.494799
0.733105	1.532067
0.733203	1.558794
0.733301	1.597900
0.733398	1.452015
0.733496	1.404041
0.733594	1.331796
0.733691	1.331958
0.733789	1.329692
0.733887	1.322210
0.733984	1.430802
0.734082	1.474723
0.734180	1.551144
0.734277	1.578110
0.734375	1.566022
0.734473	1.557140
0.734570	1.538083
0.734668	1.582527
0.734766	1.612067
0.734863	1.607299
0.734961	1.608744
0.735059	1.643223
0.735156	1.626819
0.735254	1.608614
0.735352	1.536689
0.735449	1.518227
0.735547	1.576075
0.735645	1.620528
0.735742	1.601509
0.735840	1.638110
0.735937	1.648963
0.736035	1.616286
0.736133	1.588630
0.736230	1.530803
0.736328	1.513675
0.736426	1.465194
0.736523	1.532593
0.736621	1.580498
0.736719	1.515162
0.736816	1.521609
0.736914	1.547503
0.737012	1.637690
0.737109	1.679570
0.737207	1.669573
0.737305	1.588474
0.737402	1.596767
0.737500	1.655449
0.737598	1.584843
0.737695	1.591591
0.737793	1.611530
0.737891	1.591794
0.737988	1.559933
0.738086	1.532667
0.738184	1.568547
0.738281	1.566625
0.738379	1.601828
0.738477	1.657160
0.738574	1.603844
0.738672	1.551688
0.738770	1.502558
0.738867	1.483121
0.738965	1.510966
0.739062	1.526374
0.739160	1.552128
0.739258	1.609412
0.739355	1.584037
0.739453	1.574128
0.739551	1.579906
0.739648	1.541193
0.739746	1.494455
0.739844	1.528343
0.739941	1.500423
0.740039	1.430030
0.740137	1.412193
0.740234	1.468301
0.740332	1.498406
0.740430	1.484292
0.740527	1.515365
0.740625	1.520287
0.740723	1.552723
0.740820	1.566353
0.740918	1.576297
0.741016	1.589647
0.741113	1.632098
0.741211	1.653506
0.741309	1.675702
0.741406	1.684581
0.741504	1.696830
0.741602	1.696222
0.741699	1.686628
0.741797	1.688360
0.741895	1.689960
0.741992	1.687565
0.742090	1.691090
0.742187	1.670771
0.742285	1.650585
0.742383	1.661040
0.742480	1.639168
0.742578	1.584906
0.742676	1.581328
0.742773	1.582526
0.742871	1.601675
0.742969	1.638466
0.743066	1.635515
0.743164	1.675058
0.743262	1.644226
0.743359	1.598362
0.743457	1.573996
0.743555	1.600839
0.743652	1.603924
0.743750	1.554546
0.743848	1.546441
0.743945	1.513163
0.744043	1.452252
0.744141	1.499748
0.744238	1.580069
0.744336	1.578582
0.744434	1.567942
0.744531	1.555135
0.744629	1.562908
0.744727	1.553536
0.744824	1.502115
0.744922	1.449732
0.745020	1.419353
0.745117	1.436516
0.745215	1.470237
0.745312	1.510819
0.745410	1.534383
0.745508	1.549070
0.745605	1.527314
0.745703	1.522576
0.745801	1.469747
0.745898	1.535571
0.745996	1.607127
0.746094	1.567722
0.746191	1.554760
0.746289	1.576328
0.746387	1.640552
0.746484	1.648470
0.746582	1.642155
0.746680	1.608000
0.746777	1.606760
0.746875	1.592760
0.746973	1.543792
0.747070	1.585121
0.747168	1.584716
0.747266	1.563047
0.747363	1.495344
0.747461	1.403224
0.747559	1.361909
0.747656	1.338027
0.747754	1.373642
0.747852	1.399986
0.747949	1.394388
0.748047	1.404118
0.748145	1.412209
0.748242	1.481149
0.748340	1.503362
0.748437	1.426812
0.748535	1.381544
0.748633	1.351554
0.748730	1.376161
0.748828	1.412810
0.748926	1.415704
0.749023	1.406125
0.749121	1.364519
0.749219	1.341097
0.749316	1.348740
0.749414	1.332288
0.749512	1.335375
0.749609	1.339735
0.749707	1.354872
0.749805	1.371153
0.749902	1.402084
0.750000	1.469435
0.750098	1.478009
0.750195	1.472944
0.750293	1.479312
0.750391	1.482423
0.750488	1.461809
0.750586	1.457684
0.750684	1.515457
0.750781	1.561673
0.750879	1.532823
0.750977	1.486266
0.751074	1.478950
0.751172	1.478300
0.751270	1.464894
0.751367	1.453082
0.751465	1.485236
0.751562	1.499308
0.751660	1.468962
0.751758	1.492074
0.751855	1.490729
0.751953	1.483975
0.752051	1.424263
0.752148	1.414176
0.752246	1.459177
0.752344	1.468790
0.752441	1.495780
0.752539	1.513962
0.752637	1.489119
0.752734	1.477483
0.752832	1.462620
0.752930	1.466036
0.753027	1.454001
0.753125	1.466212
0.753223	1.544129
0.753320	1.567503
0.753418	1.572606
0.753516	1.568008
0.753613	1.508371
0.753711	1.444323
0.753809	1.481325
0.753906	1.488680
0.754004	1.528766
0.754102	1.554965
0.754199	1.559373
0.754297	1.552265
0.754395	1.545857
0.754492	1.522435
0.754590	1.531002
0.754687	1.478067
0.754785	1.357392
0.754883	1.348853
0.754980	1.385535
0.755078	1.400876
0.755176	1.431276
0.755273	1.437972
0.755371	1.467942
0.755469	1.521915
0.755566	1.524658
0.755664	1.489721
0.755762	1.418038
0.755859	1.434252
0.755957	1.428273
0.756055	1.395425
0.756152	1.374665
0.756250	1.367458
0.756348	1.356207
0.756445	1.348899
0.756543	1.342346
0.756641	1.338285
0.756738	1.336270
0.756836	1.324493
0.756934	1.303521
0.757031	1.328018
0.757129	1.354565
0.757227	1.345369
0.757324	1.341149
0.757422	1.385750
0.757520	1.481183
0.757617	1.574810
0.757715	1.611421
0.757812	1.594914
0.757910	1.580232
0.758008	1.544803
0.758105	1.541729
0.758203	1.577797
0.758301	1.572869
0.758398	1.562130
0.758496	1.569962
0.758594	1.553671
0.758691	1.594939
0.758789	1.594130
0.758887	1.578235
0.758984	1.552917
0.759082	1.556853
0.759180	1.578616
0.759277	1.563186
0.759375	1.565313
0.759473	1.557634
0.759570	1.565038
0.759668	1.578999
0.759766	1.596310
0.759863	1.590313
0.759961	1.610709
0.760059	1.545133
0.760156	1.449866
0.760254	1.439930
0.760352	1.432801
0.760449	1.423222
0.760547	1.452977
0.760645	1.401630
0.760742	1.404670
0.760840	1.424274
0.760937	1.370012
0.761035	1.406842
0.761133	1.469856
0.761230	1.489479
0.761328	1.463260
0.761426	1.434231
0.761523	1.422670
0.761621	1.378866
0.761719	1.367760
0.761816	1.397932
0.761914	1.411651
0.762012	1.440489
0.762109	1.454101
0.762207	1.421219
0.762305	1.390493
0.762402	1.400291
0.762500	1.425520
0.762598	1.436746
0.762695	1.422739
0.762793	1.444272
0.762891	1.459783
0.762988	1.517275
0.763086	1.533684
0.763184	1.495168
0.763281	1.479388
0.763379	1.428766
0.763477	1.479384
0.763574	1.484399
0.763672	1.451221
0.763770	1.431528
0.763867	1.395202
0.763965	1.391416
0.764062	1.377832
0.764160	1.404150
0.764258	1.455011
0.764355	1.434811
0.764453	1.400220
0.764551	1.384399
0.764648	1.384830
0.764746	1.377020
0.764844	1.364553
0.764941	1.368210
0.765039	1.334211
0.765137	1.295161
0.765234	1.294883
0.765332	1.303558
0.765430	1.331892
0.765527	1.367146
0.765625	1.410981
0.765723	1.405248
0.765820	1.365590
0.765918	1.356565
0.766016	1.359016
0.766113	1.357186
0.766211	1.369621
0.766309	1.398455
0.766406	1.426334
0.766504	1.449841
0.766602	1.460535
0.766699	1.459058
0.766797	1.435857
0.766895	1.432267
0.766992	1.460266
0.767090	1.522312
0.767187	1.541446
0.767285	1.523038
0.767383	1.505433
0.767480	1.453116
0.767578	1.408668
0.767676	1.374412
0.767773	1.330834
0.767871	1.294516
0.767969	1.273546
0.768066	1.274751
0.768164	1.292379
0.768262	1.295727
0.768359	1.296341
0.768457	1.309745
0.768555	1.332597
0.768652	1.341108
0.768750	1.328893
0.768848	1.344090
0.768945	1.397250
0.769043	1.434822
0.769141	1.433570
0.769238	1.455190
0.769336	1.448698
0.769434	1.440154
0.769531	1.397258
0.769629	1.353420
0.769727	1.344706
0.769824	1.328917
0.769922	1.322917
0.770020	1.383089
0.770117	1.422531
0.770215	1.427797
0.770312	1.452808
0.770410	1.528892
0.770508	1.578272
0.770605	1.574641
0.770703	1.561408
0.770801	1.542999
0.770898	1.506439
0.770996	1.464698
0.771094	1.462651
0.771191	1.480001
0.771289	1.461241
0.771387	1.450232
0.771484	1.453473
0.771582	1.422610
0.771680	1.394205
0.771777	1.380511
0.771875	1.346367
0.771973	1.322654
0.772070	1.319642
0.772168	1.356735
0.772266	1.351888
0.772363	1.330458
0.772461	1.340751
0.772559	1.387774
0.772656	1.446713
0.772754	1.471448
0.772852	1.453677
0.772949	1.394634
0.773047	1.387292
0.773145	1.467541
0.773242	1.446488
0.773340	1.392438
0.773437	1.413016
0.773535	1.404002
0.773633	1.452917
0.773730	1.450176
0.773828	1.398389
0.773926	1.354903
0.774023	1.338026
0.774121	1.341365
0.774219	1.349634
0.774316	1.392245
0.774414	1.436319
0.774512	1.417971
0.774609	1.460689
0.774707	1.530654
0.774805	1.564057
0.774902	1.559570
0.775000	1.552743
0.775098	1.538842
0.775195	1.552224
0.775293	1.564883
0.775391	1.551516
0.775488	1.543015
0.775586	1.525771
0.775684	1.536454
0.775781	1.529684
0.775879	1.493198
0.775977	1.410649
0.776074	1.347826
0.776172	1.336542
0.776270	1.323460
0.776367	1.329683
0.776465	1.325859
0.776562	1.334698
0.776660	1.350675
0.776758	1.346943
0.776855	1.362561
0.776953	1.356827
0.777051	1.349804
0.777148	1.328422
0.777246	1.336451
0.777344	1.372568
0.777441	1.412225
0.777539	1.398448
0.777637	1.391274
0.777734	1.405906
0.777832	1.399639
0.777930	1.389791
0.778027	1.412365
0.778125	1.431074
0.778223	1.439243
0.778320	1.426606
0.778418	1.408196
0.778516	1.436320
0.778613	1.421573
0.778711	1.447285
0.778809	1.476041
0.778906	1.439496
0.779004	1.419688
0.779102	1.390727
0.779199	1.382209
0.779297	1.407590
0.779395	1.386061
0.779492	1.327324
0.779590	1.320376
0.779687	1.406465
0.779785	1.471259
0.779883	1.488803
0.779980	1.472965
0.780078	1.455622
0.780176	1.438956
0.780273	1.421332
0.780371	1.406295
0.780469	1.409581
0.780566	1.418501
0.780664	1.412924
0.780762	1.375801
0.780859	1.355822
0.780957	1.365345
0.781055	1.365082
0.781152	1.401813
0.781250	1.406734
0.781348	1.382708
0.781445	1.340752
0.781543	1.289011
0.781641	1.270174
0.781738	1.304853
0.781836	1.351932
0.781934	1.404700
0.782031	1.441430
0.782129	1.461291
0.782227	1.459201
0.782324	1.465906
0.782422	1.441162
0.782520	1.432280
0.782617	1.463725
0.782715	1.480583
0.782812	1.467283
0.782910	1.427658
0.783008	1.431000
0.783105	1.474166
0.783203	1.481445
0.783301	1.472808
0.783398	1.497295
0.783496	1.541531
0.783594	1.560437
0.783691	1.537108
0.783789	1.519086
0.783887	1.503816
0.783984	1.501180
0.784082	1.439703
0.784180	1.422676
0.784277	1.424723
0.784375	1.414336
0.784473	1.408518
0.784570	1.382919
0.784668	1.423906
0.784766	1.419217
0.784863	1.418572
0.784961	1.416900
0.785059	1.395279
0.785156	1.356798
0.785254	1.329092
0.785352	1.334102
0.785449	1.331065
0.785547	1.300262
0.785645	1.292766
0.785742	1.296124
0.785840	1.299409
0.785937	1.303681
0.786035	1.300064
0.786133	1.293224
0.786230	1.283433
0.786328	1.266539
0.786426	1.249474
0.786523	1.244146
0.786621	1.254825
0.786719	1.266376
0.786816	1.290236
0.786914	1.345650
0.787012	1.406143
0.787109	1.427990
0.787207	1.434423
0.787305	1.459905
0.787402	1.481529
0.787500	1.494188
0.787598	1.470165
0.787695	1.460812
0.787793	1.458307
0.787891	1.445772
0.787988	1.407105
0.788086	1.376117
0.788184	1.387881
0.788281	1.369880
0.788379	1.391632
0.788477	1.399819
0.788574	1.400452
0.788672	1.494863
0.788770	1.500120
0.788867	1.471951
0.788965	1.491494
0.789062	1.498095
0.789160	1.474730
0.789258	1.455596
0.789355	1.436800
0.789453	1.374291
0.789551	1.321211
0.789648	1.289714
0.789746	1.258897
0.789844	1.252805
0.789941	1.243930
0.790039	1.249675
0.790137	1.269535
0.790234	1.333465
0.790332	1.332277
0.790430	1.377471
0.790527	1.443451
0.790625	1.446217
0.790723	1.431216
0.790820	1.402294
0.790918	1.417728
0.791016	1.405294
0.791113	1.374441
0.791211	1.367891
0.791309	1.371600
0.791406	1.360027
0.791504	1.358872
0.791602	1.385226
0.791699	1.422993
0.791797	1.412410
0.791895	1.370887
0.791992	1.394132
0.792090	1.481086
0.792187	1.501150
0.792285	1.529265
0.792383	1.573035
0.792480	1.560428
0.792578	1.538956
0.792676	1.506553
0.792773	1.530717
0.792871	1.526459
0.792969	1.504546
0.793066	1.500246
0.793164	1.491928
0.793262	1.497781
0.793359	1.529275
0.793457	1.533284
0.793555	1.514470
0.793652	1.482908
0.793750	1.394978
0.793848	1.347575
0.793945	1.395106
0.794043	1.460555
0.794141	1.435258
0.794238	1.415815
0.794336	1.428569
0.794434	1.479658
0.794531	1.517400
0.794629	1.546869
0.794727	1.552018
0.794824	1.549940
0.794922	1.552428
0.795020	1.562703
0.795117	1.567945
0.795215	1.574261
0.795312	1.578149
0.795410	1.580876
0.795508	1.583787
0.795605	1.590840
0.795703	1.553795
0.795801	1.594438
0.795898	1.587216
0.795996	1.551177
0.796094	1.504975
0.796191	1.498788
0.796289	1.538118
0.796387	1.582219
0.796484	1.586408
0.796582	1.569425
0.796680	1.637312
0.796777	1.687227
0.796875	1.683289
0.796973	1.648594
0.797070	1.672855
0.797168	1.663010
0.797266	1.650558
0.797363	1.638924
0.797461	1.595962
0.797559	1.597461
0.797656	1.615529
0.797754	1.628272
0.797852	1.599830
0.797949	1.570256
0.798047	1.527868
0.798145	1.563900
0.798242	1.579331
0.798340	1.590518
0.798437	1.650966
0.798535	1.663581
0.798633	1.608467
0.798730	1.560071
0.798828	1.570382
0.798926	1.587368
0.799023	1.589714
0.799121	1.582642
0.799219	1.580313
0.799316	1.599209
0.799414	1.633995
0.799512	1.652384
0.799609	1.608730
0.799707	1.612595
0.799805	1.634105
0.799902	1.652477
0.800000	1.621914
0.800098	1.630911
0.800195	1.636455
0.800293	1.617930
0.800391	1.623265
0.800488	1.619662
0.800586	1.625429
0.800684	1.602521
0.800781	1.599539
0.800879	1.635629
0.800977	1.596337
0.801074	1.585097
0.801172	1.552051
0.801270	1.535119
0.801367	1.532276
0.801465	1.542494
0.801562	1.564163
0.801660	1.523057
0.801758	1.546908
0.801855	1.563086
0.801953	1.585773
0.802051	1.602204
0.802148	1.605034
0.802246	1.560398
0.802344	1.540191
0.802441	1.537298
0.802539	1.544483
0.802637	1.584491
0.802734	1.608608
0.802832	1.597543
0.802930	1.581864
0.803027	1.601385
0.803125	1.591432
0.803223	1.572548
0.803320	1.512333
0.803418	1.504858
0.803516	1.528119
0.803613	1.524110
0.803711	1.533799
0.803809	1.547912
0.803906	1.539563
0.804004	1.528891
0.804102	1.500853
0.804199	1.500994
0.804297	1.521155
0.804395	1.515580
0.804492	1.508257
0.804590	1.455694
0.804687	1.432261
0.804785	1.462154
0.804883	1.468447
0.804980	1.417618
0.805078	1.359092
0.805176	1.379607
0.805273	1.417085
0.805371	1.406796
0.805469	1.377952
0.805566	1.396212
0.805664	1.431717
0.805762	1.442793
0.805859	1.424274
0.805957	1.412514
0.806055	1.442525
0.806152	1.466039
0.806250	1.509609
0.806348	1.596803
0.806445	1.616816
0.806543	1.621062
0.806641	1.589811
0.806738	1.609057
0.806836	1.614065
0.806934	1.547643
0.807031	1.495992
0.807129	1.556334
0.807227	1.593405
0.807324	1.598556
0.807422	1.630993
0.807520	1.635735
0.807617	1.610236
0.807715	1.592599
0.807812	1.615028
0.807910	1.616066
0.808008	1.624386
0.808105	1.632179
0.808203	1.609621
0.808301	1.587048
0.808398	1.588873
0.808496	1.603341
0.808594	1.585684
0.808691	1.585773
0.808789	1.567061
0.808887	1.552215
0.808984	1.624515
0.809082	1.578944
0.809180	1.595281
0.809277	1.597961
0.809375	1.562085
0.809473	1.571670
0.809570	1.537318
0.809668	1.564933
0.809766	1.563085
0.809863	1.582325
0.809961	1.594319
0.810059	1.545230
0.810156	1.524102
0.810254	1.496526
0.810352	1.464790
0.810449	1.413664
0.810547	1.369154
0.810645	1.388080
0.810742	1.469062
0.810840	1.470365
0.810937	1.449302
0.811035	1.451517
0.811133	1.450106
0.811230	1.422331
0.811328	1.452578
0.811426	1.516835
0.811523	1.535311
0.811621	1.538398
0.811719	1.528243
0.811816	1.512856
0.811914	1.525444
0.812012	1.526836
0.812109	1.557638
0.812207	1.643302
0.812305	1.670227
0.812402	1.665764
0.812500	1.669435
0.812598	1.655647
0.812695	1.597582
0.812793	1.568838
0.812891	1.624118
0.812988	1.603883
0.813086	1.536956
0.813184	1.524403
0.813281	1.478859
0.813379	1.461996
0.813477	1.488249
0.813574	1.497177
0.813672	1.577854
0.813770	1.591273
0.813867	1.549730
0.813965	1.521557
0.814062	1.500685
0.814160	1.481950
0.814258	1.467771
0.814355	1.450928
0.814453	1.435409
0.814551	1.412840
0.814648	1.414411
0.814746	1.362974
0.814844	1.344449
0.814941	1.391963
0.815039	1.404079
0.815137	1.390381
0.815234	1.378185
0.815332	1.369739
0.815430	1.364485
0.815527	1.348785
0.815625	1.325868
0.815723	1.306642
0.815820	1.310220
0.815918	1.315315
0.816016	1.306369
0.816113	1.310445
0.816211	1.319526
0.816309	1.320596
0.816406	1.330757
0.816504	1.342877
0.816602	1.343679
0.816699	1.341974
0.816797	1.337009
0.816895	1.326059
0.816992	1.314446
0.817090	1.299507
0.817187	1.277352
0.817285	1.258105
0.817383	1.247263
0.817480	1.253417
0.817578	1.269817
0.817676	1.286857
0.817773	1.299372
0.817871	1.308021
0.817969	1.312907
0.818066	1.309101
0.818164	1.288553
0.818262	1.265811
0.818359	1.262385
0.818457	1.276503
0.818555	1.297100
0.818652	1.310414
0.818750	1.311309
0.818848	1.310135
0.818945	1.311402
0.819043	1.308392
0.819141	1.304034
0.819238	1.307304
0.819336	1.315023
0.819434	1.323248
0.819531	1.326398
0.819629	1.324404
0.819727	1.320306
0.819824	1.314560
0.819922	1.306301
0.820020	1.295808
0.820117	1.282375
0.820215	1.266241
0.820312	1.249301
0.820410	1.236951
0.820508	1.235471
0.820605	1.248291
0.820703	1.270844
0.820801	1.296578
0.820898	1.320856
0.820996	1.322662
0.821094	1.322156
0.821191	1.335634
0.821289	1.335275
0.821387	1.384325
0.821484	1.416158
0.821582	1.390152
0.821680	1.373239
0.821777	1.420183
0.821875	1.476494
0.821973	1.471229
0.822070	1.470583
0.822168	1.476693
0.822266	1.468648
0.822363	1.475745
0.822461	1.449124
0.822559	1.407510
0.822656	1.383584
0.822754	1.421154
0.822852	1.470399
0.822949	1.545418
0.823047	1.596051
0.823145	1.613109
0.823242	1.581562
0.823340	1.615458
0.823437	1.607741
0.823535	1.608871
0.823633	1.607521
0.823730	1.597277
0.823828	1.573825
0.823926	1.566113
0.824023	1.511747
0.824121	1.495346
0.824219	1.491873
0.824316	1.518399
0.824414	1.574323
0.824512	1.514500
0.824609	1.509222
0.824707	1.538884
0.824805	1.571560
0.824902	1.538054
0.825000	1.533879
0.825098	1.573220
0.825195	1.605326
0.825293	1.576290
0.825391	1.584038
0.825488	1.592992
0.825586	1.626735
0.825684	1.584223
0.825781	1.576407
0.825879	1.571732
0.825977	1.565396
0.826074	1.574582
0.826172	1.598950
0.826270	1.587694
0.826367	1.580676
0.826465	1.544642
0.826562	1.554990
0.826660	1.580046
0.826758	1.569774
0.826855	1.557789
0.826953	1.565666
0.827051	1.571463
0.827148	1.594671
0.827246	1.576844
0.827344	1.568791
0.827441	1.618476
0.827539	1.579540
0.827637	1.528710
0.827734	1.564656
0.827832	1.608130
0.827930	1.577948
0.828027	1.503217
0.828125	1.464249
0.828223	1.454407
0.828320	1.474153
0.828418	1.478091
0.828516	1.503517
0.828613	1.527888
0.828711	1.538963
0.828809	1.540530
0.828906	1.544903
0.829004	1.538298
0.829102	1.525004
0.829199	1.524337
0.829297	1.533756
0.829395	1.520442
0.829492	1.505083
0.829590	1.502696
0.829687	1.494575
0.829785	1.492975
0.829883	1.491119
0.829980	1.492465
0.830078	1.496954
0.830176	1.475119
0.830273	1.455422
0.830371	1.443188
0.830469	1.449251
0.830566	1.492028
0.830664	1.503013
0.830762	1.515819
0.830859	1.523839
0.830957	1.534224
0.831055	1.529229
0.831152	1.521567
0.831250	1.512865
0.831348	1.502649
0.831445	1.522833
0.831543	1.550980
0.831641	1.546343
0.831738	1.547427
0.831836	1.538028
0.831934	1.505199
0.832031	1.460429
0.832129	1.418801
0.832227	1.390504
0.832324	1.393317
0.832422	1.438471
0.832520	1.502531
0.832617	1.518352
0.832715	1.493169
0.832812	1.461035
0.832910	1.461971
0.833008	1.470658
0.833105	1.516387
0.833203	1.532180
0.833301	1.507317
0.833398	1.507691
0.833496	1.520131
0.833594	1.485459
0.833691	1.417835
0.833789	1.428983
0.833887	1.403397
0.833984	1.357090
0.834082	1.303383
0.834180	1.386257
0.834277	1.443178
0.834375	1.462138
0.834473	1.489775
0.834570	1.513150
0.834668	1.512816
0.834766	1.478572
0.834863	1.429407
0.834961	1.374148
0.835059	1.419901
0.835156	1.425670
0.835254	1.444957
0.835352	1.455072
0.835449	1.450113
0.835547	1.449449
0.835645	1.432016
0.835742	1.397448
0.835840	1.378954
0.835937	1.402779
0.836035	1.426605
0.836133	1.416221
0.836230	1.388616
0.836328	1.387646
0.836426	1.384508
0.836523	1.394179
0.836621	1.432410
0.836719	1.441890
0.836816	1.435084
0.836914	1.419849
0.837012	1.455903
0.837109	1.469785
0.837207	1.468513
0.837305	1.420793
0.837402	1.438650
0.837500	1.530352
0.837598	1.537982
0.837695	1.523798
0.837793	1.487553
0.837891	1.450595
0.837988	1.420804
0.838086	1.378212
0.838184	1.334667
0.838281	1.311963
0.838379	1.318908
0.838477	1.342776
0.838574	1.391340
0.838672	1.438803
0.838770	1.435884
0.838867	1.419801
0.838965	1.420859
0.839062	1.411687
0.839160	1.387373
0.839258	1.384256
0.839355	1.391104
0.839453	1.395146
0.839551	1.409955
0.839648	1.459209
0.839746	1.507575
0.839844	1.513822
0.839941	1.483554
0.840039	1.454245
0.840137	1.441182
0.840234	1.439017
0.840332	1.458447
0.840430	1.466836
0.840527	1.470994
0.840625	1.487930
0.840723	1.489196
0.840820	1.497623
0.840918	1.478984
0.841016	1.437159
0.841113	1.400723
0.841211	1.395868
0.841309	1.388234
0.841406	1.387487
0.841504	1.413319
0.841602	1.439253
0.841699	1.470619
0.841797	1.504606
0.841895	1.513596
0.841992	1.532683
0.842090	1.530399
0.842187	1.500671
0.842285	1.475486
0.842383	1.451550
0.842480	1.451394
0.842578	1.450853
0.842676	1.490185
0.842773	1.499172
0.842871	1.504892
0.842969	1.491642
0.843066	1.495643
0.843164	1.492486
0.843262	1.480481
0.843359	1.487618
0.843457	1.461969
0.843555	1.459500
0.843652	1.449976
0.843750	1.446465
0.843848	1.438549
0.843945	1.434188
0.844043	1.450973
0.844141	1.461676
0.844238	1.445811
0.844336	1.428348
0.844434	1.411485
0.844531	1.404372
0.844629	1.419759
0.844727	1.427789
0.844824	1.420678
0.844922	1.418670
0.845020	1.419232
0.845117	1.424422
0.845215	1.432353
0.845312	1.434649
0.845410	1.430706
0.845508	1.437894
0.845605	1.449923
0.845703	1.456956
0.845801	1.463737
0.845898	1.465598
0.845996	1.459388
0.846094	1.448766
0.846191	1.432522
0.846289	1.413786
0.846387	1.396347
0.846484	1.388165
0.846582	1.387564
0.846680	1.383242
0.846777	1.373480
0.846875	1.369483
0.846973	1.365184
0.847070	1.365463
0.847168	1.373806
0.847266	1.392735
0.847363	1.397594
0.847461	1.412546
0.847559	1.425890
0.847656	1.404425
0.847754	1.373703
0.847852	1.347832
0.847949	1.363212
0.848047	1.401232
0.848145	1.402761
0.848242	1.383672
0.848340	1.379522
0.848437	1.391899
0.848535	1.405087
0.848633	1.420728
0.848730	1.419445
0.848828	1.409006
0.848926	1.419956
0.849023	1.419317
0.849121	1.407932
0.849219	1.399755
0.849316	1.388958
0.849414	1.371536
0.849512	1.353132
0.849609	1.339563
0.849707	1.324377
0.849805	1.305890
0.849902	1.287591
0.850000	1.271776
0.850098	1.259474
0.850195	1.252290
0.850293	1.250129
0.850391	1.254826
0.850488	1.271479
0.850586	1.291937
0.850684	1.308592
0.850781	1.316417
0.850879	1.312223
0.850977	1.302553
0.851074	1.285138
0.851172	1.272010
0.851270	1.263261
0.851367	1.253690
0.851465	1.246573
0.851562	1.247508
0.851660	1.254606
0.851758	1.266355
0.851855	1.286106
0.851953	1.311420
0.852051	1.324589
0.852148	1.328357
0.852246	1.337768
0.852344	1.391209
0.852441	1.423693
0.852539	1.452741
0.852637	1.479466
0.852734	1.483220
0.852832	1.489945
0.852930	1.495460
0.853027	1.496560
0.853125	1.490672
0.853223	1.474766
0.853320	1.443761
0.853418	1.429732
0.853516	1.446927
0.853613	1.484404
0.853711	1.538821
0.853809	1.499245
0.853906	1.473634
0.854004	1.543064
0.854102	1.612739
0.854199	1.561032
0.854297	1.596013
0.854395	1.638695
0.854492	1.636069
0.854590	1.651039
0.854687	1.649788
0.854785	1.665858
0.854883	1.649106
0.854980	1.626462
0.855078	1.658695
0.855176	1.669704
0.855273	1.665535
0.855371	1.653336
0.855469	1.643946
0.855566	1.616848
0.855664	1.618101
0.855762	1.603615
0.855859	1.599965
0.855957	1.644141
0.856055	1.671160
0.856152	1.677936
0.856250	1.676957
0.856348	1.638449
0.856445	1.628954
0.856543	1.623200
0.856641	1.609749
0.856738	1.601876
0.856836	1.595658
0.856934	1.580712
0.857031	1.530093
0.857129	1.552066
0.857227	1.550197
0.857324	1.595572
0.857422	1.647094
0.857520	1.670364
0.857617	1.632315
0.857715	1.619131
0.857812	1.643594
0.857910	1.648978
0.858008	1.599783
0.858105	1.548234
0.858203	1.490938
0.858301	1.530243
0.858398	1.497988
0.858496	1.548195
0.858594	1.609769
0.858691	1.613490
0.858789	1.615660
0.858887	1.586390
0.858984	1.580291
0.859082	1.549779
0.859180	1.540393
0.859277	1.524121
0.859375	1.552798
0.859473	1.538811
0.859570	1.553429
0.859668	1.549663
0.859766	1.523204
0.859863	1.514881
0.859961	1.513706
0.860059	1.501781
0.860156	1.530907
0.860254	1.521132
0.860352	1.515568
0.860449	1.570638
0.860547	1.590989
0.860645	1.591844
0.860742	1.534352
0.860840	1.632009
0.860937	1.652557
0.861035	1.584889
0.861133	1.553718
0.861230	1.529702
0.861328	1.553264
0.861426	1.512585
0.861523	1.480721
0.861621	1.501526
0.861719	1.497689
0.861816	1.646016
0.861914	1.646942
0.862012	1.582096
0.862109	1.593541
0.862207	1.598867
0.862305	1.539996
0.862402	1.541974
0.862500	1.542091
0.862598	1.523594
0.862695	1.530358
0.862793	1.536933
0.862891	1.566720
0.862988	1.598059
0.863086	1.599773
0.863184	1.602186
0.863281	1.566574
0.863379	1.585331
0.863477	1.608232
0.863574	1.612010
0.863672	1.607299
0.863770	1.600866
0.863867	1.555614
0.863965	1.620324
0.864062	1.643741
0.864160	1.621800
0.864258	1.613293
0.864355	1.597525
0.864453	1.611607
0.864551	1.607724
0.864648	1.599235
0.864746	1.613035
0.864844	1.634664
0.864941	1.653665
0.865039	1.648260
0.865137	1.619737
0.865234	1.581219
0.865332	1.577522
0.865430	1.587879
0.865527	1.568617
0.865625	1.549668
0.865723	1.527522
0.865820	1.518202
0.865918	1.511188
0.866016	1.539338
0.866113	1.543107
0.866211	1.535084
0.866309	1.549295
0.866406	1.541901
0.866504	1.521831
0.866602	1.496943
0.866699	1.488373
0.866797	1.479876
0.866895	1.465230
0.866992	1.432762
0.867090	1.398538
0.867187	1.380366
0.867285	1.360588
0.867383	1.337783
0.867480	1.314556
0.867578	1.296457
0.867676	1.275442
0.867773	1.260380
0.867871	1.248421
0.867969	1.243031
0.868066	1.234138
0.868164	1.237814
0.868262	1.254599
0.868359	1.296377
0.868457	1.320121
0.868555	1.388671
0.868652	1.417550
0.868750	1.465106
0.868848	1.477520
0.868945	1.514625
0.869043	1.571629
0.869141	1.547015
0.869238	1.566625
0.869336	1.560858
0.869434	1.575048
0.869531	1.570314
0.869629	1.579373
0.869727	1.595877
0.869824	1.636579
0.869922	1.622196
0.870020	1.621498
0.870117	1.637608
0.870215	1.592977
0.870312	1.625414
0.870410	1.634138
0.870508	1.539275
0.870605	1.529397
0.870703	1.596580
0.870801	1.591628
0.870898	1.590955
0.870996	1.679592
0.871094	1.712522
0.871191	1.670469
0.871289	1.687338
0.871387	1.571676
0.871484	1.613232
0.871582	1.663826
0.871680	1.664357
0.871777	1.655875
0.871875	1.605099
0.871973	1.626293
0.872070	1.693643
0.872168	1.683085
0.872266	1.653585
0.872363	1.601742
0.872461	1.649558
0.872559	1.678239
0.872656	1.651753
0.872754	1.647259
0.872852	1.543220
0.872949	1.554764
0.873047	1.559407
0.873145	1.578495
0.873242	1.582014
0.873340	1.587714
0.873437	1.557373
0.873535	1.539078
0.873633	1.488943
0.873730	1.380301
0.873828	1.397504
0.873926	1.419256
0.874023	1.355250
0.874121	1.324176
0.874219	1.349659
0.874316	1.412820
0.874414	1.473772
0.874512	1.519540
0.874609	1.570787
0.874707	1.563648
0.874805	1.569910
0.874902	1.605116
0.875000	1.611507
0.875098	1.625489
0.875195	1.628579
0.875293	1.630718
0.875391	1.606166
0.875488	1.526388
0.875586	1.473374
0.875684	1.494306
0.875781	1.535153
0.875879	1.569207
0.875977	1.573553
0.876074	1.596115
0.876172	1.625399
0.876270	1.591322
0.876367	1.677001
0.876465	1.659240
0.876562	1.606980
0.876660	1.588460
0.876758	1.524865
0.876855	1.514123
0.876953	1.534671
0.877051	1.568313
0.877148	1.567072
0.877246	1.556296
0.877344	1.517089
0.877441	1.531804
0.877539	1.562967
0.877637	1.560136
0.877734	1.545758
0.877832	1.544832
0.877930	1.591811
0.878027	1.572470
0.878125	1.532235
0.878223	1.517201
0.878320	1.504435
0.878418	1.493807
0.878516	1.464203
0.878613	1.466956
0.878711	1.463156
0.878809	1.482571
0.878906	1.512856
0.879004	1.514182
0.879102	1.469737
0.879199	1.464253
0.879297	1.462783
0.879395	1.492791
0.879492	1.520409
0.879590	1.478832
0.879687	1.486429
0.879785	1.489596
0.879883	1.466587
0.879980	1.473872
0.880078	1.473252
0.880176	1.468093
0.880273	1.419621
0.880371	1.446172
0.880469	1.469776
0.880566	1.474305
0.880664	1.458077
0.880762	1.415360
0.880859	1.445386
0.880957	1.450781
0.881055	1.416739
0.881152	1.405237
0.881250	1.455574
0.881348	1.502778
0.881445	1.542028
0.881543	1.553688
0.881641	1.560090
0.881738	1.560951
0.881836	1.558084
0.881934	1.556855
0.882031	1.556965
0.882129	1.559497
0.882227	1.563443
0.882324	1.569079
0.882422	1.574922
0.882520	1.581914
0.882617	1.588869
0.882715	1.597324
0.882812	1.602809
0.882910	1.614371
0.883008	1.616165
0.883105	1.615185
0.883203	1.627425
0.883301	1.627821
0.883398	1.622090
0.883496	1.620780
0.883594	1.628020
0.883691	1.635773
0.883789	1.652294
0.883887	1.652327
0.883984	1.658524
0.884082	1.677848
0.884180	1.676700
0.884277	1.684489
0.884375	1.678151
0.884473	1.680786
0.884570	1.673089
0.884668	1.694858
0.884766	1.667355
0.884863	1.606043
0.884961	1.655354
0.885059	1.651211
0.885156	1.654231
0.885254	1.620317
0.885352	1.577274
0.885449	1.594027
0.885547	1.630150
0.885645	1.645561
0.885742	1.640514
0.885840	1.666075
0.885937	1.675061
0.886035	1.649439
0.886133	1.633144
0.886230	1.633227
0.886328	1.619343
0.886426	1.543373
0.886523	1.490378
0.886621	1.552453
0.886719	1.591827
0.886816	1.598251
0.886914	1.631278
0.887012	1.596216
0.887109	1.570286
0.887207	1.592096
0.887305	1.563132
0.887402	1.620382
0.887500	1.605248
0.887598	1.599352
0.887695	1.637546
0.887793	1.651290
0.887891	1.620170
0.887988	1.571127
0.888086	1.586261
0.888184	1.588400
0.888281	1.581298
0.888379	1.583078
0.888477	1.584370
0.888574	1.546659
0.888672	1.549934
0.888770	1.563128
0.888867	1.566867
0.888965	1.539956
0.889062	1.548617
0.889160	1.536574
0.889258	1.543372
0.889355	1.564825
0.889453	1.589970
0.889551	1.600876
0.889648	1.605879
0.889746	1.602670
0.889844	1.576582
0.889941	1.564667
0.890039	1.557391
0.890137	1.507139
0.890234	1.505207
0.890332	1.523434
0.890430	1.508771
0.890527	1.523190
0.890625	1.534311
0.890723	1.554489
0.890820	1.528068
0.890918	1.506010
0.891016	1.502993
0.891113	1.498112
0.891211	1.498107
0.891309	1.510228
0.891406	1.551003
0.891504	1.554862
0.891602	1.519964
0.891699	1.475556
0.891797	1.425703
0.891895	1.392491
0.891992	1.430249
0.892090	1.423760
0.892187	1.407079
0.892285	1.426092
0.892383	1.444212
0.892480	1.497154
0.892578	1.481566
0.892676	1.439353
0.892773	1.432873
0.892871	1.415681
0.892969	1.386304
0.893066	1.390526
0.893164	1.399564
0.893262	1.411287
0.893359	1.440179
0.893457	1.437616
0.893555	1.454857
0.893652	1.470299
0.893750	1.419330
0.893848	1.511146
0.893945	1.491084
0.894043	1.470377
0.894141	1.425003
0.894238	1.430276
0.894336	1.446226
0.894434	1.455303
0.894531	1.446209
0.894629	1.468929
0.894727	1.461329
0.894824	1.414560
0.894922	1.411362
0.895020	1.424412
0.895117	1.428626
0.895215	1.426291
0.895312	1.394710
0.895410	1.377108
0.895508	1.355965
0.895605	1.369552
0.895703	1.408389
0.895801	1.494486
0.895898	1.572035
0.895996	1.545524
0.896094	1.500198
0.896191	1.459126
0.896289	1.445787
0.896387	1.458228
0.896484	1.489593
0.896582	1.518959
0.896680	1.546952
0.896777	1.565769
0.896875	1.570510
0.896973	1.594607
0.897070	1.576555
0.897168	1.541848
0.897266	1.505731
0.897363	1.506703
0.897461	1.542309
0.897559	1.558899
0.897656	1.584356
0.897754	1.604811
0.897852	1.576901
0.897949	1.590421
0.898047	1.600561
0.898145	1.568586
0.898242	1.578057
0.898340	1.589379
0.898437	1.611380
0.898535	1.625542
0.898633	1.625119
0.898730	1.610354
0.898828	1.627658
0.898926	1.677153
0.899023	1.685328
0.899121	1.676488
0.899219	1.665395
0.899316	1.655349
0.899414	1.635285
0.899512	1.673408
0.899609	1.668716
0.899707	1.669672
0.899805	1.674658
0.899902	1.688919
0.900000	1.690403
0.900098	1.692230
0.900195	1.694204
0.900293	1.704010
0.900391	1.712050
0.900488	1.671479
0.900586	1.600689
0.900684	1.588532
0.900781	1.623282
0.900879	1.666515
0.900977	1.674131
0.901074	1.689505
0.901172	1.687144
0.901270	1.700190
0.901367	1.704610
0.901465	1.698546
0.901562	1.725774
0.901660	1.674138
0.901758	1.682862
0.901855	1.697894
0.901953	1.633969
0.902051	1.642344
0.902148	1.627362
0.902246	1.625264
0.902344	1.639049
0.902441	1.628869
0.902539	1.633255
0.902637	1.615463
0.902734	1.611473
0.902832	1.650026
0.902930	1.623206
0.903027	1.630667
0.903125	1.629455
0.903223	1.572298
0.903320	1.562593
0.903418	1.571180
0.903516	1.551745
0.903613	1.546301
0.903711	1.561393
0.903809	1.542979
0.903906	1.539885
0.904004	1.500865
0.904102	1.482848
0.904199	1.500333
0.904297	1.492158
0.904395	1.496376
0.904492	1.529732
0.904590	1.550911
0.904687	1.566926
0.904785	1.555684
0.904883	1.551689
0.904980	1.611894
0.905078	1.616299
0.905176	1.584565
0.905273	1.565240
0.905371	1.584126
0.905469	1.586896
0.905566	1.542965
0.905664	1.521608
0.905762	1.508671
0.905859	1.514429
0.905957	1.511791
0.906055	1.519853
0.906152	1.520939
0.906250	1.508707
0.906348	1.518936
0.906445	1.524824
0.906543	1.521383
0.906641	1.507849
0.906738	1.492637
0.906836	1.475579
0.906934	1.477438
0.907031	1.486221
0.907129	1.484644
0.907227	1.478003
0.907324	1.465047
0.907422	1.446324
0.907520	1.425330
0.907617	1.403937
0.907715	1.388436
0.907812	1.382816
0.907910	1.385410
0.908008	1.385363
0.908105	1.374004
0.908203	1.355911
0.908301	1.348497
0.908398	1.346757
0.908496	1.352410
0.908594	1.362476
0.908691	1.374830
0.908789	1.388712
0.908887	1.403967
0.908984	1.406273
0.909082	1.407769
0.909180	1.409877
0.909277	1.424257
0.909375	1.426766
0.909473	1.412312
0.909570	1.377302
0.909668	1.365261
0.909766	1.370267
0.909863	1.403975
0.909961	1.422833
0.910059	1.402718
0.910156	1.377640
0.910254	1.379529
0.910352	1.400081
0.910449	1.404420
0.910547	1.399243
0.910645	1.434623
0.910742	1.454286
0.910840	1.496327
0.910937	1.527361
0.911035	1.517151
0.911133	1.518109
0.911230	1.545707
0.911328	1.570170
0.911426	1.599878
0.911523	1.550650
0.911621	1.504023
0.911719	1.577891
0.911816	1.599486
0.911914	1.587516
0.912012	1.589222
0.912109	1.584113
0.912207	1.591403
0.912305	1.604821
0.912402	1.608348
0.912500	1.592140
0.912598	1.567490
0.912695	1.581272
0.912793	1.609118
0.912891	1.616906
0.912988	1.627794
0.913086	1.608317
0.913184	1.586005
0.913281	1.593368
0.913379	1.595135
0.913477	1.549832
0.913574	1.568855
0.913672	1.562700
0.913770	1.565120
0.913867	1.645910
0.913965	1.607996
0.914062	1.636328
0.914160	1.624030
0.914258	1.649733
0.914355	1.675076
0.914453	1.673024
0.914551	1.681626
0.914648	1.665471
0.914746	1.640856
0.914844	1.572939
0.914941	1.609560
0.915039	1.605549
0.915137	1.601196
0.915234	1.577196
0.915332	1.551394
0.915430	1.549880
0.915527	1.538773
0.915625	1.539618
0.915723	1.495112
0.915820	1.476061
0.915918	1.512725
0.916016	1.551187
0.916113	1.555702
0.916211	1.585797
0.916309	1.590673
0.916406	1.604149
0.916504	1.621263
0.916602	1.587417
0.916699	1.506840
0.916797	1.430744
0.916895	1.466890
0.916992	1.570497
0.917090	1.573229
0.917187	1.596945
0.917285	1.490564
0.917383	1.483111
0.917480	1.464736
0.917578	1.448295
0.917676	1.563027
0.917773	1.571087
0.917871	1.572573
0.917969	1.577011
0.918066	1.557530
0.918164	1.574198
0.918262	1.551411
0.918359	1.503073
0.918457	1.479880
0.918555	1.501538
0.918652	1.523706
0.918750	1.538882
0.918848	1.535239
0.918945	1.522064
0.919043	1.501032
0.919141	1.494054
0.919238	1.514327
0.919336	1.505951
0.919434	1.510359
0.919531	1.485277
0.919629	1.464709
0.919727	1.479281
0.919824	1.473038
0.919922	1.506241
0.920020	1.469238
0.920117	1.425198
0.920215	1.417799
0.920312	1.439245
0.920410	1.488618
0.920508	1.497721
0.920605	1.492170
0.920703	1.485198
0.920801	1.480345
0.920898	1.477331
0.920996	1.449835
0.921094	1.436420
0.921191	1.496034
0.921289	1.474103
0.921387	1.475537
0.921484	1.443127
0.921582	1.478078
0.921680	1.525095
0.921777	1.507423
0.921875	1.502303
0.921973	1.523946
0.922070	1.530519
0.922168	1.501590
0.922266	1.459328
0.922363	1.436980
0.922461	1.433114
0.922559	1.434642
0.922656	1.429490
0.922754	1.428307
0.922852	1.429205
0.922949	1.458959
0.923047	1.503121
0.923145	1.475472
0.923242	1.447728
0.923340	1.471937
0.923437	1.509531
0.923535	1.549941
0.923633	1.533678
0.923730	1.530605
0.923828	1.552375
0.923926	1.558862
0.924023	1.560298
0.924121	1.560746
0.924219	1.553817
0.924316	1.525144
0.924414	1.484190
0.924512	1.452747
0.924609	1.411613
0.924707	1.345128
0.924805	1.297216
0.924902	1.279229
0.925000	1.285304
0.925098	1.323589
0.925195	1.415467
0.925293	1.476841
0.925391	1.500332
0.925488	1.504379
0.925586	1.542015
0.925684	1.556223
0.925781	1.524677
0.925879	1.512322
0.925977	1.516894
0.926074	1.519435
0.926172	1.532206
0.926270	1.552586
0.926367	1.544837
0.926465	1.575665
0.926562	1.594956
0.926660	1.591062
0.926758	1.574943
0.926855	1.541510
0.926953	1.613425
0.927051	1.644619
0.927148	1.584200
0.927246	1.592128
0.927344	1.565300
0.927441	1.562297
0.927539	1.516547
0.927637	1.533444
0.927734	1.550626
0.927832	1.515647
0.927930	1.477984
0.928027	1.455962
0.928125	1.426064
0.928223	1.405106
0.928320	1.399597
0.928418	1.438318
0.928516	1.454522
0.928613	1.478446
0.928711	1.519477
0.928809	1.524141
0.928906	1.511292
0.929004	1.491772
0.929102	1.410739
0.929199	1.454859
0.929297	1.440520
0.929395	1.347559
0.929492	1.351581
0.929590	1.436102
0.929687	1.570762
0.929785	1.567894
0.929883	1.542475
0.929980	1.503030
0.930078	1.480126
0.930176	1.429590
0.930273	1.414898
0.930371	1.397945
0.930469	1.391292
0.930566	1.333636
0.930664	1.293583
0.930762	1.291225
0.930859	1.286133
0.930957	1.291404
0.931055	1.274819
0.931152	1.322915
0.931250	1.416257
0.931348	1.481384
0.931445	1.513795
0.931543	1.502358
0.931641	1.479707
0.931738	1.475419
0.931836	1.463126
0.931934	1.507803
0.932031	1.503309
0.932129	1.474229
0.932227	1.525612
0.932324	1.532587
0.932422	1.544751
0.932520	1.528733
0.932617	1.523429
0.932715	1.525652
0.932812	1.469860
0.932910	1.451443
0.933008	1.437189
0.933105	1.394427
0.933203	1.384386
0.933301	1.394144
0.933398	1.398599
0.933496	1.471761
0.933594	1.495037
0.933691	1.479581
0.933789	1.507436
0.933887	1.519507
0.933984	1.488428
0.934082	1.463303
0.934180	1.441848
0.934277	1.391872
0.934375	1.356420
0.934473	1.336762
0.934570	1.379874
0.934668	1.397464
0.934766	1.364956
0.934863	1.391863
0.934961	1.459067
0.935059	1.500238
0.935156	1.487536
0.935254	1.478769
0.935352	1.482554
0.935449	1.479100
0.935547	1.460847
0.935645	1.424101
0.935742	1.412612
0.935840	1.427744
0.935937	1.441217
0.936035	1.437347
0.936133	1.414781
0.936230	1.399072
0.936328	1.398959
0.936426	1.411687
0.936523	1.440963
0.936621	1.459588
0.936719	1.453382
0.936816	1.438430
0.936914	1.423774
0.937012	1.399846
0.937109	1.381754
0.937207	1.357059
0.937305	1.329395
0.937402	1.309145
0.937500	1.338981
0.937598	1.389565
0.937695	1.357938
0.937793	1.319966
0.937891	1.290810
0.937988	1.275694
0.938086	1.286132
0.938184	1.296898
0.938281	1.331932
0.938379	1.343008
0.938477	1.299854
0.938574	1.310779
0.938672	1.343308
0.938770	1.358634
0.938867	1.363900
0.938965	1.353838
0.939062	1.346656
0.939160	1.354178
0.939258	1.374479
0.939355	1.391806
0.939453	1.401637
0.939551	1.405502
0.939648	1.400512
0.939746	1.387755
0.939844	1.369295
0.939941	1.362336
0.940039	1.359191
0.940137	1.363732
0.940234	1.382368
0.940332	1.361356
0.940430	1.337601
0.940527	1.343781
0.940625	1.370762
0.940723	1.390305
0.940820	1.388507
0.940918	1.384747
0.941016	1.375521
0.941113	1.364029
0.941211	1.351738
0.941309	1.331698
0.941406	1.320425
0.941504	1.330287
0.941602	1.322067
0.941699	1.283647
0.941797	1.265037
0.941895	1.279756
0.941992	1.297420
0.942090	1.323187
0.942187	1.336064
0.942285	1.343790
0.942383	1.355891
0.942480	1.371663
0.942578	1.386038
0.942676	1.370836
0.942773	1.334317
0.942871	1.321153
0.942969	1.325172
0.943066	1.327769
0.943164	1.329692
0.943262	1.333794
0.943359	1.333729
0.943457	1.332755
0.943555	1.333401
0.943652	1.332503
0.943750	1.324088
0.943848	1.310471
0.943945	1.301532
0.944043	1.321148
0.944141	1.358518
0.944238	1.386320
0.944336	1.397733
0.944434	1.415141
0.944531	1.436027
0.944629	1.433779
0.944727	1.418048
0.944824	1.387550
0.944922	1.354368
0.945020	1.320358
0.945117	1.284331
0.945215	1.273069
0.945312	1.282328
0.945410	1.291919
0.945508	1.314255
0.945605	1.338207
0.945703	1.353846
0.945801	1.363929
0.945898	1.366018
0.945996	1.354755
0.946094	1.340068
0.946191	1.334882
0.946289	1.339270
0.946387	1.349828
0.946484	1.344243
0.946582	1.335596
0.946680	1.425701
0.946777	1.436412
0.946875	1.425365
0.946973	1.432759
0.947070	1.395316
0.947168	1.352447
0.947266	1.337745
0.947363	1.341102
0.947461	1.341924
0.947559	1.339910
0.947656	1.330235
0.947754	1.312573
0.947852	1.350304
0.947949	1.435968
0.948047	1.434147
0.948145	1.444667
0.948242	1.489140
0.948340	1.500797
0.948437	1.584587
0.948535	1.547403
0.948633	1.498403
0.948730	1.502581
0.948828	1.464731
0.948926	1.446036
0.949023	1.476297
0.949121	1.494099
0.949219	1.515838
0.949316	1.545460
0.949414	1.506877
0.949512	1.477613
0.949609	1.448855
0.949707	1.432949
0.949805	1.416938
0.949902	1.437322
0.950000	1.455614
0.950098	1.450225
0.950195	1.406915
0.950293	1.404226
0.950391	1.390123
0.950488	1.398405
0.950586	1.427528
0.950684	1.422458
0.950781	1.403862
0.950879	1.427830
0.950977	1.449252
0.951074	1.436774
0.951172	1.416456
0.951270	1.385873
0.951367	1.416514
0.951465	1.434499
0.951562	1.445622
0.951660	1.430645
0.951758	1.398491
0.951855	1.385468
0.951953	1.465709
0.952051	1.502445
0.952148	1.512369
0.952246	1.494845
0.952344	1.450121
0.952441	1.428643
0.952539	1.455703
0.952637	1.486266
0.952734	1.487130
0.952832	1.457509
0.952930	1.432791
0.953027	1.428885
0.953125	1.405072
0.953223	1.416794
0.953320	1.389459
0.953418	1.352021
0.953516	1.332781
0.953613	1.406036
0.953711	1.409501
0.953809	1.363972
0.953906	1.318802
0.954004	1.344953
0.954102	1.392120
0.954199	1.376906
0.954297	1.424880
0.954395	1.403942
0.954492	1.338943
0.954590	1.312106
0.954687	1.314618
0.954785	1.412386
0.954883	1.404262
0.954980	1.336577
0.955078	1.376086
0.955176	1.344746
0.955273	1.328616
0.955371	1.393875
0.955469	1.418001
0.955566	1.458311
0.955664	1.476950
0.955762	1.496967
0.955859	1.514975
0.955957	1.507906
0.956055	1.485539
0.956152	1.464734
0.956250	1.452106
0.956348	1.433249
0.956445	1.454527
0.956543	1.493271
0.956641	1.515577
0.956738	1.523307
0.956836	1.509296
0.956934	1.487508
0.957031	1.458456
0.957129	1.446702
0.957227	1.435384
0.957324	1.414325
0.957422	1.386829
0.957520	1.369542
0.957617	1.346919
0.957715	1.341925
0.957812	1.328618
0.957910	1.328231
0.958008	1.336285
0.958105	1.336760
0.958203	1.409648
0.958301	1.416969
0.958398	1.394739
0.958496	1.352060
0.958594	1.313890
0.958691	1.304723
0.958789	1.287490
0.958887	1.295332
0.958984	1.341941
0.959082	1.371859
0.959180	1.386083
0.959277	1.401553
0.959375	1.405386
0.959473	1.433590
0.959570	1.429696
0.959668	1.453836
0.959766	1.473803
0.959863	1.443539
0.959961	1.460136
0.960059	1.529960
0.960156	1.489392
0.960254	1.448288
0.960352	1.459222
0.960449	1.472128
0.960547	1.490273
0.960645	1.480691
0.960742	1.435763
0.960840	1.405370
0.960937	1.445077
0.961035	1.507735
0.961133	1.533616
0.961230	1.543920
0.961328	1.503969
0.961426	1.510220
0.961523	1.500915
0.961621	1.495669
0.961719	1.494791
0.961816	1.498456
0.961914	1.445296
0.962012	1.459417
0.962109	1.472238
0.962207	1.528119
0.962305	1.569997
0.962402	1.561984
0.962500	1.557212
0.962598	1.568975
0.962695	1.534669
0.962793	1.552289
0.962891	1.582941
0.962988	1.595209
0.963086	1.574324
0.963184	1.534768
0.963281	1.540304
0.963379	1.530468
0.963477	1.503706
0.963574	1.460668
0.963672	1.450302
0.963770	1.467248
0.963867	1.490002
0.963965	1.478354
0.964062	1.473748
0.964160	1.500391
0.964258	1.535552
0.964355	1.566901
0.964453	1.515076
0.964551	1.505642
0.964648	1.517730
0.964746	1.517614
0.964844	1.524094
0.964941	1.531058
0.965039	1.487390
0.965137	1.449113
0.965234	1.453227
0.965332	1.452802
0.965430	1.436711
0.965527	1.369423
0.965625	1.367615
0.965723	1.435027
0.965820	1.425664
0.965918	1.466752
0.966016	1.512233
0.966113	1.501515
0.966211	1.504415
0.966309	1.482095
0.966406	1.462550
0.966504	1.455771
0.966602	1.412127
0.966699	1.389678
0.966797	1.395482
0.966895	1.384853
0.966992	1.375115
0.967090	1.399651
0.967187	1.429921
0.967285	1.445827
0.967383	1.443509
0.967480	1.440135
0.967578	1.410437
0.967676	1.401495
0.967773	1.429051
0.967871	1.441264
0.967969	1.435497
0.968066	1.432173
0.968164	1.458396
0.968262	1.481184
0.968359	1.484419
0.968457	1.487181
0.968555	1.494862
0.968652	1.511230
0.968750	1.481087
0.968848	1.451826
0.968945	1.447034
0.969043	1.436855
0.969141	1.438534
0.969238	1.476341
0.969336	1.451784
0.969434	1.424908
0.969531	1.371818
0.969629	1.334073
0.969727	1.357907
0.969824	1.368189
0.969922	1.375973
0.970020	1.358654
0.970117	1.362036
0.970215	1.359971
0.970312	1.412465
0.970410	1.504013
0.970508	1.473179
0.970605	1.488728
0.970703	1.504257
0.970801	1.466365
0.970898	1.460639
0.970996	1.495492
0.971094	1.488779
0.971191	1.536324
0.971289	1.557503
0.971387	1.547409
0.971484	1.532645
0.971582	1.548307
0.971680	1.554153
0.971777	1.530544
0.971875	1.517985
0.971973	1.500382
0.972070	1.495208
0.972168	1.478267
0.972266	1.495868
0.972363	1.523460
0.972461	1.546534
0.972559	1.550319
0.972656	1.539558
0.972754	1.529963
0.972852	1.542261
0.972949	1.551234
0.973047	1.535170
0.973145	1.519172
0.973242	1.513830
0.973340	1.487861
0.973437	1.451062
0.973535	1.412438
0.973633	1.376114
0.973730	1.346083
0.973828	1.322204
0.973926	1.308586
0.974023	1.298999
0.974121	1.293302
0.974219	1.295403
0.974316	1.311941
0.974414	1.327217
0.974512	1.341758
0.974609	1.351930
0.974707	1.353634
0.974805	1.355253
0.974902	1.359706
0.975000	1.353246
0.975098	1.337616
0.975195	1.325339
0.975293	1.316957
0.975391	1.308168
0.975488	1.293974
0.975586	1.276603
0.975684	1.260602
0.975781	1.253527
0.975879	1.262883
0.975977	1.288451
0.976074	1.306346
0.976172	1.302772
0.976270	1.297412
0.976367	1.298271
0.976465	1.303095

