LabVIEW Measurement	
Writer_Version	2
Reader_Version	2
Separator	Tab
Decimal_Separator	.
Multi_Headings	Yes
X_Columns	One
Time_Pref	Absolute
Operator	W-Tunnel
Date	1904/01/01
Time	01:00:00
***End_of_Header***	
	
Channels	1	
Samples	10000	
Date	2024/05/17	
Time	18:31:32.0792156562499713858	
Y_Unit_Label	Volts	
X_Dimension	Time	
X0	0.0000000000000000E+0	
Delta_X	9.765625E-5	
***End_of_Header***		
X_Value	Voltage	Comment
0.000000	1.684829
9.765625E-5	1.684284
0.000195	1.683524
0.000293	1.682928
0.000391	1.682236
0.000488	1.681575
0.000586	1.681042
0.000684	1.680442
0.000781	1.679843
0.000879	1.679333
0.000977	1.678814
0.001074	1.678273
0.001172	1.677883
0.001270	1.677400
0.001367	1.677017
0.001465	1.676644
0.001562	1.676341
0.001660	1.675969
0.001758	1.675713
0.001855	1.675408
0.001953	1.675262
0.002051	1.674888
0.002148	1.674756
0.002246	1.674495
0.002344	1.674507
0.002441	1.674438
0.002539	1.674293
0.002637	1.674277
0.002734	1.674229
0.002832	1.674214
0.002930	1.674185
0.003027	1.674230
0.003125	1.674128
0.003223	1.674133
0.003320	1.674209
0.003418	1.674121
0.003516	1.674207
0.003613	1.674054
0.003711	1.674085
0.003809	1.673977
0.003906	1.673745
0.004004	1.673531
0.004102	1.673344
0.004199	1.673080
0.004297	1.672859
0.004395	1.672622
0.004492	1.672233
0.004590	1.672021
0.004687	1.671608
0.004785	1.671368
0.004883	1.671025
0.004980	1.670845
0.005078	1.670495
0.005176	1.670402
0.005273	1.670165
0.005371	1.670055
0.005469	1.670003
0.005566	1.669884
0.005664	1.669941
0.005762	1.670005
0.005859	1.670244
0.005957	1.670368
0.006055	1.670552
0.006152	1.670891
0.006250	1.671221
0.006348	1.671671
0.006445	1.672109
0.006543	1.672701
0.006641	1.673197
0.006738	1.673744
0.006836	1.674417
0.006934	1.675045
0.007031	1.675785
0.007129	1.676468
0.007227	1.677289
0.007324	1.678107
0.007422	1.678913
0.007520	1.679641
0.007617	1.680432
0.007715	1.681233
0.007812	1.681845
0.007910	1.682510
0.008008	1.683102
0.008105	1.683536
0.008203	1.683828
0.008301	1.683869
0.008398	1.683834
0.008496	1.683341
0.008594	1.682643
0.008691	1.682027
0.008789	1.681784
0.008887	1.681469
0.008984	1.681394
0.009082	1.681201
0.009180	1.681158
0.009277	1.681110
0.009375	1.681182
0.009473	1.681205
0.009570	1.681301
0.009668	1.681318
0.009766	1.681479
0.009863	1.681523
0.009961	1.681639
0.010059	1.681644
0.010156	1.681677
0.010254	1.681444
0.010352	1.681228
0.010449	1.680947
0.010547	1.680615
0.010645	1.680241
0.010742	1.679689
0.010840	1.679249
0.010937	1.678661
0.011035	1.678114
0.011133	1.677506
0.011230	1.676838
0.011328	1.676198
0.011426	1.675567
0.011523	1.675007
0.011621	1.674450
0.011719	1.673993
0.011816	1.673476
0.011914	1.673137
0.012012	1.672783
0.012109	1.672472
0.012207	1.672142
0.012305	1.671981
0.012402	1.671948
0.012500	1.671837
0.012598	1.671730
0.012695	1.671634
0.012793	1.671607
0.012891	1.671498
0.012988	1.671468
0.013086	1.671362
0.013184	1.671259
0.013281	1.671243
0.013379	1.671128
0.013477	1.670966
0.013574	1.670828
0.013672	1.670728
0.013770	1.670586
0.013867	1.670426
0.013965	1.670335
0.014062	1.670182
0.014160	1.670107
0.014258	1.669942
0.014355	1.669853
0.014453	1.669916
0.014551	1.669841
0.014648	1.669840
0.014746	1.669891
0.014844	1.669913
0.014941	1.670035
0.015039	1.670192
0.015137	1.670328
0.015234	1.670439
0.015332	1.670613
0.015430	1.670773
0.015527	1.671051
0.015625	1.671398
0.015723	1.671618
0.015820	1.672016
0.015918	1.672324
0.016016	1.672829
0.016113	1.673105
0.016211	1.673640
0.016309	1.674038
0.016406	1.674530
0.016504	1.675116
0.016602	1.675640
0.016699	1.676135
0.016797	1.676658
0.016895	1.677290
0.016992	1.677796
0.017090	1.678383
0.017187	1.678875
0.017285	1.679266
0.017383	1.679733
0.017480	1.680091
0.017578	1.680368
0.017676	1.680588
0.017773	1.680901
0.017871	1.680901
0.017969	1.680962
0.018066	1.681027
0.018164	1.680937
0.018262	1.680787
0.018359	1.680818
0.018457	1.680784
0.018555	1.680652
0.018652	1.680682
0.018750	1.680672
0.018848	1.680652
0.018945	1.680725
0.019043	1.680757
0.019141	1.680793
0.019238	1.680943
0.019336	1.680948
0.019434	1.681064
0.019531	1.681176
0.019629	1.681349
0.019727	1.681523
0.019824	1.681860
0.019922	1.682185
0.020020	1.682560
0.020117	1.682931
0.020215	1.683240
0.020312	1.683712
0.020410	1.684229
0.020508	1.684610
0.020605	1.685189
0.020703	1.685560
0.020801	1.686177
0.020898	1.686770
0.020996	1.687642
0.021094	1.688616
0.021191	1.689926
0.021289	1.691187
0.021387	1.692107
0.021484	1.692294
0.021582	1.691412
0.021680	1.689452
0.021777	1.687489
0.021875	1.686638
0.021973	1.686520
0.022070	1.686445
0.022168	1.686236
0.022266	1.686062
0.022363	1.685810
0.022461	1.685631
0.022559	1.685316
0.022656	1.684908
0.022754	1.684594
0.022852	1.684155
0.022949	1.683702
0.023047	1.683211
0.023145	1.682659
0.023242	1.682127
0.023340	1.681693
0.023437	1.681217
0.023535	1.680807
0.023633	1.680407
0.023730	1.680190
0.023828	1.679996
0.023926	1.679819
0.024023	1.679821
0.024121	1.679673
0.024219	1.679717
0.024316	1.679667
0.024414	1.679822
0.024512	1.679848
0.024609	1.680018
0.024707	1.680279
0.024805	1.680396
0.024902	1.680760
0.025000	1.680990
0.025098	1.681514
0.025195	1.681810
0.025293	1.682421
0.025391	1.682965
0.025488	1.683522
0.025586	1.684145
0.025684	1.684779
0.025781	1.685335
0.025879	1.685796
0.025977	1.686105
0.026074	1.686173
0.026172	1.686007
0.026270	1.685846
0.026367	1.685484
0.026465	1.684946
0.026562	1.684178
0.026660	1.683514
0.026758	1.682476
0.026855	1.681540
0.026953	1.680533
0.027051	1.679566
0.027148	1.678665
0.027246	1.677799
0.027344	1.677062
0.027441	1.676333
0.027539	1.675737
0.027637	1.675111
0.027734	1.674556
0.027832	1.673981
0.027930	1.673555
0.028027	1.672981
0.028125	1.672538
0.028223	1.672081
0.028320	1.671604
0.028418	1.671118
0.028516	1.670738
0.028613	1.670204
0.028711	1.669754
0.028809	1.669299
0.028906	1.668916
0.029004	1.668492
0.029102	1.668208
0.029199	1.667917
0.029297	1.667480
0.029395	1.667199
0.029492	1.666995
0.029590	1.666710
0.029687	1.666609
0.029785	1.666536
0.029883	1.666434
0.029980	1.666485
0.030078	1.666353
0.030176	1.666431
0.030273	1.666462
0.030371	1.666530
0.030469	1.666683
0.030566	1.666926
0.030664	1.667113
0.030762	1.667476
0.030859	1.667767
0.030957	1.668162
0.031055	1.668587
0.031152	1.669117
0.031250	1.669609
0.031348	1.670172
0.031445	1.670753
0.031543	1.671223
0.031641	1.671794
0.031738	1.672317
0.031836	1.672745
0.031934	1.673244
0.032031	1.673770
0.032129	1.674102
0.032227	1.674514
0.032324	1.674869
0.032422	1.675166
0.032520	1.675351
0.032617	1.675445
0.032715	1.675420
0.032812	1.675445
0.032910	1.675362
0.033008	1.675372
0.033105	1.675304
0.033203	1.675325
0.033301	1.675210
0.033398	1.675232
0.033496	1.675180
0.033594	1.675195
0.033691	1.675187
0.033789	1.675218
0.033887	1.675334
0.033984	1.675503
0.034082	1.675641
0.034180	1.675930
0.034277	1.676252
0.034375	1.676621
0.034473	1.677070
0.034570	1.677461
0.034668	1.677872
0.034766	1.678205
0.034863	1.678400
0.034961	1.678516
0.035059	1.678347
0.035156	1.678272
0.035254	1.677929
0.035352	1.677578
0.035449	1.677275
0.035547	1.676821
0.035645	1.676387
0.035742	1.676024
0.035840	1.675643
0.035937	1.675385
0.036035	1.675071
0.036133	1.674699
0.036230	1.674430
0.036328	1.674087
0.036426	1.673793
0.036523	1.673447
0.036621	1.673173
0.036719	1.672917
0.036816	1.672765
0.036914	1.672657
0.037012	1.672517
0.037109	1.672419
0.037207	1.672491
0.037305	1.672590
0.037402	1.672673
0.037500	1.672864
0.037598	1.673158
0.037695	1.673455
0.037793	1.673761
0.037891	1.674127
0.037988	1.674481
0.038086	1.674831
0.038184	1.675278
0.038281	1.675730
0.038379	1.676005
0.038477	1.676438
0.038574	1.676823
0.038672	1.677130
0.038770	1.677477
0.038867	1.677662
0.038965	1.677860
0.039062	1.677959
0.039160	1.678027
0.039258	1.678056
0.039355	1.678027
0.039453	1.678050
0.039551	1.677904
0.039648	1.677888
0.039746	1.677732
0.039844	1.677708
0.039941	1.677634
0.040039	1.677551
0.040137	1.677538
0.040234	1.677386
0.040332	1.677333
0.040430	1.677340
0.040527	1.677332
0.040625	1.677308
0.040723	1.677216
0.040820	1.677141
0.040918	1.677116
0.041016	1.677017
0.041113	1.676935
0.041211	1.676782
0.041309	1.676737
0.041406	1.676561
0.041504	1.676442
0.041602	1.676377
0.041699	1.676198
0.041797	1.676180
0.041895	1.675998
0.041992	1.675934
0.042090	1.675769
0.042187	1.675749
0.042285	1.675662
0.042383	1.675752
0.042480	1.675741
0.042578	1.675738
0.042676	1.675741
0.042773	1.675736
0.042871	1.675821
0.042969	1.675832
0.043066	1.675888
0.043164	1.675898
0.043262	1.675991
0.043359	1.676082
0.043457	1.676212
0.043555	1.676298
0.043652	1.676438
0.043750	1.676710
0.043848	1.676827
0.043945	1.677097
0.044043	1.677310
0.044141	1.677653
0.044238	1.677868
0.044336	1.678253
0.044434	1.678510
0.044531	1.678898
0.044629	1.679224
0.044727	1.679619
0.044824	1.680008
0.044922	1.680330
0.045020	1.680863
0.045117	1.681276
0.045215	1.681817
0.045312	1.682282
0.045410	1.682833
0.045508	1.683329
0.045605	1.683861
0.045703	1.684464
0.045801	1.684904
0.045898	1.685354
0.045996	1.685782
0.046094	1.685980
0.046191	1.686149
0.046289	1.686303
0.046387	1.686366
0.046484	1.686484
0.046582	1.686422
0.046680	1.686367
0.046777	1.686258
0.046875	1.686084
0.046973	1.685926
0.047070	1.685679
0.047168	1.685500
0.047266	1.685085
0.047363	1.684872
0.047461	1.684575
0.047559	1.684312
0.047656	1.684087
0.047754	1.683839
0.047852	1.683534
0.047949	1.683327
0.048047	1.683032
0.048145	1.682753
0.048242	1.682386
0.048340	1.682049
0.048437	1.681746
0.048535	1.681442
0.048633	1.681046
0.048730	1.680785
0.048828	1.680419
0.048926	1.680063
0.049023	1.679731
0.049121	1.679364
0.049219	1.678920
0.049316	1.678573
0.049414	1.678088
0.049512	1.677731
0.049609	1.677323
0.049707	1.676960
0.049805	1.676661
0.049902	1.676265
0.050000	1.675907
0.050098	1.675573
0.050195	1.675162
0.050293	1.674756
0.050391	1.674406
0.050488	1.674129
0.050586	1.673746
0.050684	1.673449
0.050781	1.673069
0.050879	1.672845
0.050977	1.672607
0.051074	1.672239
0.051172	1.672121
0.051270	1.671955
0.051367	1.671838
0.051465	1.671749
0.051562	1.671647
0.051660	1.671549
0.051758	1.671657
0.051855	1.671678
0.051953	1.671660
0.052051	1.671657
0.052148	1.671699
0.052246	1.671648
0.052344	1.671849
0.052441	1.671901
0.052539	1.671935
0.052637	1.671924
0.052734	1.671911
0.052832	1.671882
0.052930	1.671866
0.053027	1.671725
0.053125	1.671738
0.053223	1.671642
0.053320	1.671494
0.053418	1.671404
0.053516	1.671408
0.053613	1.671252
0.053711	1.671232
0.053809	1.671172
0.053906	1.671074
0.054004	1.671099
0.054102	1.671065
0.054199	1.671062
0.054297	1.671057
0.054395	1.671132
0.054492	1.671144
0.054590	1.671182
0.054687	1.671295
0.054785	1.671337
0.054883	1.671359
0.054980	1.671465
0.055078	1.671455
0.055176	1.671489
0.055273	1.671450
0.055371	1.671498
0.055469	1.671465
0.055566	1.671318
0.055664	1.671301
0.055762	1.671127
0.055859	1.671061
0.055957	1.670950
0.056055	1.670822
0.056152	1.670734
0.056250	1.670603
0.056348	1.670414
0.056445	1.670310
0.056543	1.670171
0.056641	1.670043
0.056738	1.669872
0.056836	1.669703
0.056934	1.669556
0.057031	1.669342
0.057129	1.669215
0.057227	1.668976
0.057324	1.668849
0.057422	1.668635
0.057520	1.668562
0.057617	1.668288
0.057715	1.668185
0.057812	1.668108
0.057910	1.667908
0.058008	1.667890
0.058105	1.667744
0.058203	1.667723
0.058301	1.667670
0.058398	1.667660
0.058496	1.667633
0.058594	1.667696
0.058691	1.667639
0.058789	1.667763
0.058887	1.667746
0.058984	1.667877
0.059082	1.668002
0.059180	1.668032
0.059277	1.668216
0.059375	1.668317
0.059473	1.668524
0.059570	1.668714
0.059668	1.668922
0.059766	1.669215
0.059863	1.669518
0.059961	1.669862
0.060059	1.670296
0.060156	1.670573
0.060254	1.670918
0.060352	1.671302
0.060449	1.671852
0.060547	1.672319
0.060645	1.672826
0.060742	1.673241
0.060840	1.673721
0.060937	1.674152
0.061035	1.674650
0.061133	1.675114
0.061230	1.675594
0.061328	1.675971
0.061426	1.676426
0.061523	1.676768
0.061621	1.677109
0.061719	1.677401
0.061816	1.677833
0.061914	1.678062
0.062012	1.678301
0.062109	1.678497
0.062207	1.678676
0.062305	1.678810
0.062402	1.678975
0.062500	1.679104
0.062598	1.679230
0.062695	1.679215
0.062793	1.679255
0.062891	1.679337
0.062988	1.679337
0.063086	1.679327
0.063184	1.679391
0.063281	1.679329
0.063379	1.679262
0.063477	1.679306
0.063574	1.679237
0.063672	1.679266
0.063770	1.679327
0.063867	1.679410
0.063965	1.679410
0.064062	1.679487
0.064160	1.679703
0.064258	1.679783
0.064355	1.679974
0.064453	1.680178
0.064551	1.680384
0.064648	1.680580
0.064746	1.680736
0.064844	1.680943
0.064941	1.681018
0.065039	1.681161
0.065137	1.681189
0.065234	1.681321
0.065332	1.681291
0.065430	1.681286
0.065527	1.681156
0.065625	1.681028
0.065723	1.680819
0.065820	1.680412
0.065918	1.679961
0.066016	1.679481
0.066113	1.678895
0.066211	1.678233
0.066309	1.677558
0.066406	1.676920
0.066504	1.676187
0.066602	1.675604
0.066699	1.674893
0.066797	1.674272
0.066895	1.673684
0.066992	1.673113
0.067090	1.672632
0.067187	1.672103
0.067285	1.671625
0.067383	1.671177
0.067480	1.670678
0.067578	1.670407
0.067676	1.670021
0.067773	1.669593
0.067871	1.669321
0.067969	1.668875
0.068066	1.668629
0.068164	1.668323
0.068262	1.668037
0.068359	1.667716
0.068457	1.667470
0.068555	1.667098
0.068652	1.666782
0.068750	1.666557
0.068848	1.666144
0.068945	1.665928
0.069043	1.665593
0.069141	1.665301
0.069238	1.665021
0.069336	1.664723
0.069434	1.664422
0.069531	1.664139
0.069629	1.664009
0.069727	1.663767
0.069824	1.663718
0.069922	1.663526
0.070020	1.663477
0.070117	1.663370
0.070215	1.663322
0.070312	1.663214
0.070410	1.663281
0.070508	1.663278
0.070605	1.663302
0.070703	1.663342
0.070801	1.663359
0.070898	1.663405
0.070996	1.663486
0.071094	1.663677
0.071191	1.663732
0.071289	1.663912
0.071387	1.664011
0.071484	1.664070
0.071582	1.664139
0.071680	1.664344
0.071777	1.664368
0.071875	1.664531
0.071973	1.664642
0.072070	1.664724
0.072168	1.664761
0.072266	1.664930
0.072363	1.665213
0.072461	1.665232
0.072559	1.665529
0.072656	1.665559
0.072754	1.665847
0.072852	1.665924
0.072949	1.666181
0.073047	1.666343
0.073145	1.666570
0.073242	1.666821
0.073340	1.667175
0.073437	1.667318
0.073535	1.667616
0.073633	1.668046
0.073730	1.668285
0.073828	1.668720
0.073926	1.669205
0.074023	1.669619
0.074121	1.670134
0.074219	1.670668
0.074316	1.671214
0.074414	1.671798
0.074512	1.672414
0.074609	1.673062
0.074707	1.673805
0.074805	1.674568
0.074902	1.675328
0.075000	1.676103
0.075098	1.676845
0.075195	1.677717
0.075293	1.678579
0.075391	1.679506
0.075488	1.680380
0.075586	1.681285
0.075684	1.682195
0.075781	1.683090
0.075879	1.684038
0.075977	1.684994
0.076074	1.685999
0.076172	1.687080
0.076270	1.687972
0.076367	1.689077
0.076465	1.690008
0.076562	1.691049
0.076660	1.692005
0.076758	1.692882
0.076855	1.693594
0.076953	1.694356
0.077051	1.694831
0.077148	1.695166
0.077246	1.695338
0.077344	1.695385
0.077441	1.695363
0.077539	1.695159
0.077637	1.694812
0.077734	1.694553
0.077832	1.694117
0.077930	1.693484
0.078027	1.692905
0.078125	1.692213
0.078223	1.691404
0.078320	1.690635
0.078418	1.689749
0.078516	1.688870
0.078613	1.688086
0.078711	1.687364
0.078809	1.686818
0.078906	1.686286
0.079004	1.685905
0.079102	1.685560
0.079199	1.685274
0.079297	1.685038
0.079395	1.684719
0.079492	1.684406
0.079590	1.684049
0.079687	1.683750
0.079785	1.683565
0.079883	1.683171
0.079980	1.682764
0.080078	1.682409
0.080176	1.681947
0.080273	1.681444
0.080371	1.680910
0.080469	1.680385
0.080566	1.679800
0.080664	1.679116
0.080762	1.678469
0.080859	1.677721
0.080957	1.676971
0.081055	1.676195
0.081152	1.675531
0.081250	1.674773
0.081348	1.674078
0.081445	1.673471
0.081543	1.672809
0.081641	1.672196
0.081738	1.671574
0.081836	1.671057
0.081934	1.670528
0.082031	1.670055
0.082129	1.669531
0.082227	1.668980
0.082324	1.668549
0.082422	1.668114
0.082520	1.667693
0.082617	1.667226
0.082715	1.666836
0.082812	1.666378
0.082910	1.666018
0.083008	1.665584
0.083105	1.665244
0.083203	1.664895
0.083301	1.664491
0.083398	1.664241
0.083496	1.663925
0.083594	1.663636
0.083691	1.663405
0.083789	1.663217
0.083887	1.663000
0.083984	1.662841
0.084082	1.662713
0.084180	1.662514
0.084277	1.662509
0.084375	1.662483
0.084473	1.662561
0.084570	1.662479
0.084668	1.662612
0.084766	1.662637
0.084863	1.662741
0.084961	1.662940
0.085059	1.663173
0.085156	1.663335
0.085254	1.663557
0.085352	1.663891
0.085449	1.664200
0.085547	1.664511
0.085645	1.664810
0.085742	1.665247
0.085840	1.665530
0.085937	1.666008
0.086035	1.666413
0.086133	1.666835
0.086230	1.667212
0.086328	1.667673
0.086426	1.668093
0.086523	1.668480
0.086621	1.668880
0.086719	1.669233
0.086816	1.669661
0.086914	1.670004
0.087012	1.670334
0.087109	1.670736
0.087207	1.671124
0.087305	1.671417
0.087402	1.671926
0.087500	1.672309
0.087598	1.672748
0.087695	1.673159
0.087793	1.673498
0.087891	1.673939
0.087988	1.674365
0.088086	1.674717
0.088184	1.675154
0.088281	1.675580
0.088379	1.676023
0.088477	1.676476
0.088574	1.676865
0.088672	1.677314
0.088770	1.677755
0.088867	1.678166
0.088965	1.678610
0.089062	1.679090
0.089160	1.679544
0.089258	1.679972
0.089355	1.680315
0.089453	1.680696
0.089551	1.681093
0.089648	1.681411
0.089746	1.681600
0.089844	1.681913
0.089941	1.682084
0.090039	1.682278
0.090137	1.682301
0.090234	1.682493
0.090332	1.682521
0.090430	1.682741
0.090527	1.682736
0.090625	1.682806
0.090723	1.682776
0.090820	1.682708
0.090918	1.682513
0.091016	1.682421
0.091113	1.682202
0.091211	1.681848
0.091309	1.681560
0.091406	1.681198
0.091504	1.680863
0.091602	1.680423
0.091699	1.680028
0.091797	1.679529
0.091895	1.679223
0.091992	1.678763
0.092090	1.678412
0.092187	1.678001
0.092285	1.677583
0.092383	1.677479
0.092480	1.677170
0.092578	1.676949
0.092676	1.676730
0.092773	1.676544
0.092871	1.676422
0.092969	1.676306
0.093066	1.676248
0.093164	1.676155
0.093262	1.676141
0.093359	1.676058
0.093457	1.676060
0.093555	1.675999
0.093652	1.676013
0.093750	1.676031
0.093848	1.676085
0.093945	1.676075
0.094043	1.676058
0.094141	1.676140
0.094238	1.676140
0.094336	1.676186
0.094434	1.676192
0.094531	1.676189
0.094629	1.676127
0.094727	1.676084
0.094824	1.676217
0.094922	1.676099
0.095020	1.676015
0.095117	1.675864
0.095215	1.675749
0.095312	1.675599
0.095410	1.675360
0.095508	1.675075
0.095605	1.674852
0.095703	1.674529
0.095801	1.674145
0.095898	1.673862
0.095996	1.673548
0.096094	1.673144
0.096191	1.672741
0.096289	1.672312
0.096387	1.671945
0.096484	1.671517
0.096582	1.671113
0.096680	1.670669
0.096777	1.670206
0.096875	1.669861
0.096973	1.669418
0.097070	1.668961
0.097168	1.668601
0.097266	1.668145
0.097363	1.667771
0.097461	1.667403
0.097559	1.667107
0.097656	1.666706
0.097754	1.666327
0.097852	1.666031
0.097949	1.665803
0.098047	1.665495
0.098145	1.665258
0.098242	1.665003
0.098340	1.664818
0.098437	1.664660
0.098535	1.664475
0.098633	1.664385
0.098730	1.664164
0.098828	1.664093
0.098926	1.664005
0.099023	1.663978
0.099121	1.663810
0.099219	1.663774
0.099316	1.663685
0.099414	1.663605
0.099512	1.663521
0.099609	1.663527
0.099707	1.663493
0.099805	1.663445
0.099902	1.663530
0.100000	1.663540
0.100098	1.663458
0.100195	1.663496
0.100293	1.663472
0.100391	1.663502
0.100488	1.663482
0.100586	1.663560
0.100684	1.663554
0.100781	1.663600
0.100879	1.663683
0.100977	1.663702
0.101074	1.663809
0.101172	1.663902
0.101270	1.664022
0.101367	1.664021
0.101465	1.664248
0.101562	1.664336
0.101660	1.664606
0.101758	1.664712
0.101855	1.664944
0.101953	1.665228
0.102051	1.665404
0.102148	1.665703
0.102246	1.665960
0.102344	1.666414
0.102441	1.666853
0.102539	1.667238
0.102637	1.667644
0.102734	1.668094
0.102832	1.668600
0.102930	1.669138
0.103027	1.669587
0.103125	1.670179
0.103223	1.670712
0.103320	1.671369
0.103418	1.671945
0.103516	1.672575
0.103613	1.673284
0.103711	1.673955
0.103809	1.674617
0.103906	1.675394
0.104004	1.676089
0.104102	1.676755
0.104199	1.677391
0.104297	1.678005
0.104395	1.678695
0.104492	1.679127
0.104590	1.679587
0.104687	1.679987
0.104785	1.680322
0.104883	1.680740
0.104980	1.680959
0.105078	1.681167
0.105176	1.681327
0.105273	1.681419
0.105371	1.681496
0.105469	1.681458
0.105566	1.681430
0.105664	1.681297
0.105762	1.681259
0.105859	1.681070
0.105957	1.680918
0.106055	1.680692
0.106152	1.680513
0.106250	1.680270
0.106348	1.680175
0.106445	1.679976
0.106543	1.679771
0.106641	1.679537
0.106738	1.679357
0.106836	1.679119
0.106934	1.678819
0.107031	1.678520
0.107129	1.678283
0.107227	1.677963
0.107324	1.677659
0.107422	1.677301
0.107520	1.676953
0.107617	1.676721
0.107715	1.676386
0.107812	1.676103
0.107910	1.675776
0.108008	1.675591
0.108105	1.675287
0.108203	1.675037
0.108301	1.674763
0.108398	1.674537
0.108496	1.674431
0.108594	1.674163
0.108691	1.674035
0.108789	1.673837
0.108887	1.673708
0.108984	1.673601
0.109082	1.673531
0.109180	1.673410
0.109277	1.673239
0.109375	1.673234
0.109473	1.673161
0.109570	1.673110
0.109668	1.673001
0.109766	1.673123
0.109863	1.673131
0.109961	1.673119
0.110059	1.673178
0.110156	1.673225
0.110254	1.673263
0.110352	1.673231
0.110449	1.673310
0.110547	1.673309
0.110645	1.673339
0.110742	1.673338
0.110840	1.673359
0.110937	1.673387
0.111035	1.673437
0.111133	1.673455
0.111230	1.673465
0.111328	1.673491
0.111426	1.673363
0.111523	1.673365
0.111621	1.673329
0.111719	1.673305
0.111816	1.673290
0.111914	1.673242
0.112012	1.673186
0.112109	1.673204
0.112207	1.672972
0.112305	1.673075
0.112402	1.673131
0.112500	1.673048
0.112598	1.673104
0.112695	1.673092
0.112793	1.673188
0.112891	1.673361
0.112988	1.673384
0.113086	1.673551
0.113184	1.673748
0.113281	1.673879
0.113379	1.674132
0.113477	1.674365
0.113574	1.674756
0.113672	1.675128
0.113770	1.675279
0.113867	1.675664
0.113965	1.676082
0.114062	1.676391
0.114160	1.676655
0.114258	1.676908
0.114355	1.677078
0.114453	1.677392
0.114551	1.677664
0.114648	1.677944
0.114746	1.678278
0.114844	1.678609
0.114941	1.678798
0.115039	1.678931
0.115137	1.678777
0.115234	1.678242
0.115332	1.677502
0.115430	1.676337
0.115527	1.675162
0.115625	1.673851
0.115723	1.672778
0.115820	1.671594
0.115918	1.670572
0.116016	1.669706
0.116113	1.669034
0.116211	1.668447
0.116309	1.667972
0.116406	1.667652
0.116504	1.667390
0.116602	1.667382
0.116699	1.667348
0.116797	1.667371
0.116895	1.667524
0.116992	1.667615
0.117090	1.667845
0.117187	1.668062
0.117285	1.668317
0.117383	1.668607
0.117480	1.668854
0.117578	1.669207
0.117676	1.669517
0.117773	1.669855
0.117871	1.670184
0.117969	1.670556
0.118066	1.670936
0.118164	1.671245
0.118262	1.671621
0.118359	1.672037
0.118457	1.672388
0.118555	1.672779
0.118652	1.673106
0.118750	1.673560
0.118848	1.673977
0.118945	1.674368
0.119043	1.674853
0.119141	1.675257
0.119238	1.675707
0.119336	1.676199
0.119434	1.676709
0.119531	1.677167
0.119629	1.677664
0.119727	1.678351
0.119824	1.678891
0.119922	1.679571
0.120020	1.680107
0.120117	1.680794
0.120215	1.681336
0.120312	1.681820
0.120410	1.682365
0.120508	1.682860
0.120605	1.683292
0.120703	1.683590
0.120801	1.683927
0.120898	1.684152
0.120996	1.684284
0.121094	1.684391
0.121191	1.684415
0.121289	1.684569
0.121387	1.684423
0.121484	1.684400
0.121582	1.684306
0.121680	1.684227
0.121777	1.684107
0.121875	1.683955
0.121973	1.683794
0.122070	1.683692
0.122168	1.683420
0.122266	1.683248
0.122363	1.683175
0.122461	1.683066
0.122559	1.682925
0.122656	1.682684
0.122754	1.682505
0.122852	1.682347
0.122949	1.682211
0.123047	1.682031
0.123145	1.681879
0.123242	1.681793
0.123340	1.681665
0.123437	1.681649
0.123535	1.681505
0.123633	1.681455
0.123730	1.681411
0.123828	1.681294
0.123926	1.681246
0.124023	1.681193
0.124121	1.681154
0.124219	1.681103
0.124316	1.681023
0.124414	1.680993
0.124512	1.680889
0.124609	1.680664
0.124707	1.680549
0.124805	1.680326
0.124902	1.680063
0.125000	1.679862
0.125098	1.679533
0.125195	1.679155
0.125293	1.678766
0.125391	1.678378
0.125488	1.678034
0.125586	1.677497
0.125684	1.677017
0.125781	1.676669
0.125879	1.676115
0.125977	1.675641
0.126074	1.675184
0.126172	1.674621
0.126270	1.674174
0.126367	1.673635
0.126465	1.673121
0.126562	1.672664
0.126660	1.672205
0.126758	1.671794
0.126855	1.671246
0.126953	1.670769
0.127051	1.670316
0.127148	1.669747
0.127246	1.669309
0.127344	1.668682
0.127441	1.668160
0.127539	1.667462
0.127637	1.666871
0.127734	1.666193
0.127832	1.665586
0.127930	1.664909
0.128027	1.664145
0.128125	1.663416
0.128223	1.662737
0.128320	1.662124
0.128418	1.661510
0.128516	1.660753
0.128613	1.660170
0.128711	1.659585
0.128809	1.658998
0.128906	1.658473
0.129004	1.657962
0.129102	1.657473
0.129199	1.657046
0.129297	1.656596
0.129395	1.656036
0.129492	1.655826
0.129590	1.655397
0.129687	1.655161
0.129785	1.654950
0.129883	1.654666
0.129980	1.654438
0.130078	1.654290
0.130176	1.654120
0.130273	1.653918
0.130371	1.653781
0.130469	1.653702
0.130566	1.653678
0.130664	1.653620
0.130762	1.653650
0.130859	1.653541
0.130957	1.653556
0.131055	1.653697
0.131152	1.653760
0.131250	1.653833
0.131348	1.654031
0.131445	1.654144
0.131543	1.654308
0.131641	1.654629
0.131738	1.654763
0.131836	1.655024
0.131934	1.655345
0.132031	1.655641
0.132129	1.655837
0.132227	1.656166
0.132324	1.656684
0.132422	1.656981
0.132520	1.657418
0.132617	1.657719
0.132715	1.658057
0.132812	1.658513
0.132910	1.658961
0.133008	1.659163
0.133105	1.659638
0.133203	1.659945
0.133301	1.660322
0.133398	1.660671
0.133496	1.661141
0.133594	1.661482
0.133691	1.661821
0.133789	1.662230
0.133887	1.662601
0.133984	1.663001
0.134082	1.663395
0.134180	1.663863
0.134277	1.664209
0.134375	1.664659
0.134473	1.665087
0.134570	1.665593
0.134668	1.665999
0.134766	1.666497
0.134863	1.667063
0.134961	1.667579
0.135059	1.668209
0.135156	1.668765
0.135254	1.669393
0.135352	1.669974
0.135449	1.670742
0.135547	1.671385
0.135645	1.672043
0.135742	1.672771
0.135840	1.673386
0.135937	1.674077
0.136035	1.674771
0.136133	1.675357
0.136230	1.676095
0.136328	1.676604
0.136426	1.677208
0.136523	1.677757
0.136621	1.678285
0.136719	1.678720
0.136816	1.679316
0.136914	1.679658
0.137012	1.680157
0.137109	1.680540
0.137207	1.680909
0.137305	1.681331
0.137402	1.681622
0.137500	1.682036
0.137598	1.682442
0.137695	1.682801
0.137793	1.683138
0.137891	1.683674
0.137988	1.684015
0.138086	1.684318
0.138184	1.684677
0.138281	1.684979
0.138379	1.685276
0.138477	1.685464
0.138574	1.685544
0.138672	1.685715
0.138770	1.685795
0.138867	1.685804
0.138965	1.685809
0.139062	1.685770
0.139160	1.685575
0.139258	1.685475
0.139355	1.685190
0.139453	1.685089
0.139551	1.684770
0.139648	1.684515
0.139746	1.684267
0.139844	1.684014
0.139941	1.683701
0.140039	1.683442
0.140137	1.683064
0.140234	1.682624
0.140332	1.682250
0.140430	1.681748
0.140527	1.681323
0.140625	1.680815
0.140723	1.680357
0.140820	1.679890
0.140918	1.679462
0.141016	1.678999
0.141113	1.678578
0.141211	1.678234
0.141309	1.677782
0.141406	1.677407
0.141504	1.677074
0.141602	1.676679
0.141699	1.676405
0.141797	1.676010
0.141895	1.675702
0.141992	1.675434
0.142090	1.675078
0.142187	1.674702
0.142285	1.674507
0.142383	1.674318
0.142480	1.674051
0.142578	1.673856
0.142676	1.673487
0.142773	1.673084
0.142871	1.672647
0.142969	1.672201
0.143066	1.671564
0.143164	1.671030
0.143262	1.670373
0.143359	1.669635
0.143457	1.668947
0.143555	1.668202
0.143652	1.667478
0.143750	1.666775
0.143848	1.666096
0.143945	1.665493
0.144043	1.664846
0.144141	1.664301
0.144238	1.663763
0.144336	1.663331
0.144434	1.662895
0.144531	1.662480
0.144629	1.662159
0.144727	1.661781
0.144824	1.661570
0.144922	1.661382
0.145020	1.661213
0.145117	1.661119
0.145215	1.660978
0.145312	1.660991
0.145410	1.660965
0.145508	1.660996
0.145605	1.661055
0.145703	1.661266
0.145801	1.661360
0.145898	1.661562
0.145996	1.661695
0.146094	1.662012
0.146191	1.662184
0.146289	1.662442
0.146387	1.662815
0.146484	1.663071
0.146582	1.663505
0.146680	1.663716
0.146777	1.664150
0.146875	1.664490
0.146973	1.664818
0.147070	1.665164
0.147168	1.665484
0.147266	1.665703
0.147363	1.665949
0.147461	1.666165
0.147559	1.666295
0.147656	1.666487
0.147754	1.666581
0.147852	1.666790
0.147949	1.666769
0.148047	1.666927
0.148145	1.667009
0.148242	1.667045
0.148340	1.667093
0.148437	1.667146
0.148535	1.667196
0.148633	1.667207
0.148730	1.667114
0.148828	1.667081
0.148926	1.667129
0.149023	1.667099
0.149121	1.667157
0.149219	1.667128
0.149316	1.667127
0.149414	1.667125
0.149512	1.667164
0.149609	1.667068
0.149707	1.667224
0.149805	1.667276
0.149902	1.667397
0.150000	1.667511
0.150098	1.667637
0.150195	1.667730
0.150293	1.667849
0.150391	1.668032
0.150488	1.668148
0.150586	1.668307
0.150684	1.668487
0.150781	1.668651
0.150879	1.668826
0.150977	1.668991
0.151074	1.669203
0.151172	1.669388
0.151270	1.669520
0.151367	1.669734
0.151465	1.669947
0.151562	1.670160
0.151660	1.670343
0.151758	1.670620
0.151855	1.670829
0.151953	1.671037
0.152051	1.671281
0.152148	1.671495
0.152246	1.671572
0.152344	1.671947
0.152441	1.672232
0.152539	1.672412
0.152637	1.672631
0.152734	1.672896
0.152832	1.673045
0.152930	1.673299
0.153027	1.673361
0.153125	1.673690
0.153223	1.673785
0.153320	1.673995
0.153418	1.674164
0.153516	1.674385
0.153613	1.674457
0.153711	1.674675
0.153809	1.674827
0.153906	1.674969
0.154004	1.675143
0.154102	1.675213
0.154199	1.675387
0.154297	1.675442
0.154395	1.675586
0.154492	1.675780
0.154590	1.675949
0.154687	1.676107
0.154785	1.676170
0.154883	1.676286
0.154980	1.676308
0.155078	1.676347
0.155176	1.676265
0.155273	1.676095
0.155371	1.676059
0.155469	1.675823
0.155566	1.675753
0.155664	1.675528
0.155762	1.675459
0.155859	1.675373
0.155957	1.675307
0.156055	1.675317
0.156152	1.675354
0.156250	1.675266
0.156348	1.675173
0.156445	1.675111
0.156543	1.675119
0.156641	1.674992
0.156738	1.674794
0.156836	1.674766
0.156934	1.674640
0.157031	1.674551
0.157129	1.674384
0.157227	1.674375
0.157324	1.674382
0.157422	1.674510
0.157520	1.674478
0.157617	1.674644
0.157715	1.674681
0.157812	1.674700
0.157910	1.674690
0.158008	1.674582
0.158105	1.674339
0.158203	1.674055
0.158301	1.673661
0.158398	1.673237
0.158496	1.672762
0.158594	1.672277
0.158691	1.671784
0.158789	1.671278
0.158887	1.670804
0.158984	1.670401
0.159082	1.669986
0.159180	1.669610
0.159277	1.669091
0.159375	1.668606
0.159473	1.668216
0.159570	1.667821
0.159668	1.667515
0.159766	1.667201
0.159863	1.667005
0.159961	1.666766
0.160059	1.666573
0.160156	1.666409
0.160254	1.666206
0.160352	1.666083
0.160449	1.665966
0.160547	1.665900
0.160645	1.665827
0.160742	1.665669
0.160840	1.665602
0.160937	1.665488
0.161035	1.665409
0.161133	1.665299
0.161230	1.665083
0.161328	1.665026
0.161426	1.664850
0.161523	1.664769
0.161621	1.664696
0.161719	1.664636
0.161816	1.664535
0.161914	1.664494
0.162012	1.664388
0.162109	1.664368
0.162207	1.664260
0.162305	1.664406
0.162402	1.664344
0.162500	1.664465
0.162598	1.664570
0.162695	1.664647
0.162793	1.664741
0.162891	1.664842
0.162988	1.664964
0.163086	1.665127
0.163184	1.665359
0.163281	1.665521
0.163379	1.665809
0.163477	1.666072
0.163574	1.666304
0.163672	1.666605
0.163770	1.666870
0.163867	1.667122
0.163965	1.667462
0.164062	1.667761
0.164160	1.668141
0.164258	1.668492
0.164355	1.668855
0.164453	1.669222
0.164551	1.669547
0.164648	1.670006
0.164746	1.670304
0.164844	1.670780
0.164941	1.671065
0.165039	1.671520
0.165137	1.671892
0.165234	1.672306
0.165332	1.672701
0.165430	1.673033
0.165527	1.673401
0.165625	1.673815
0.165723	1.674179
0.165820	1.674479
0.165918	1.674887
0.166016	1.675174
0.166113	1.675441
0.166211	1.675782
0.166309	1.676103
0.166406	1.676374
0.166504	1.676619
0.166602	1.676962
0.166699	1.677173
0.166797	1.677438
0.166895	1.677771
0.166992	1.678034
0.167090	1.678404
0.167187	1.678679
0.167285	1.678925
0.167383	1.679266
0.167480	1.679552
0.167578	1.679849
0.167676	1.680111
0.167773	1.680375
0.167871	1.680688
0.167969	1.680993
0.168066	1.681337
0.168164	1.681649
0.168262	1.681982
0.168359	1.682271
0.168457	1.682610
0.168555	1.682892
0.168652	1.683256
0.168750	1.683556
0.168848	1.683788
0.168945	1.683983
0.169043	1.683965
0.169141	1.683737
0.169238	1.683426
0.169336	1.682851
0.169434	1.682391
0.169531	1.681831
0.169629	1.681432
0.169727	1.681034
0.169824	1.680776
0.169922	1.680469
0.170020	1.680163
0.170117	1.679866
0.170215	1.679645
0.170312	1.679324
0.170410	1.679066
0.170508	1.678709
0.170605	1.678571
0.170703	1.678238
0.170801	1.678040
0.170898	1.677806
0.170996	1.677657
0.171094	1.677582
0.171191	1.677422
0.171289	1.677419
0.171387	1.677372
0.171484	1.677393
0.171582	1.677418
0.171680	1.677475
0.171777	1.677469
0.171875	1.677599
0.171973	1.677691
0.172070	1.677726
0.172168	1.677834
0.172266	1.677892
0.172363	1.678106
0.172461	1.678183
0.172559	1.678296
0.172656	1.678252
0.172754	1.678333
0.172852	1.678155
0.172949	1.677964
0.173047	1.677687
0.173145	1.677429
0.173242	1.677184
0.173340	1.676972
0.173437	1.676911
0.173535	1.676846
0.173633	1.677051
0.173730	1.677097
0.173828	1.677272
0.173926	1.677377
0.174023	1.677501
0.174121	1.677523
0.174219	1.677347
0.174316	1.677148
0.174414	1.676629
0.174512	1.675926
0.174609	1.675049
0.174707	1.674060
0.174805	1.673003
0.174902	1.671818
0.175000	1.670796
0.175098	1.669692
0.175195	1.668569
0.175293	1.667619
0.175391	1.666682
0.175488	1.665792
0.175586	1.664854
0.175684	1.664076
0.175781	1.663328
0.175879	1.662538
0.175977	1.661945
0.176074	1.661274
0.176172	1.660796
0.176270	1.660274
0.176367	1.659771
0.176465	1.659429
0.176562	1.659138
0.176660	1.658969
0.176758	1.658665
0.176855	1.658509
0.176953	1.658441
0.177051	1.658464
0.177148	1.658368
0.177246	1.658365
0.177344	1.658442
0.177441	1.658450
0.177539	1.658541
0.177637	1.658730
0.177734	1.658815
0.177832	1.659018
0.177930	1.659262
0.178027	1.659411
0.178125	1.659693
0.178223	1.659954
0.178320	1.660230
0.178418	1.660582
0.178516	1.660908
0.178613	1.661299
0.178711	1.661628
0.178809	1.662032
0.178906	1.662456
0.179004	1.662754
0.179102	1.663201
0.179199	1.663679
0.179297	1.663926
0.179395	1.664367
0.179492	1.664634
0.179590	1.664961
0.179687	1.665472
0.179785	1.665727
0.179883	1.666141
0.179980	1.666464
0.180078	1.666691
0.180176	1.667034
0.180273	1.667243
0.180371	1.667503
0.180469	1.667753
0.180566	1.667971
0.180664	1.668227
0.180762	1.668334
0.180859	1.668515
0.180957	1.668667
0.181055	1.668793
0.181152	1.668975
0.181250	1.669032
0.181348	1.669183
0.181445	1.669239
0.181543	1.669390
0.181641	1.669470
0.181738	1.669491
0.181836	1.669614
0.181934	1.669722
0.182031	1.669684
0.182129	1.669772
0.182227	1.669884
0.182324	1.670041
0.182422	1.670158
0.182520	1.670307
0.182617	1.670488
0.182715	1.670566
0.182812	1.670759
0.182910	1.670958
0.183008	1.671177
0.183105	1.671424
0.183203	1.671572
0.183301	1.671851
0.183398	1.672129
0.183496	1.672377
0.183594	1.672592
0.183691	1.672913
0.183789	1.673111
0.183887	1.673454
0.183984	1.673811
0.184082	1.674139
0.184180	1.674484
0.184277	1.674837
0.184375	1.675182
0.184473	1.675600
0.184570	1.676068
0.184668	1.676394
0.184766	1.676884
0.184863	1.677250
0.184961	1.677791
0.185059	1.678166
0.185156	1.678615
0.185254	1.679018
0.185352	1.679450
0.185449	1.679911
0.185547	1.680350
0.185645	1.680719
0.185742	1.681205
0.185840	1.681660
0.185937	1.682036
0.186035	1.682413
0.186133	1.682874
0.186230	1.683165
0.186328	1.683476
0.186426	1.683631
0.186523	1.683828
0.186621	1.683642
0.186719	1.683271
0.186816	1.682689
0.186914	1.682028
0.187012	1.681535
0.187109	1.680960
0.187207	1.680469
0.187305	1.679945
0.187402	1.679381
0.187500	1.678844
0.187598	1.678201
0.187695	1.677511
0.187793	1.676917
0.187891	1.676232
0.187988	1.675501
0.188086	1.674854
0.188184	1.674185
0.188281	1.673576
0.188379	1.672946
0.188477	1.672314
0.188574	1.671757
0.188672	1.671196
0.188770	1.670725
0.188867	1.670262
0.188965	1.669773
0.189062	1.669300
0.189160	1.668863
0.189258	1.668500
0.189355	1.668048
0.189453	1.667679
0.189551	1.667308
0.189648	1.667069
0.189746	1.666795
0.189844	1.666545
0.189941	1.666373
0.190039	1.666134
0.190137	1.665833
0.190234	1.665670
0.190332	1.665537
0.190430	1.665300
0.190527	1.665259
0.190625	1.665110
0.190723	1.665042
0.190820	1.664977
0.190918	1.664956
0.191016	1.664937
0.191113	1.664970
0.191211	1.664914
0.191309	1.665000
0.191406	1.665061
0.191504	1.665099
0.191602	1.665285
0.191699	1.665396
0.191797	1.665560
0.191895	1.665755
0.191992	1.665905
0.192090	1.666077
0.192187	1.666101
0.192285	1.666430
0.192383	1.666688
0.192480	1.666937
0.192578	1.667228
0.192676	1.667332
0.192773	1.667660
0.192871	1.667915
0.192969	1.668178
0.193066	1.668479
0.193164	1.668813
0.193262	1.669122
0.193359	1.669541
0.193457	1.669862
0.193555	1.670274
0.193652	1.670751
0.193750	1.671255
0.193848	1.671737
0.193945	1.672144
0.194043	1.672738
0.194141	1.673263
0.194238	1.673759
0.194336	1.674256
0.194434	1.674708
0.194531	1.675228
0.194629	1.675631
0.194727	1.676197
0.194824	1.676670
0.194922	1.676932
0.195020	1.677522
0.195117	1.677773
0.195215	1.678213
0.195312	1.678662
0.195410	1.678995
0.195508	1.679430
0.195605	1.679772
0.195703	1.680173
0.195801	1.680506
0.195898	1.681028
0.195996	1.681390
0.196094	1.681842
0.196191	1.682155
0.196289	1.682491
0.196387	1.682819
0.196484	1.683110
0.196582	1.683288
0.196680	1.683407
0.196777	1.683531
0.196875	1.683510
0.196973	1.683462
0.197070	1.683321
0.197168	1.683085
0.197266	1.682838
0.197363	1.682519
0.197461	1.682355
0.197559	1.681948
0.197656	1.681621
0.197754	1.681310
0.197852	1.680973
0.197949	1.680680
0.198047	1.680465
0.198145	1.680210
0.198242	1.679990
0.198340	1.679864
0.198437	1.679808
0.198535	1.679609
0.198633	1.679537
0.198730	1.679446
0.198828	1.679508
0.198926	1.679440
0.199023	1.679550
0.199121	1.679525
0.199219	1.679724
0.199316	1.679690
0.199414	1.679738
0.199512	1.679822
0.199609	1.679961
0.199707	1.680141
0.199805	1.680340
0.199902	1.680572
0.200000	1.680758
0.200098	1.680994
0.200195	1.681150
0.200293	1.681456
0.200391	1.681637
0.200488	1.681962
0.200586	1.682217
0.200684	1.682573
0.200781	1.682770
0.200879	1.682912
0.200977	1.683047
0.201074	1.683081
0.201172	1.682996
0.201270	1.682947
0.201367	1.682743
0.201465	1.682611
0.201562	1.682479
0.201660	1.682188
0.201758	1.682080
0.201855	1.681763
0.201953	1.681537
0.202051	1.681305
0.202148	1.680957
0.202246	1.680784
0.202344	1.680558
0.202441	1.680223
0.202539	1.680003
0.202637	1.679679
0.202734	1.679403
0.202832	1.679083
0.202930	1.678779
0.203027	1.678373
0.203125	1.678148
0.203223	1.677709
0.203320	1.677382
0.203418	1.677072
0.203516	1.676668
0.203613	1.676275
0.203711	1.675825
0.203809	1.675465
0.203906	1.674993
0.204004	1.674503
0.204102	1.673969
0.204199	1.673465
0.204297	1.672986
0.204395	1.672571
0.204492	1.672111
0.204590	1.671636
0.204687	1.671168
0.204785	1.670648
0.204883	1.670115
0.204980	1.669753
0.205078	1.669352
0.205176	1.668909
0.205273	1.668630
0.205371	1.668177
0.205469	1.667947
0.205566	1.667635
0.205664	1.667390
0.205762	1.667173
0.205859	1.666964
0.205957	1.666940
0.206055	1.666802
0.206152	1.666742
0.206250	1.666749
0.206348	1.666735
0.206445	1.666974
0.206543	1.666904
0.206641	1.667085
0.206738	1.667274
0.206836	1.667491
0.206934	1.667737
0.207031	1.668023
0.207129	1.668229
0.207227	1.668753
0.207324	1.669219
0.207422	1.669533
0.207520	1.670021
0.207617	1.670500
0.207715	1.671048
0.207812	1.671517
0.207910	1.672083
0.208008	1.672731
0.208105	1.673287
0.208203	1.673892
0.208301	1.674574
0.208398	1.675085
0.208496	1.675722
0.208594	1.676369
0.208691	1.676954
0.208789	1.677597
0.208887	1.678200
0.208984	1.678757
0.209082	1.679399
0.209180	1.679992
0.209277	1.680511
0.209375	1.681014
0.209473	1.681586
0.209570	1.682094
0.209668	1.682517
0.209766	1.682997
0.209863	1.683449
0.209961	1.683763
0.210059	1.684113
0.210156	1.684488
0.210254	1.684817
0.210352	1.685190
0.210449	1.685634
0.210547	1.686098
0.210645	1.686627
0.210742	1.687190
0.210840	1.687729
0.210937	1.688176
0.211035	1.688503
0.211133	1.688567
0.211230	1.688398
0.211328	1.688070
0.211426	1.687586
0.211523	1.687196
0.211621	1.686806
0.211719	1.686419
0.211816	1.685952
0.211914	1.685468
0.212012	1.685129
0.212109	1.684686
0.212207	1.684259
0.212305	1.684078
0.212402	1.683764
0.212500	1.683385
0.212598	1.683002
0.212695	1.682579
0.212793	1.682163
0.212891	1.681712
0.212988	1.681265
0.213086	1.680823
0.213184	1.680403
0.213281	1.679910
0.213379	1.679401
0.213477	1.678803
0.213574	1.678169
0.213672	1.677561
0.213770	1.677037
0.213867	1.676557
0.213965	1.676177
0.214062	1.675741
0.214160	1.675542
0.214258	1.675407
0.214355	1.675319
0.214453	1.675140
0.214551	1.675138
0.214648	1.675096
0.214746	1.675059
0.214844	1.675039
0.214941	1.675001
0.215039	1.674996
0.215137	1.675019
0.215234	1.674991
0.215332	1.674895
0.215430	1.674736
0.215527	1.674644
0.215625	1.674520
0.215723	1.674377
0.215820	1.674113
0.215918	1.673941
0.216016	1.673764
0.216113	1.673460
0.216211	1.673375
0.216309	1.673050
0.216406	1.672962
0.216504	1.672904
0.216602	1.672758
0.216699	1.672708
0.216797	1.672731
0.216895	1.672657
0.216992	1.672746
0.217090	1.672727
0.217187	1.672688
0.217285	1.672603
0.217383	1.672347
0.217480	1.672208
0.217578	1.671819
0.217676	1.671510
0.217773	1.671084
0.217871	1.670625
0.217969	1.670238
0.218066	1.669867
0.218164	1.669371
0.218262	1.669131
0.218359	1.668809
0.218457	1.668587
0.218555	1.668361
0.218652	1.668048
0.218750	1.667893
0.218848	1.667619
0.218945	1.667386
0.219043	1.667108
0.219141	1.666886
0.219238	1.666630
0.219336	1.666360
0.219434	1.666118
0.219531	1.665832
0.219629	1.665633
0.219727	1.665427
0.219824	1.665376
0.219922	1.665177
0.220020	1.664998
0.220117	1.664821
0.220215	1.664678
0.220312	1.664659
0.220410	1.664535
0.220508	1.664550
0.220605	1.664543
0.220703	1.664662
0.220801	1.664616
0.220898	1.664657
0.220996	1.664850
0.221094	1.664949
0.221191	1.665079
0.221289	1.665244
0.221387	1.665407
0.221484	1.665705
0.221582	1.665945
0.221680	1.666243
0.221777	1.666568
0.221875	1.666892
0.221973	1.667204
0.222070	1.667563
0.222168	1.667774
0.222266	1.668295
0.222363	1.668688
0.222461	1.669075
0.222559	1.669467
0.222656	1.669778
0.222754	1.670055
0.222852	1.670398
0.222949	1.670689
0.223047	1.670911
0.223145	1.671077
0.223242	1.671292
0.223340	1.671453
0.223437	1.671585
0.223535	1.671653
0.223633	1.671792
0.223730	1.671915
0.223828	1.671959
0.223926	1.672096
0.224023	1.672172
0.224121	1.672331
0.224219	1.672482
0.224316	1.672580
0.224414	1.672824
0.224512	1.672980
0.224609	1.673155
0.224707	1.673381
0.224805	1.673573
0.224902	1.673793
0.225000	1.674004
0.225098	1.674372
0.225195	1.674513
0.225293	1.674856
0.225391	1.675084
0.225488	1.675304
0.225586	1.675644
0.225684	1.675821
0.225781	1.676042
0.225879	1.676194
0.225977	1.676345
0.226074	1.676405
0.226172	1.676497
0.226270	1.676514
0.226367	1.676551
0.226465	1.676489
0.226562	1.676466
0.226660	1.676452
0.226758	1.676495
0.226855	1.676566
0.226953	1.676497
0.227051	1.676643
0.227148	1.676724
0.227246	1.676690
0.227344	1.676931
0.227441	1.677032
0.227539	1.677196
0.227637	1.677543
0.227734	1.677662
0.227832	1.677993
0.227930	1.678275
0.228027	1.678529
0.228125	1.678889
0.228223	1.679064
0.228320	1.679329
0.228418	1.679567
0.228516	1.679733
0.228613	1.679971
0.228711	1.680145
0.228809	1.680367
0.228906	1.680467
0.229004	1.680661
0.229102	1.680818
0.229199	1.681006
0.229297	1.681078
0.229395	1.681136
0.229492	1.681146
0.229590	1.681252
0.229687	1.681403
0.229785	1.681330
0.229883	1.681311
0.229980	1.681293
0.230078	1.681201
0.230176	1.681174
0.230273	1.681021
0.230371	1.680928
0.230469	1.680754
0.230566	1.680588
0.230664	1.680437
0.230762	1.680090
0.230859	1.679837
0.230957	1.679485
0.231055	1.679120
0.231152	1.678695
0.231250	1.678223
0.231348	1.677736
0.231445	1.677272
0.231543	1.676751
0.231641	1.676142
0.231738	1.675700
0.231836	1.675004
0.231934	1.674566
0.232031	1.673961
0.232129	1.673454
0.232227	1.672966
0.232324	1.672728
0.232422	1.672386
0.232520	1.672020
0.232617	1.671769
0.232715	1.671550
0.232812	1.671303
0.232910	1.671203
0.233008	1.671065
0.233105	1.670963
0.233203	1.670872
0.233301	1.670814
0.233398	1.670814
0.233496	1.670750
0.233594	1.670835
0.233691	1.670819
0.233789	1.670890
0.233887	1.670958
0.233984	1.671124
0.234082	1.671174
0.234180	1.671247
0.234277	1.671434
0.234375	1.671597
0.234473	1.671826
0.234570	1.671989
0.234668	1.672197
0.234766	1.672466
0.234863	1.672709
0.234961	1.672965
0.235059	1.673206
0.235156	1.673494
0.235254	1.673778
0.235352	1.674091
0.235449	1.674414
0.235547	1.674578
0.235645	1.674946
0.235742	1.675171
0.235840	1.675416
0.235937	1.675548
0.236035	1.675806
0.236133	1.675934
0.236230	1.676082
0.236328	1.676297
0.236426	1.676305
0.236523	1.676469
0.236621	1.676391
0.236719	1.676457
0.236816	1.676413
0.236914	1.676375
0.237012	1.676272
0.237109	1.676190
0.237207	1.676124
0.237305	1.676074
0.237402	1.675953
0.237500	1.675857
0.237598	1.675732
0.237695	1.675649
0.237793	1.675522
0.237891	1.675389
0.237988	1.675282
0.238086	1.675209
0.238184	1.675040
0.238281	1.675004
0.238379	1.674858
0.238477	1.674748
0.238574	1.674680
0.238672	1.674554
0.238770	1.674460
0.238867	1.674415
0.238965	1.674377
0.239062	1.674274
0.239160	1.674215
0.239258	1.674161
0.239355	1.674128
0.239453	1.674050
0.239551	1.674107
0.239648	1.674103
0.239746	1.674269
0.239844	1.674269
0.239941	1.674380
0.240039	1.674415
0.240137	1.674470
0.240234	1.674524
0.240332	1.674597
0.240430	1.674618
0.240527	1.674809
0.240625	1.674837
0.240723	1.674953
0.240820	1.675107
0.240918	1.675128
0.241016	1.675270
0.241113	1.675415
0.241211	1.675509
0.241309	1.675732
0.241406	1.675824
0.241504	1.675990
0.241602	1.676021
0.241699	1.676207
0.241797	1.676394
0.241895	1.676503
0.241992	1.676594
0.242090	1.676660
0.242187	1.676828
0.242285	1.677129
0.242383	1.677277
0.242480	1.677337
0.242578	1.677486
0.242676	1.677592
0.242773	1.677654
0.242871	1.677741
0.242969	1.677910
0.243066	1.677842
0.243164	1.677917
0.243262	1.677957
0.243359	1.677955
0.243457	1.677980
0.243555	1.677925
0.243652	1.677934
0.243750	1.677829
0.243848	1.677866
0.243945	1.677877
0.244043	1.677840
0.244141	1.677862
0.244238	1.677817
0.244336	1.677860
0.244434	1.677900
0.244531	1.677888
0.244629	1.678022
0.244727	1.678131
0.244824	1.678168
0.244922	1.678392
0.245020	1.678454
0.245117	1.678597
0.245215	1.678759
0.245312	1.678894
0.245410	1.679058
0.245508	1.679290
0.245605	1.679426
0.245703	1.679528
0.245801	1.679640
0.245898	1.679867
0.245996	1.679949
0.246094	1.680107
0.246191	1.680157
0.246289	1.680402
0.246387	1.680447
0.246484	1.680666
0.246582	1.680678
0.246680	1.680797
0.246777	1.680885
0.246875	1.680946
0.246973	1.681092
0.247070	1.681127
0.247168	1.681194
0.247266	1.681199
0.247363	1.681205
0.247461	1.681181
0.247559	1.681197
0.247656	1.681090
0.247754	1.681016
0.247852	1.680896
0.247949	1.680791
0.248047	1.680543
0.248145	1.680419
0.248242	1.680215
0.248340	1.680018
0.248437	1.679781
0.248535	1.679579
0.248633	1.679287
0.248730	1.679145
0.248828	1.678986
0.248926	1.678863
0.249023	1.678773
0.249121	1.678542
0.249219	1.678521
0.249316	1.678399
0.249414	1.678325
0.249512	1.678324
0.249609	1.678324
0.249707	1.678456
0.249805	1.678506
0.249902	1.678557
0.250000	1.678642
0.250098	1.678699
0.250195	1.678613
0.250293	1.678621
0.250391	1.678636
0.250488	1.678661
0.250586	1.678508
0.250684	1.678519
0.250781	1.678365
0.250879	1.678297
0.250977	1.678257
0.251074	1.678151
0.251172	1.677942
0.251270	1.677942
0.251367	1.677836
0.251465	1.677700
0.251562	1.677695
0.251660	1.677454
0.251758	1.677292
0.251855	1.677207
0.251953	1.677039
0.252051	1.676922
0.252148	1.676690
0.252246	1.676549
0.252344	1.676589
0.252441	1.676463
0.252539	1.676386
0.252637	1.676348
0.252734	1.676322
0.252832	1.676234
0.252930	1.676256
0.253027	1.676386
0.253125	1.676455
0.253223	1.676561
0.253320	1.676755
0.253418	1.676935
0.253516	1.677205
0.253613	1.677492
0.253711	1.677619
0.253809	1.678044
0.253906	1.678322
0.254004	1.678708
0.254102	1.679037
0.254199	1.679333
0.254297	1.679767
0.254395	1.680057
0.254492	1.680511
0.254590	1.680849
0.254687	1.681186
0.254785	1.681558
0.254883	1.681870
0.254980	1.682042
0.255078	1.682186
0.255176	1.682318
0.255273	1.682380
0.255371	1.682560
0.255469	1.682556
0.255566	1.682574
0.255664	1.682582
0.255762	1.682638
0.255859	1.682786
0.255957	1.682649
0.256055	1.682827
0.256152	1.682909
0.256250	1.682932
0.256348	1.682925
0.256445	1.682992
0.256543	1.683043
0.256641	1.683097
0.256738	1.683197
0.256836	1.683373
0.256934	1.683421
0.257031	1.683586
0.257129	1.683699
0.257227	1.683934
0.257324	1.684140
0.257422	1.684213
0.257520	1.684373
0.257617	1.684486
0.257715	1.684700
0.257812	1.684828
0.257910	1.684922
0.258008	1.685052
0.258105	1.685294
0.258203	1.685293
0.258301	1.685418
0.258398	1.685488
0.258496	1.685490
0.258594	1.685369
0.258691	1.685272
0.258789	1.685151
0.258887	1.684955
0.258984	1.684777
0.259082	1.684471
0.259180	1.684182
0.259277	1.683808
0.259375	1.683338
0.259473	1.682973
0.259570	1.682599
0.259668	1.682221
0.259766	1.681937
0.259863	1.681552
0.259961	1.681239
0.260059	1.680871
0.260156	1.680463
0.260254	1.680076
0.260352	1.679750
0.260449	1.679398
0.260547	1.679130
0.260645	1.678763
0.260742	1.678450
0.260840	1.678201
0.260937	1.677947
0.261035	1.677712
0.261133	1.677450
0.261230	1.677308
0.261328	1.677234
0.261426	1.677008
0.261523	1.676921
0.261621	1.676669
0.261719	1.676510
0.261816	1.676355
0.261914	1.676337
0.262012	1.676193
0.262109	1.675985
0.262207	1.675932
0.262305	1.675939
0.262402	1.675841
0.262500	1.675762
0.262598	1.675653
0.262695	1.675540
0.262793	1.675528
0.262891	1.675427
0.262988	1.675374
0.263086	1.675334
0.263184	1.675286
0.263281	1.675107
0.263379	1.675045
0.263477	1.674958
0.263574	1.674742
0.263672	1.674640
0.263770	1.674585
0.263867	1.674410
0.263965	1.674409
0.264062	1.674307
0.264160	1.674193
0.264258	1.674189
0.264355	1.674156
0.264453	1.674127
0.264551	1.674138
0.264648	1.674244
0.264746	1.674401
0.264844	1.674624
0.264941	1.674823
0.265039	1.674994
0.265137	1.675411
0.265234	1.675681
0.265332	1.676138
0.265430	1.676587
0.265527	1.677120
0.265625	1.677604
0.265723	1.678175
0.265820	1.678649
0.265918	1.679099
0.266016	1.679580
0.266113	1.680214
0.266211	1.680685
0.266309	1.681208
0.266406	1.681589
0.266504	1.682017
0.266602	1.682310
0.266699	1.682629
0.266797	1.682773
0.266895	1.683014
0.266992	1.683125
0.267090	1.683114
0.267187	1.683103
0.267285	1.682963
0.267383	1.682821
0.267480	1.682573
0.267578	1.682194
0.267676	1.681818
0.267773	1.681209
0.267871	1.680488
0.267969	1.679764
0.268066	1.678911
0.268164	1.678208
0.268262	1.677581
0.268359	1.677025
0.268457	1.676535
0.268555	1.676167
0.268652	1.675883
0.268750	1.675669
0.268848	1.675508
0.268945	1.675324
0.269043	1.675319
0.269141	1.675317
0.269238	1.675326
0.269336	1.675437
0.269434	1.675476
0.269531	1.675647
0.269629	1.675892
0.269727	1.676079
0.269824	1.676397
0.269922	1.676790
0.270020	1.677108
0.270117	1.677332
0.270215	1.677651
0.270312	1.678016
0.270410	1.678302
0.270508	1.678631
0.270605	1.678917
0.270703	1.679180
0.270801	1.679405
0.270898	1.679574
0.270996	1.679675
0.271094	1.679791
0.271191	1.679873
0.271289	1.679903
0.271387	1.679864
0.271484	1.679908
0.271582	1.679871
0.271680	1.679847
0.271777	1.679806
0.271875	1.679799
0.271973	1.679755
0.272070	1.679756
0.272168	1.679697
0.272266	1.679814
0.272363	1.679930
0.272461	1.679975
0.272559	1.680040
0.272656	1.680085
0.272754	1.680073
0.272852	1.680103
0.272949	1.680041
0.273047	1.680063
0.273145	1.680043
0.273242	1.679940
0.273340	1.679788
0.273437	1.679521
0.273535	1.679303
0.273633	1.679094
0.273730	1.678755
0.273828	1.678432
0.273926	1.678107
0.274023	1.677748
0.274121	1.677416
0.274219	1.677084
0.274316	1.676787
0.274414	1.676513
0.274512	1.676127
0.274609	1.675771
0.274707	1.675517
0.274805	1.675234
0.274902	1.674811
0.275000	1.674518
0.275098	1.674238
0.275195	1.673932
0.275293	1.673640
0.275391	1.673430
0.275488	1.673200
0.275586	1.673022
0.275684	1.672808
0.275781	1.672642
0.275879	1.672596
0.275977	1.672392
0.276074	1.672460
0.276172	1.672483
0.276270	1.672566
0.276367	1.672599
0.276465	1.672756
0.276562	1.672760
0.276660	1.672961
0.276758	1.673115
0.276855	1.673346
0.276953	1.673518
0.277051	1.673736
0.277148	1.673907
0.277246	1.674185
0.277344	1.674355
0.277441	1.674499
0.277539	1.674722
0.277637	1.674946
0.277734	1.675141
0.277832	1.675226
0.277930	1.675467
0.278027	1.675650
0.278125	1.675786
0.278223	1.675912
0.278320	1.676036
0.278418	1.676112
0.278516	1.676189
0.278613	1.676198
0.278711	1.676200
0.278809	1.676208
0.278906	1.676160
0.279004	1.676139
0.279102	1.676101
0.279199	1.676010
0.279297	1.675893
0.279395	1.675791
0.279492	1.675585
0.279590	1.675390
0.279687	1.675135
0.279785	1.674932
0.279883	1.674716
0.279980	1.674479
0.280078	1.674252
0.280176	1.673969
0.280273	1.673884
0.280371	1.673695
0.280469	1.673695
0.280566	1.673741
0.280664	1.673878
0.280762	1.673958
0.280859	1.674183
0.280957	1.674440
0.281055	1.674676
0.281152	1.675104
0.281250	1.675382
0.281348	1.675815
0.281445	1.676267
0.281543	1.676662
0.281641	1.677231
0.281738	1.677665
0.281836	1.678266
0.281934	1.678774
0.282031	1.679348
0.282129	1.679874
0.282227	1.680548
0.282324	1.681267
0.282422	1.681963
0.282520	1.682570
0.282617	1.683242
0.282715	1.683993
0.282812	1.684641
0.282910	1.685351
0.283008	1.685884
0.283105	1.686291
0.283203	1.686706
0.283301	1.687005
0.283398	1.687234
0.283496	1.687478
0.283594	1.687751
0.283691	1.688074
0.283789	1.688353
0.283887	1.688601
0.283984	1.688883
0.284082	1.689106
0.284180	1.689517
0.284277	1.689901
0.284375	1.690235
0.284473	1.690476
0.284570	1.690511
0.284668	1.690167
0.284766	1.689774
0.284863	1.689367
0.284961	1.688774
0.285059	1.688203
0.285156	1.687454
0.285254	1.686766
0.285352	1.686134
0.285449	1.685527
0.285547	1.684929
0.285645	1.684339
0.285742	1.683791
0.285840	1.683136
0.285937	1.682382
0.286035	1.681740
0.286133	1.680868
0.286230	1.679958
0.286328	1.679064
0.286426	1.678126
0.286523	1.677316
0.286621	1.676445
0.286719	1.675825
0.286816	1.675152
0.286914	1.674597
0.287012	1.674127
0.287109	1.673742
0.287207	1.673494
0.287305	1.673105
0.287402	1.672948
0.287500	1.672596
0.287598	1.672383
0.287695	1.671997
0.287793	1.671659
0.287891	1.671192
0.287988	1.670704
0.288086	1.670205
0.288184	1.669673
0.288281	1.669063
0.288379	1.668474
0.288477	1.667848
0.288574	1.667316
0.288672	1.666778
0.288770	1.666251
0.288867	1.665741
0.288965	1.665238
0.289062	1.664762
0.289160	1.664292
0.289258	1.663871
0.289355	1.663433
0.289453	1.663049
0.289551	1.662624
0.289648	1.662334
0.289746	1.662096
0.289844	1.661838
0.289941	1.661623
0.290039	1.661409
0.290137	1.661176
0.290234	1.660977
0.290332	1.660843
0.290430	1.660696
0.290527	1.660526
0.290625	1.660513
0.290723	1.660477
0.290820	1.660423
0.290918	1.660387
0.291016	1.660417
0.291113	1.660499
0.291211	1.660588
0.291309	1.660645
0.291406	1.660820
0.291504	1.660986
0.291602	1.661252
0.291699	1.661388
0.291797	1.661707
0.291895	1.662015
0.291992	1.662292
0.292090	1.662600
0.292187	1.662863
0.292285	1.663306
0.292383	1.663715
0.292480	1.664157
0.292578	1.664512
0.292676	1.664967
0.292773	1.665393
0.292871	1.665751
0.292969	1.666115
0.293066	1.666586
0.293164	1.666989
0.293262	1.667368
0.293359	1.667775
0.293457	1.668108
0.293555	1.668570
0.293652	1.668901
0.293750	1.669237
0.293848	1.669628
0.293945	1.669900
0.294043	1.670207
0.294141	1.670492
0.294238	1.670780
0.294336	1.670994
0.294434	1.671322
0.294531	1.671417
0.294629	1.671694
0.294727	1.671879
0.294824	1.672137
0.294922	1.672331
0.295020	1.672487
0.295117	1.672700
0.295215	1.672911
0.295312	1.673087
0.295410	1.673289
0.295508	1.673453
0.295605	1.673561
0.295703	1.673746
0.295801	1.673942
0.295898	1.674102
0.295996	1.674185
0.296094	1.674251
0.296191	1.674425
0.296289	1.674539
0.296387	1.674683
0.296484	1.674853
0.296582	1.675019
0.296680	1.675152
0.296777	1.675271
0.296875	1.675501
0.296973	1.675609
0.297070	1.675852
0.297168	1.676098
0.297266	1.676247
0.297363	1.676413
0.297461	1.676601
0.297559	1.676842
0.297656	1.676953
0.297754	1.677105
0.297852	1.677201
0.297949	1.677374
0.298047	1.677505
0.298145	1.677703
0.298242	1.677802
0.298340	1.677972
0.298437	1.678157
0.298535	1.678266
0.298633	1.678488
0.298730	1.678634
0.298828	1.678856
0.298926	1.679065
0.299023	1.679324
0.299121	1.679481
0.299219	1.679823
0.299316	1.679911
0.299414	1.680226
0.299512	1.680409
0.299609	1.680646
0.299707	1.680985
0.299805	1.681256
0.299902	1.681561
0.300000	1.681867
0.300098	1.682030
0.300195	1.682211
0.300293	1.682341
0.300391	1.682473
0.300488	1.682599
0.300586	1.682539
0.300684	1.682460
0.300781	1.682385
0.300879	1.682226
0.300977	1.681992
0.301074	1.681810
0.301172	1.681523
0.301270	1.681375
0.301367	1.681076
0.301465	1.680932
0.301562	1.680708
0.301660	1.680615
0.301758	1.680543
0.301855	1.680555
0.301953	1.680565
0.302051	1.680580
0.302148	1.680677
0.302246	1.680960
0.302344	1.681224
0.302441	1.681396
0.302539	1.681709
0.302637	1.681871
0.302734	1.682217
0.302832	1.682438
0.302930	1.682806
0.303027	1.683122
0.303125	1.683503
0.303223	1.684037
0.303320	1.684617
0.303418	1.685140
0.303516	1.685798
0.303613	1.686325
0.303711	1.686840
0.303809	1.687416
0.303906	1.687864
0.304004	1.688140
0.304102	1.688327
0.304199	1.688241
0.304297	1.687991
0.304395	1.687619
0.304492	1.687255
0.304590	1.686904
0.304687	1.686427
0.304785	1.685933
0.304883	1.685436
0.304980	1.685057
0.305078	1.684650
0.305176	1.684077
0.305273	1.683503
0.305371	1.682707
0.305469	1.681917
0.305566	1.681050
0.305664	1.680337
0.305762	1.679481
0.305859	1.678754
0.305957	1.678084
0.306055	1.677496
0.306152	1.676949
0.306250	1.676339
0.306348	1.675703
0.306445	1.674902
0.306543	1.674200
0.306641	1.673280
0.306738	1.672456
0.306836	1.671450
0.306934	1.670599
0.307031	1.669696
0.307129	1.668972
0.307227	1.668352
0.307324	1.667733
0.307422	1.667185
0.307520	1.666577
0.307617	1.666155
0.307715	1.665752
0.307812	1.665404
0.307910	1.664966
0.308008	1.664673
0.308105	1.664401
0.308203	1.664163
0.308301	1.663883
0.308398	1.663662
0.308496	1.663496
0.308594	1.663372
0.308691	1.663123
0.308789	1.662989
0.308887	1.662951
0.308984	1.662814
0.309082	1.662775
0.309180	1.662841
0.309277	1.662781
0.309375	1.662774
0.309473	1.662895
0.309570	1.662951
0.309668	1.663111
0.309766	1.663345
0.309863	1.663696
0.309961	1.663863
0.310059	1.664202
0.310156	1.664475
0.310254	1.664878
0.310352	1.665232
0.310449	1.665766
0.310547	1.666223
0.310645	1.666740
0.310742	1.667352
0.310840	1.667892
0.310937	1.668450
0.311035	1.669040
0.311133	1.669717
0.311230	1.670236
0.311328	1.670893
0.311426	1.671490
0.311523	1.672091
0.311621	1.672623
0.311719	1.673081
0.311816	1.673654
0.311914	1.674161
0.312012	1.674554
0.312109	1.674923
0.312207	1.675309
0.312305	1.675711
0.312402	1.676010
0.312500	1.676304
0.312598	1.676445
0.312695	1.676548
0.312793	1.676605
0.312891	1.676582
0.312988	1.676500
0.313086	1.676363
0.313184	1.676193
0.313281	1.676014
0.313379	1.675849
0.313477	1.675506
0.313574	1.675248
0.313672	1.674982
0.313770	1.674665
0.313867	1.674329
0.313965	1.674041
0.314062	1.673758
0.314160	1.673466
0.314258	1.673199
0.314355	1.672918
0.314453	1.672727
0.314551	1.672589
0.314648	1.672389
0.314746	1.672242
0.314844	1.672109
0.314941	1.671981
0.315039	1.671894
0.315137	1.671860
0.315234	1.671730
0.315332	1.671737
0.315430	1.671675
0.315527	1.671664
0.315625	1.671749
0.315723	1.671785
0.315820	1.671941
0.315918	1.672027
0.316016	1.672219
0.316113	1.672383
0.316211	1.672604
0.316309	1.672769
0.316406	1.673096
0.316504	1.673309
0.316602	1.673570
0.316699	1.673834
0.316797	1.674058
0.316895	1.674351
0.316992	1.674562
0.317090	1.674894
0.317187	1.675069
0.317285	1.675484
0.317383	1.676011
0.317480	1.676416
0.317578	1.677119
0.317676	1.677748
0.317773	1.678474
0.317871	1.679162
0.317969	1.679536
0.318066	1.679606
0.318164	1.679415
0.318262	1.678933
0.318359	1.678528
0.318457	1.678092
0.318555	1.677697
0.318652	1.677340
0.318750	1.676937
0.318848	1.676408
0.318945	1.675985
0.319043	1.675620
0.319141	1.675301
0.319238	1.675153
0.319336	1.675024
0.319434	1.674976
0.319531	1.674904
0.319629	1.674975
0.319727	1.674887
0.319824	1.675030
0.319922	1.675043
0.320020	1.675074
0.320117	1.675098
0.320215	1.675199
0.320312	1.675265
0.320410	1.675425
0.320508	1.675519
0.320605	1.675748
0.320703	1.675807
0.320801	1.676012
0.320898	1.676143
0.320996	1.676317
0.321094	1.676422
0.321191	1.676515
0.321289	1.676704
0.321387	1.676769
0.321484	1.676852
0.321582	1.676984
0.321680	1.677060
0.321777	1.677215
0.321875	1.677228
0.321973	1.677296
0.322070	1.677398
0.322168	1.677442
0.322266	1.677593
0.322363	1.677734
0.322461	1.677801
0.322559	1.677822
0.322656	1.677906
0.322754	1.677909
0.322852	1.677857
0.322949	1.677830
0.323047	1.677676
0.323145	1.677558
0.323242	1.677349
0.323340	1.677151
0.323437	1.676871
0.323535	1.676604
0.323633	1.676330
0.323730	1.675916
0.323828	1.675648
0.323926	1.675246
0.324023	1.674976
0.324121	1.674729
0.324219	1.674398
0.324316	1.674118
0.324414	1.674011
0.324512	1.673770
0.324609	1.673647
0.324707	1.673548
0.324805	1.673455
0.324902	1.673457
0.325000	1.673501
0.325098	1.673674
0.325195	1.673814
0.325293	1.673920
0.325391	1.674174
0.325488	1.674385
0.325586	1.674661
0.325684	1.675010
0.325781	1.675389
0.325879	1.675944
0.325977	1.676331
0.326074	1.676840
0.326172	1.677438
0.326270	1.677948
0.326367	1.678543
0.326465	1.679234
0.326562	1.679895
0.326660	1.680634
0.326758	1.681286
0.326855	1.682019
0.326953	1.682767
0.327051	1.683418
0.327148	1.684043
0.327246	1.684619
0.327344	1.685098
0.327441	1.685397
0.327539	1.685642
0.327637	1.685916
0.327734	1.685882
0.327832	1.686029
0.327930	1.685977
0.328027	1.685946
0.328125	1.685869
0.328223	1.685780
0.328320	1.685704
0.328418	1.685519
0.328516	1.685379
0.328613	1.685150
0.328711	1.684959
0.328809	1.684711
0.328906	1.684480
0.329004	1.684281
0.329102	1.684016
0.329199	1.683903
0.329297	1.683632
0.329395	1.683479
0.329492	1.683345
0.329590	1.683145
0.329687	1.683074
0.329785	1.682919
0.329883	1.682753
0.329980	1.682636
0.330078	1.682302
0.330176	1.682154
0.330273	1.681932
0.330371	1.681667
0.330469	1.681413
0.330566	1.680999
0.330664	1.680495
0.330762	1.679895
0.330859	1.679226
0.330957	1.678586
0.331055	1.677899
0.331152	1.677147
0.331250	1.676578
0.331348	1.675949
0.331445	1.675434
0.331543	1.674919
0.331641	1.674538
0.331738	1.674118
0.331836	1.673695
0.331934	1.673466
0.332031	1.673110
0.332129	1.672767
0.332227	1.672557
0.332324	1.672516
0.332422	1.672405
0.332520	1.672293
0.332617	1.672215
0.332715	1.672124
0.332812	1.672183
0.332910	1.672080
0.333008	1.672103
0.333105	1.672174
0.333203	1.672227
0.333301	1.672294
0.333398	1.672358
0.333496	1.672423
0.333594	1.672424
0.333691	1.672527
0.333789	1.672571
0.333887	1.672660
0.333984	1.672705
0.334082	1.672728
0.334180	1.672875
0.334277	1.672967
0.334375	1.673044
0.334473	1.673257
0.334570	1.673304
0.334668	1.673501
0.334766	1.673707
0.334863	1.673944
0.334961	1.674200
0.335059	1.674360
0.335156	1.674674
0.335254	1.674999
0.335352	1.675318
0.335449	1.675649
0.335547	1.676025
0.335645	1.676365
0.335742	1.676842
0.335840	1.677218
0.335937	1.677603
0.336035	1.678116
0.336133	1.678550
0.336230	1.679070
0.336328	1.679650
0.336426	1.680238
0.336523	1.680794
0.336621	1.681532
0.336719	1.682098
0.336816	1.682910
0.336914	1.683605
0.337012	1.684243
0.337109	1.684925
0.337207	1.685473
0.337305	1.685979
0.337402	1.686399
0.337500	1.686817
0.337598	1.687255
0.337695	1.687431
0.337793	1.687546
0.337891	1.687604
0.337988	1.687570
0.338086	1.687360
0.338184	1.687216
0.338281	1.686905
0.338379	1.686541
0.338477	1.686225
0.338574	1.685702
0.338672	1.685156
0.338770	1.684583
0.338867	1.684009
0.338965	1.683298
0.339062	1.682723
0.339160	1.682128
0.339258	1.681389
0.339355	1.680757
0.339453	1.680090
0.339551	1.679410
0.339648	1.678939
0.339746	1.678341
0.339844	1.677821
0.339941	1.677216
0.340039	1.676656
0.340137	1.676126
0.340234	1.675610
0.340332	1.675193
0.340430	1.674688
0.340527	1.674342
0.340625	1.673946
0.340723	1.673523
0.340820	1.673267
0.340918	1.672887
0.341016	1.672655
0.341113	1.672373
0.341211	1.672129
0.341309	1.671904
0.341406	1.671708
0.341504	1.671435
0.341602	1.671223
0.341699	1.671021
0.341797	1.670914
0.341895	1.670752
0.341992	1.670547
0.342090	1.670397
0.342187	1.670322
0.342285	1.670327
0.342383	1.670325
0.342480	1.670413
0.342578	1.670481
0.342676	1.670440
0.342773	1.670525
0.342871	1.670660
0.342969	1.670786
0.343066	1.670789
0.343164	1.671065
0.343262	1.671140
0.343359	1.671303
0.343457	1.671508
0.343555	1.671726
0.343652	1.671790
0.343750	1.672068
0.343848	1.672302
0.343945	1.672513
0.344043	1.672748
0.344141	1.672984
0.344238	1.673304
0.344336	1.673546
0.344434	1.673873
0.344531	1.674160
0.344629	1.674516
0.344727	1.674859
0.344824	1.675224
0.344922	1.675543
0.345020	1.675932
0.345117	1.676243
0.345215	1.676553
0.345312	1.676965
0.345410	1.677275
0.345508	1.677585
0.345605	1.677992
0.345703	1.678333
0.345801	1.678672
0.345898	1.679044
0.345996	1.679387
0.346094	1.679669
0.346191	1.679982
0.346289	1.680292
0.346387	1.680540
0.346484	1.680750
0.346582	1.680893
0.346680	1.681037
0.346777	1.681084
0.346875	1.681098
0.346973	1.680960
0.347070	1.680819
0.347168	1.680553
0.347266	1.680232
0.347363	1.679864
0.347461	1.679450
0.347559	1.679111
0.347656	1.678820
0.347754	1.678506
0.347852	1.678216
0.347949	1.677946
0.348047	1.677789
0.348145	1.677701
0.348242	1.677616
0.348340	1.677606
0.348437	1.677591
0.348535	1.677753
0.348633	1.677749
0.348730	1.677861
0.348828	1.677965
0.348926	1.678131
0.349023	1.678295
0.349121	1.678446
0.349219	1.678657
0.349316	1.678803
0.349414	1.679044
0.349512	1.679173
0.349609	1.679373
0.349707	1.679678
0.349805	1.679897
0.349902	1.680123
0.350000	1.680388
0.350098	1.680736
0.350195	1.680896
0.350293	1.681226
0.350391	1.681598
0.350488	1.681877
0.350586	1.682197
0.350684	1.682471
0.350781	1.682782
0.350879	1.683156
0.350977	1.683418
0.351074	1.683737
0.351172	1.683927
0.351270	1.684185
0.351367	1.684393
0.351465	1.684526
0.351562	1.684786
0.351660	1.684904
0.351758	1.684988
0.351855	1.685138
0.351953	1.685234
0.352051	1.685230
0.352148	1.685076
0.352246	1.685165
0.352344	1.685155
0.352441	1.685092
0.352539	1.684990
0.352637	1.684878
0.352734	1.684751
0.352832	1.684725
0.352930	1.684580
0.353027	1.684534
0.353125	1.684471
0.353223	1.684472
0.353320	1.684345
0.353418	1.684294
0.353516	1.684118
0.353613	1.683992
0.353711	1.683772
0.353809	1.683629
0.353906	1.683393
0.354004	1.683178
0.354102	1.682963
0.354199	1.682870
0.354297	1.682673
0.354395	1.682634
0.354492	1.682645
0.354590	1.682700
0.354687	1.682757
0.354785	1.682875
0.354883	1.682992
0.354980	1.683169
0.355078	1.683291
0.355176	1.683443
0.355273	1.683612
0.355371	1.683785
0.355469	1.683875
0.355566	1.684018
0.355664	1.684169
0.355762	1.684191
0.355859	1.684320
0.355957	1.684490
0.356055	1.684646
0.356152	1.684862
0.356250	1.685017
0.356348	1.685292
0.356445	1.685479
0.356543	1.685720
0.356641	1.685936
0.356738	1.686150
0.356836	1.686120
0.356934	1.686187
0.357031	1.686154
0.357129	1.685990
0.357227	1.685898
0.357324	1.685815
0.357422	1.685707
0.357520	1.685858
0.357617	1.685959
0.357715	1.686233
0.357812	1.686628
0.357910	1.686890
0.358008	1.687351
0.358105	1.687673
0.358203	1.687775
0.358301	1.687690
0.358398	1.687496
0.358496	1.687296
0.358594	1.686978
0.358691	1.686710
0.358789	1.686615
0.358887	1.686419
0.358984	1.686391
0.359082	1.686213
0.359180	1.686080
0.359277	1.685756
0.359375	1.685582
0.359473	1.685219
0.359570	1.684819
0.359668	1.684564
0.359766	1.684373
0.359863	1.684098
0.359961	1.683930
0.360059	1.683785
0.360156	1.683697
0.360254	1.683633
0.360352	1.683626
0.360449	1.683638
0.360547	1.683643
0.360645	1.683797
0.360742	1.683928
0.360840	1.684038
0.360937	1.684191
0.361035	1.684348
0.361133	1.684553
0.361230	1.684659
0.361328	1.684913
0.361426	1.685001
0.361523	1.685100
0.361621	1.685177
0.361719	1.685408
0.361816	1.685439
0.361914	1.685776
0.362012	1.685849
0.362109	1.686267
0.362207	1.686177
0.362305	1.686776
0.362402	1.686366
0.362500	1.686831
0.362598	1.686136
0.362695	1.686876
0.362793	1.686213
0.362891	1.687891
0.362988	1.687508
0.363086	1.691213
0.363184	1.693970
0.363281	1.721300
0.363379	1.731906
0.363477	1.719235
0.363574	1.702201
0.363672	1.683082
0.363770	1.681457
0.363867	1.686114
0.363965	1.699235
0.364062	1.696838
0.364160	1.696132
0.364258	1.684961
0.364355	1.683643
0.364453	1.681727
0.364551	1.681561
0.364648	1.680365
0.364746	1.681161
0.364844	1.682038
0.364941	1.683219
0.365039	1.683875
0.365137	1.684506
0.365234	1.684585
0.365332	1.684575
0.365430	1.684361
0.365527	1.684433
0.365625	1.684440
0.365723	1.684683
0.365820	1.684999
0.365918	1.685317
0.366016	1.685677
0.366113	1.686067
0.366211	1.686504
0.366309	1.686873
0.366406	1.687313
0.366504	1.687700
0.366602	1.688168
0.366699	1.688769
0.366797	1.689536
0.366895	1.690308
0.366992	1.690963
0.367090	1.691200
0.367187	1.690680
0.367285	1.689408
0.367383	1.687813
0.367480	1.686704
0.367578	1.686093
0.367676	1.686076
0.367773	1.686145
0.367871	1.686126
0.367969	1.686199
0.368066	1.686069
0.368164	1.685937
0.368262	1.685860
0.368359	1.685871
0.368457	1.686110
0.368555	1.686569
0.368652	1.687343
0.368750	1.688149
0.368848	1.689043
0.368945	1.689921
0.369043	1.690670
0.369141	1.691251
0.369238	1.691552
0.369336	1.691601
0.369434	1.691592
0.369531	1.691203
0.369629	1.690778
0.369727	1.690272
0.369824	1.689525
0.369922	1.688659
0.370020	1.687789
0.370117	1.686763
0.370215	1.685676
0.370312	1.684675
0.370410	1.683725
0.370508	1.682681
0.370605	1.681716
0.370703	1.680728
0.370801	1.679877
0.370898	1.679031
0.370996	1.678249
0.371094	1.677538
0.371191	1.676935
0.371289	1.676474
0.371387	1.675917
0.371484	1.675568
0.371582	1.675271
0.371680	1.675030
0.371777	1.674933
0.371875	1.674885
0.371973	1.674905
0.372070	1.675024
0.372168	1.675099
0.372266	1.675555
0.372363	1.675846
0.372461	1.676351
0.372559	1.676691
0.372656	1.677225
0.372754	1.677732
0.372852	1.678263
0.372949	1.678769
0.373047	1.679331
0.373145	1.679722
0.373242	1.680337
0.373340	1.680779
0.373437	1.681234
0.373535	1.681737
0.373633	1.682218
0.373730	1.682740
0.373828	1.683083
0.373926	1.683354
0.374023	1.683564
0.374121	1.683936
0.374219	1.684211
0.374316	1.684833
0.374414	1.685388
0.374512	1.686183
0.374609	1.687023
0.374707	1.688132
0.374805	1.689273
0.374902	1.690648
0.375000	1.692305
0.375098	1.694211
0.375195	1.694937
0.375293	1.693934
0.375391	1.691953
0.375488	1.690390
0.375586	1.690285
0.375684	1.691285
0.375781	1.692702
0.375879	1.693057
0.375977	1.693266
0.376074	1.694855
0.376172	1.700831
0.376270	1.699292
0.376367	1.682877
0.376465	1.678307
0.376562	1.679146
0.376660	1.681648
0.376758	1.681805
0.376855	1.688004
0.376953	1.685625
0.377051	1.676899
0.377148	1.679270
0.377246	1.678943
0.377344	1.679744
0.377441	1.679696
0.377539	1.680050
0.377637	1.679623
0.377734	1.679587
0.377832	1.679038
0.377930	1.679154
0.378027	1.679285
0.378125	1.679887
0.378223	1.680157
0.378320	1.680023
0.378418	1.678645
0.378516	1.676197
0.378613	1.673098
0.378711	1.670281
0.378809	1.668006
0.378906	1.666539
0.379004	1.665642
0.379102	1.665296
0.379199	1.665144
0.379297	1.665304
0.379395	1.665506
0.379492	1.665924
0.379590	1.666300
0.379687	1.666700
0.379785	1.667203
0.379883	1.667763
0.379980	1.668273
0.380078	1.668667
0.380176	1.669265
0.380273	1.669799
0.380371	1.670360
0.380469	1.670877
0.380566	1.671417
0.380664	1.671894
0.380762	1.672399
0.380859	1.672797
0.380957	1.673145
0.381055	1.673546
0.381152	1.673766
0.381250	1.674081
0.381348	1.674150
0.381445	1.674319
0.381543	1.674421
0.381641	1.674420
0.381738	1.674598
0.381836	1.674566
0.381934	1.674604
0.382031	1.674532
0.382129	1.674449
0.382227	1.674664
0.382324	1.674715
0.382422	1.674775
0.382520	1.674784
0.382617	1.674881
0.382715	1.674827
0.382812	1.674794
0.382910	1.674816
0.383008	1.674759
0.383105	1.674604
0.383203	1.674571
0.383301	1.674470
0.383398	1.674394
0.383496	1.674374
0.383594	1.674276
0.383691	1.674230
0.383789	1.674194
0.383887	1.674179
0.383984	1.674262
0.384082	1.674273
0.384180	1.674405
0.384277	1.674532
0.384375	1.674612
0.384473	1.674769
0.384570	1.675000
0.384668	1.675110
0.384766	1.675325
0.384863	1.675516
0.384961	1.675738
0.385059	1.675946
0.385156	1.676103
0.385254	1.676332
0.385352	1.676597
0.385449	1.676746
0.385547	1.677008
0.385645	1.677220
0.385742	1.677419
0.385840	1.677593
0.385937	1.677724
0.386035	1.677984
0.386133	1.678218
0.386230	1.678423
0.386328	1.678655
0.386426	1.678979
0.386523	1.679290
0.386621	1.679616
0.386719	1.680001
0.386816	1.680322
0.386914	1.680751
0.387012	1.681216
0.387109	1.681657
0.387207	1.682050
0.387305	1.682509
0.387402	1.682907
0.387500	1.683294
0.387598	1.683708
0.387695	1.684051
0.387793	1.684379
0.387891	1.684837
0.387988	1.685118
0.388086	1.685399
0.388184	1.685816
0.388281	1.686064
0.388379	1.686422
0.388477	1.686707
0.388574	1.686956
0.388672	1.687236
0.388770	1.687457
0.388867	1.687812
0.388965	1.688057
0.389062	1.688368
0.389160	1.688509
0.389258	1.688594
0.389355	1.688555
0.389453	1.688318
0.389551	1.687904
0.389648	1.687244
0.389746	1.686391
0.389844	1.685275
0.389941	1.683993
0.390039	1.682795
0.390137	1.681817
0.390234	1.681065
0.390332	1.680600
0.390430	1.680261
0.390527	1.680064
0.390625	1.679879
0.390723	1.679794
0.390820	1.679781
0.390918	1.679668
0.391016	1.679661
0.391113	1.679616
0.391211	1.679686
0.391309	1.679600
0.391406	1.679587
0.391504	1.679653
0.391602	1.679652
0.391699	1.679650
0.391797	1.679601
0.391895	1.679614
0.391992	1.679641
0.392090	1.679522
0.392187	1.679532
0.392285	1.679714
0.392383	1.679756
0.392480	1.679829
0.392578	1.679843
0.392676	1.679979
0.392773	1.680034
0.392871	1.680066
0.392969	1.680101
0.393066	1.680349
0.393164	1.680396
0.393262	1.680511
0.393359	1.680677
0.393457	1.680807
0.393555	1.680959
0.393652	1.681225
0.393750	1.681458
0.393848	1.681823
0.393945	1.682200
0.394043	1.682670
0.394141	1.683130
0.394238	1.683681
0.394336	1.684223
0.394434	1.684785
0.394531	1.685317
0.394629	1.685763
0.394727	1.686220
0.394824	1.686421
0.394922	1.686791
0.395020	1.687039
0.395117	1.687318
0.395215	1.687504
0.395312	1.687731
0.395410	1.688029
0.395508	1.688406
0.395605	1.688686
0.395703	1.689049
0.395801	1.689390
0.395898	1.689851
0.395996	1.689967
0.396094	1.690079
0.396191	1.689735
0.396289	1.689172
0.396387	1.688648
0.396484	1.688074
0.396582	1.687629
0.396680	1.687322
0.396777	1.687074
0.396875	1.686839
0.396973	1.686692
0.397070	1.686490
0.397168	1.686304
0.397266	1.686162
0.397363	1.686085
0.397461	1.685959
0.397559	1.685909
0.397656	1.685834
0.397754	1.685801
0.397852	1.685859
0.397949	1.685856
0.398047	1.685965
0.398145	1.686100
0.398242	1.686302
0.398340	1.686270
0.398437	1.686201
0.398535	1.685876
0.398633	1.685611
0.398730	1.685089
0.398828	1.684653
0.398926	1.684110
0.399023	1.683627
0.399121	1.683196
0.399219	1.682799
0.399316	1.682484
0.399414	1.682157
0.399512	1.681843
0.399609	1.681540
0.399707	1.681348
0.399805	1.681078
0.399902	1.680863
0.400000	1.680569
0.400098	1.680370
0.400195	1.680232
0.400293	1.680042
0.400391	1.679872
0.400488	1.679725
0.400586	1.679623
0.400684	1.679439
0.400781	1.679338
0.400879	1.679157
0.400977	1.679148
0.401074	1.679088
0.401172	1.679047
0.401270	1.679086
0.401367	1.679191
0.401465	1.679330
0.401562	1.679502
0.401660	1.679706
0.401758	1.679952
0.401855	1.680142
0.401953	1.680433
0.402051	1.680808
0.402148	1.681128
0.402246	1.681732
0.402344	1.682063
0.402441	1.682603
0.402539	1.683105
0.402637	1.683477
0.402734	1.683987
0.402832	1.684479
0.402930	1.684786
0.403027	1.685066
0.403125	1.685397
0.403223	1.685837
0.403320	1.686262
0.403418	1.686872
0.403516	1.687571
0.403613	1.688437
0.403711	1.689129
0.403809	1.689715
0.403906	1.690050
0.404004	1.690277
0.404102	1.690013
0.404199	1.689577
0.404297	1.689110
0.404395	1.688791
0.404492	1.689062
0.404590	1.689666
0.404687	1.690926
0.404785	1.692413
0.404883	1.693735
0.404980	1.694235
0.405078	1.694152
0.405176	1.693168
0.405273	1.691806
0.405371	1.689917
0.405469	1.687415
0.405566	1.685262
0.405664	1.683653
0.405762	1.682520
0.405859	1.681502
0.405957	1.680458
0.406055	1.679606
0.406152	1.679090
0.406250	1.678838
0.406348	1.678756
0.406445	1.678700
0.406543	1.678714
0.406641	1.678466
0.406738	1.678059
0.406836	1.677535
0.406934	1.676867
0.407031	1.676334
0.407129	1.676002
0.407227	1.675586
0.407324	1.675334
0.407422	1.674907
0.407520	1.674531
0.407617	1.673938
0.407715	1.673413
0.407812	1.672831
0.407910	1.672147
0.408008	1.671580
0.408105	1.670825
0.408203	1.670124
0.408301	1.669416
0.408398	1.668687
0.408496	1.667898
0.408594	1.667055
0.408691	1.666309
0.408789	1.665642
0.408887	1.664880
0.408984	1.664195
0.409082	1.663619
0.409180	1.663029
0.409277	1.662524
0.409375	1.662159
0.409473	1.661767
0.409570	1.661727
0.409668	1.661554
0.409766	1.661653
0.409863	1.661685
0.409961	1.661753
0.410059	1.661914
0.410156	1.661998
0.410254	1.662178
0.410352	1.662459
0.410449	1.662772
0.410547	1.663107
0.410645	1.663414
0.410742	1.663837
0.410840	1.664207
0.410937	1.664604
0.411035	1.665227
0.411133	1.665684
0.411230	1.666234
0.411328	1.666844
0.411426	1.667306
0.411523	1.667942
0.411621	1.668525
0.411719	1.669118
0.411816	1.669774
0.411914	1.670328
0.412012	1.671022
0.412109	1.671487
0.412207	1.672187
0.412305	1.672968
0.412402	1.673634
0.412500	1.674386
0.412598	1.675208
0.412695	1.675984
0.412793	1.676873
0.412891	1.677713
0.412988	1.678585
0.413086	1.679521
0.413184	1.680512
0.413281	1.681445
0.413379	1.682424
0.413477	1.683557
0.413574	1.684715
0.413672	1.686007
0.413770	1.687347
0.413867	1.689005
0.413965	1.690585
0.414062	1.692374
0.414160	1.694053
0.414258	1.695327
0.414355	1.695898
0.414453	1.695773
0.414551	1.695401
0.414648	1.695201
0.414746	1.695129
0.414844	1.695095
0.414941	1.695009
0.415039	1.694931
0.415137	1.695114
0.415234	1.695393
0.415332	1.695859
0.415430	1.696229
0.415527	1.696628
0.415625	1.697041
0.415723	1.696936
0.415820	1.696349
0.415918	1.695289
0.416016	1.694497
0.416113	1.693508
0.416211	1.692403
0.416309	1.690948
0.416406	1.689356
0.416504	1.687655
0.416602	1.686242
0.416699	1.684973
0.416797	1.683976
0.416895	1.683335
0.416992	1.682831
0.417090	1.682641
0.417187	1.682507
0.417285	1.682700
0.417383	1.682964
0.417480	1.683342
0.417578	1.683944
0.417676	1.684484
0.417773	1.685098
0.417871	1.685786
0.417969	1.686430
0.418066	1.687022
0.418164	1.687584
0.418262	1.688246
0.418359	1.688874
0.418457	1.689657
0.418555	1.690727
0.418652	1.691877
0.418750	1.693289
0.418848	1.694437
0.418945	1.695264
0.419043	1.695267
0.419141	1.694732
0.419238	1.693419
0.419336	1.691836
0.419434	1.690057
0.419531	1.688133
0.419629	1.686231
0.419727	1.684205
0.419824	1.682066
0.419922	1.679839
0.420020	1.677937
0.420117	1.676429
0.420215	1.675258
0.420312	1.674368
0.420410	1.673568
0.420508	1.673005
0.420605	1.672414
0.420703	1.671997
0.420801	1.671628
0.420898	1.671337
0.420996	1.671060
0.421094	1.670931
0.421191	1.670676
0.421289	1.670629
0.421387	1.670429
0.421484	1.670254
0.421582	1.670055
0.421680	1.669866
0.421777	1.669725
0.421875	1.669339
0.421973	1.669044
0.422070	1.668658
0.422168	1.668295
0.422266	1.667998
0.422363	1.667659
0.422461	1.667317
0.422559	1.666824
0.422656	1.666470
0.422754	1.665975
0.422852	1.665613
0.422949	1.665081
0.423047	1.664784
0.423145	1.664383
0.423242	1.664003
0.423340	1.663629
0.423437	1.663350
0.423535	1.662935
0.423633	1.662668
0.423730	1.662348
0.423828	1.662107
0.423926	1.661881
0.424023	1.661647
0.424121	1.661519
0.424219	1.661312
0.424316	1.661200
0.424414	1.661069
0.424512	1.660977
0.424609	1.660913
0.424707	1.660850
0.424805	1.660837
0.424902	1.660765
0.425000	1.660745
0.425098	1.660632
0.425195	1.660660
0.425293	1.660576
0.425391	1.660473
0.425488	1.660406
0.425586	1.660316
0.425684	1.660289
0.425781	1.660197
0.425879	1.660141
0.425977	1.660007
0.426074	1.659951
0.426172	1.659935
0.426270	1.659940
0.426367	1.659959
0.426465	1.660020
0.426562	1.660071
0.426660	1.660223
0.426758	1.660311
0.426855	1.660493
0.426953	1.660765
0.427051	1.660927
0.427148	1.661205
0.427246	1.661456
0.427344	1.661811
0.427441	1.662154
0.427539	1.662561
0.427637	1.662996
0.427734	1.663402
0.427832	1.663825
0.427930	1.664374
0.428027	1.664870
0.428125	1.665413
0.428223	1.666051
0.428320	1.666659
0.428418	1.667292
0.428516	1.668028
0.428613	1.668646
0.428711	1.669431
0.428809	1.670260
0.428906	1.670979
0.429004	1.671892
0.429102	1.672704
0.429199	1.673552
0.429297	1.674328
0.429395	1.675176
0.429492	1.676062
0.429590	1.677069
0.429687	1.677991
0.429785	1.678905
0.429883	1.679851
0.429980	1.680819
0.430078	1.681816
0.430176	1.682872
0.430273	1.683919
0.430371	1.684830
0.430469	1.685824
0.430566	1.686688
0.430664	1.687461
0.430762	1.688145
0.430859	1.688723
0.430957	1.689099
0.431055	1.689444
0.431152	1.689794
0.431250	1.690250
0.431348	1.690701
0.431445	1.691517
0.431543	1.692523
0.431641	1.693791
0.431738	1.695515
0.431836	1.697598
0.431934	1.699286
0.432031	1.699541
0.432129	1.699515
0.432227	1.700191
0.432324	1.701381
0.432422	1.702609
0.432520	1.704545
0.432617	1.706582
0.432715	1.710140
0.432812	1.714662
0.432910	1.717684
0.433008	1.717173
0.433105	1.713784
0.433203	1.710821
0.433301	1.708543
0.433398	1.707064
0.433496	1.704960
0.433594	1.702021
0.433691	1.697688
0.433789	1.694155
0.433887	1.692332
0.433984	1.691381
0.434082	1.690769
0.434180	1.690574
0.434277	1.690629
0.434375	1.690982
0.434473	1.691505
0.434570	1.692446
0.434668	1.693612
0.434766	1.694975
0.434863	1.696417
0.434961	1.697752
0.435059	1.698437
0.435156	1.697282
0.435254	1.694590
0.435352	1.691848
0.435449	1.689531
0.435547	1.687396
0.435645	1.685035
0.435742	1.682914
0.435840	1.681398
0.435937	1.680362
0.436035	1.679738
0.436133	1.679485
0.436230	1.679260
0.436328	1.679036
0.436426	1.678820
0.436523	1.678501
0.436621	1.678326
0.436719	1.678189
0.436816	1.678100
0.436914	1.677726
0.437012	1.677242
0.437109	1.676223
0.437207	1.674793
0.437305	1.673133
0.437402	1.671375
0.437500	1.669781
0.437598	1.668186
0.437695	1.666774
0.437793	1.665498
0.437891	1.664201
0.437988	1.663133
0.438086	1.661900
0.438184	1.660947
0.438281	1.660015
0.438379	1.659228
0.438477	1.658647
0.438574	1.658196
0.438672	1.657819
0.438770	1.657628
0.438867	1.657529
0.438965	1.657587
0.439062	1.657760
0.439160	1.657884
0.439258	1.658016
0.439355	1.658369
0.439453	1.658536
0.439551	1.658759
0.439648	1.659059
0.439746	1.659195
0.439844	1.659369
0.439941	1.659619
0.440039	1.659864
0.440137	1.660100
0.440234	1.660308
0.440332	1.660605
0.440430	1.660864
0.440527	1.660998
0.440625	1.661102
0.440723	1.661021
0.440820	1.660800
0.440918	1.660603
0.441016	1.660289
0.441113	1.659806
0.441211	1.659357
0.441309	1.658830
0.441406	1.657979
0.441504	1.657259
0.441602	1.656255
0.441699	1.655159
0.441797	1.653977
0.441895	1.652584
0.441992	1.650984
0.442090	1.648962
0.442187	1.646519
0.442285	1.643802
0.442383	1.641165
0.442480	1.639012
0.442578	1.637389
0.442676	1.636116
0.442773	1.635149
0.442871	1.634618
0.442969	1.634377
0.443066	1.634252
0.443164	1.634448
0.443262	1.634792
0.443359	1.635316
0.443457	1.635886
0.443555	1.636596
0.443652	1.637369
0.443750	1.638203
0.443848	1.639158
0.443945	1.640106
0.444043	1.641046
0.444141	1.642122
0.444238	1.643113
0.444336	1.644234
0.444434	1.645150
0.444531	1.646158
0.444629	1.647161
0.444727	1.648160
0.444824	1.649087
0.444922	1.649963
0.445020	1.650829
0.445117	1.651722
0.445215	1.652415
0.445312	1.653249
0.445410	1.653899
0.445508	1.654664
0.445605	1.655356
0.445703	1.655981
0.445801	1.656642
0.445898	1.657193
0.445996	1.657828
0.446094	1.658439
0.446191	1.659012
0.446289	1.659620
0.446387	1.660111
0.446484	1.660724
0.446582	1.661207
0.446680	1.661791
0.446777	1.662365
0.446875	1.663003
0.446973	1.663474
0.447070	1.663928
0.447168	1.664439
0.447266	1.664836
0.447363	1.665366
0.447461	1.665770
0.447559	1.666177
0.447656	1.666536
0.447754	1.666765
0.447852	1.667085
0.447949	1.667245
0.448047	1.667469
0.448145	1.667594
0.448242	1.667782
0.448340	1.667875
0.448437	1.668037
0.448535	1.668149
0.448633	1.668179
0.448730	1.668291
0.448828	1.668359
0.448926	1.668322
0.449023	1.668469
0.449121	1.668492
0.449219	1.668543
0.449316	1.668474
0.449414	1.668468
0.449512	1.668418
0.449609	1.668499
0.449707	1.668627
0.449805	1.668643
0.449902	1.668758
0.450000	1.668770
0.450098	1.668923
0.450195	1.668998
0.450293	1.669001
0.450391	1.669139
0.450488	1.669226
0.450586	1.669354
0.450684	1.669447
0.450781	1.669555
0.450879	1.669744
0.450977	1.669830
0.451074	1.669864
0.451172	1.669937
0.451270	1.669972
0.451367	1.670026
0.451465	1.670033
0.451562	1.669959
0.451660	1.669952
0.451758	1.669935
0.451855	1.669863
0.451953	1.669714
0.452051	1.669634
0.452148	1.669560
0.452246	1.669538
0.452344	1.669495
0.452441	1.669543
0.452539	1.669402
0.452637	1.669493
0.452734	1.669501
0.452832	1.669548
0.452930	1.669609
0.453027	1.669706
0.453125	1.669792
0.453223	1.669826
0.453320	1.669976
0.453418	1.670044
0.453516	1.670274
0.453613	1.670440
0.453711	1.670624
0.453809	1.670767
0.453906	1.671033
0.454004	1.671192
0.454102	1.671363
0.454199	1.671611
0.454297	1.671832
0.454395	1.672153
0.454492	1.672269
0.454590	1.672554
0.454687	1.672654
0.454785	1.672892
0.454883	1.673145
0.454980	1.673322
0.455078	1.673551
0.455176	1.673728
0.455273	1.673916
0.455371	1.674067
0.455469	1.674235
0.455566	1.674369
0.455664	1.674548
0.455762	1.674665
0.455859	1.674755
0.455957	1.674858
0.456055	1.674902
0.456152	1.675034
0.456250	1.674921
0.456348	1.674985
0.456445	1.674947
0.456543	1.674872
0.456641	1.674884
0.456738	1.674872
0.456836	1.674830
0.456934	1.674737
0.457031	1.674586
0.457129	1.674640
0.457227	1.674599
0.457324	1.674592
0.457422	1.674548
0.457520	1.674612
0.457617	1.674610
0.457715	1.674698
0.457812	1.674709
0.457910	1.674828
0.458008	1.674966
0.458105	1.675041
0.458203	1.675260
0.458301	1.675420
0.458398	1.675670
0.458496	1.675848
0.458594	1.676077
0.458691	1.676331
0.458789	1.676678
0.458887	1.677031
0.458984	1.677345
0.459082	1.677804
0.459180	1.678070
0.459277	1.678346
0.459375	1.678744
0.459473	1.679124
0.459570	1.679511
0.459668	1.680045
0.459766	1.680443
0.459863	1.680792
0.459961	1.681199
0.460059	1.681557
0.460156	1.681880
0.460254	1.682292
0.460352	1.682628
0.460449	1.682925
0.460547	1.683247
0.460645	1.683505
0.460742	1.683748
0.460840	1.683944
0.460937	1.684072
0.461035	1.684129
0.461133	1.684143
0.461230	1.684141
0.461328	1.684085
0.461426	1.684052
0.461523	1.684057
0.461621	1.683974
0.461719	1.683872
0.461816	1.683817
0.461914	1.683859
0.462012	1.683782
0.462109	1.683696
0.462207	1.683814
0.462305	1.684032
0.462402	1.684154
0.462500	1.684389
0.462598	1.684472
0.462695	1.684807
0.462793	1.684921
0.462891	1.685132
0.462988	1.685245
0.463086	1.685321
0.463184	1.685395
0.463281	1.685383
0.463379	1.685258
0.463477	1.685154
0.463574	1.684949
0.463672	1.684782
0.463770	1.684403
0.463867	1.684168
0.463965	1.683826
0.464062	1.683437
0.464160	1.683175
0.464258	1.682830
0.464355	1.682570
0.464453	1.682186
0.464551	1.682036
0.464648	1.681723
0.464746	1.681510
0.464844	1.681192
0.464941	1.681079
0.465039	1.680805
0.465137	1.680613
0.465234	1.680445
0.465332	1.680254
0.465430	1.679996
0.465527	1.679811
0.465625	1.679518
0.465723	1.679268
0.465820	1.678942
0.465918	1.678678
0.466016	1.678203
0.466113	1.677973
0.466211	1.677457
0.466309	1.677135
0.466406	1.676600
0.466504	1.676190
0.466602	1.675689
0.466699	1.675240
0.466797	1.674824
0.466895	1.674248
0.466992	1.673782
0.467090	1.673316
0.467187	1.672802
0.467285	1.672386
0.467383	1.671887
0.467480	1.671395
0.467578	1.671016
0.467676	1.670611
0.467773	1.670130
0.467871	1.669757
0.467969	1.669349
0.468066	1.668988
0.468164	1.668579
0.468262	1.668134
0.468359	1.667765
0.468457	1.667373
0.468555	1.667122
0.468652	1.666742
0.468750	1.666453
0.468848	1.666223
0.468945	1.665990
0.469043	1.665921
0.469141	1.665657
0.469238	1.665546
0.469336	1.665474
0.469434	1.665426
0.469531	1.665436
0.469629	1.665606
0.469727	1.665764
0.469824	1.665889
0.469922	1.666155
0.470020	1.666242
0.470117	1.666536
0.470215	1.666792
0.470312	1.667179
0.470410	1.667566
0.470508	1.667904
0.470605	1.668190
0.470703	1.668292
0.470801	1.668343
0.470898	1.668017
0.470996	1.667495
0.471094	1.666833
0.471191	1.666008
0.471289	1.665215
0.471387	1.664346
0.471484	1.663430
0.471582	1.662721
0.471680	1.661827
0.471777	1.661150
0.471875	1.660404
0.471973	1.659838
0.472070	1.659158
0.472168	1.658716
0.472266	1.658427
0.472363	1.658124
0.472461	1.657938
0.472559	1.657707
0.472656	1.657661
0.472754	1.657618
0.472852	1.657586
0.472949	1.657717
0.473047	1.657748
0.473145	1.657933
0.473242	1.658059
0.473340	1.658262
0.473437	1.658498
0.473535	1.658767
0.473633	1.659042
0.473730	1.659288
0.473828	1.659642
0.473926	1.659958
0.474023	1.660340
0.474121	1.660694
0.474219	1.661121
0.474316	1.661521
0.474414	1.661994
0.474512	1.662437
0.474609	1.662890
0.474707	1.663333
0.474805	1.663851
0.474902	1.664358
0.475000	1.664881
0.475098	1.665458
0.475195	1.666022
0.475293	1.666611
0.475391	1.667175
0.475488	1.667809
0.475586	1.668497
0.475684	1.669155
0.475781	1.669907
0.475879	1.670577
0.475977	1.671322
0.476074	1.672075
0.476172	1.672798
0.476270	1.673532
0.476367	1.674336
0.476465	1.675058
0.476562	1.675882
0.476660	1.676643
0.476758	1.677358
0.476855	1.678154
0.476953	1.678962
0.477051	1.679827
0.477148	1.680494
0.477246	1.681289
0.477344	1.682063
0.477441	1.682824
0.477539	1.683636
0.477637	1.684215
0.477734	1.685013
0.477832	1.685724
0.477930	1.686450
0.478027	1.687178
0.478125	1.687896
0.478223	1.688495
0.478320	1.688884
0.478418	1.689165
0.478516	1.689226
0.478613	1.688890
0.478711	1.688681
0.478809	1.688236
0.478906	1.687895
0.479004	1.687409
0.479102	1.686937
0.479199	1.686281
0.479297	1.685563
0.479395	1.684899
0.479492	1.684270
0.479590	1.683774
0.479687	1.683265
0.479785	1.682975
0.479883	1.682541
0.479980	1.682357
0.480078	1.682045
0.480176	1.681747
0.480273	1.681467
0.480371	1.681277
0.480469	1.680913
0.480566	1.680652
0.480664	1.680268
0.480762	1.680068
0.480859	1.679697
0.480957	1.679422
0.481055	1.679058
0.481152	1.678758
0.481250	1.678534
0.481348	1.678258
0.481445	1.677901
0.481543	1.677725
0.481641	1.677479
0.481738	1.677227
0.481836	1.676909
0.481934	1.676646
0.482031	1.676254
0.482129	1.675669
0.482227	1.675217
0.482324	1.674744
0.482422	1.674188
0.482520	1.673549
0.482617	1.672839
0.482715	1.672233
0.482812	1.671597
0.482910	1.670804
0.483008	1.670130
0.483105	1.669467
0.483203	1.668833
0.483301	1.668234
0.483398	1.667612
0.483496	1.667099
0.483594	1.666739
0.483691	1.666306
0.483789	1.665869
0.483887	1.665592
0.483984	1.665290
0.484082	1.665055
0.484180	1.664797
0.484277	1.664568
0.484375	1.664418
0.484473	1.664293
0.484570	1.664118
0.484668	1.664009
0.484766	1.663915
0.484863	1.663809
0.484961	1.663731
0.485059	1.663729
0.485156	1.663598
0.485254	1.663649
0.485352	1.663583
0.485449	1.663554
0.485547	1.663642
0.485645	1.663581
0.485742	1.663646
0.485840	1.663603
0.485937	1.663630
0.486035	1.663660
0.486133	1.663592
0.486230	1.663649
0.486328	1.663674
0.486426	1.663724
0.486523	1.663696
0.486621	1.663691
0.486719	1.663791
0.486816	1.663815
0.486914	1.663852
0.487012	1.663873
0.487109	1.663919
0.487207	1.663945
0.487305	1.664059
0.487402	1.664098
0.487500	1.664186
0.487598	1.664299
0.487695	1.664373
0.487793	1.664553
0.487891	1.664615
0.487988	1.664804
0.488086	1.664941
0.488184	1.665075
0.488281	1.665196
0.488379	1.665466
0.488477	1.665664
0.488574	1.665861
0.488672	1.666041
0.488770	1.666331
0.488867	1.666576
0.488965	1.666768
0.489062	1.667049
0.489160	1.667261
0.489258	1.667466
0.489355	1.667818
0.489453	1.667965
0.489551	1.668339
0.489648	1.668616
0.489746	1.668958
0.489844	1.669288
0.489941	1.669592
0.490039	1.669852
0.490137	1.670216
0.490234	1.670596
0.490332	1.670938
0.490430	1.671264
0.490527	1.671638
0.490625	1.671962
0.490723	1.672345
0.490820	1.672700
0.490918	1.673062
0.491016	1.673432
0.491113	1.673831
0.491211	1.674133
0.491309	1.674426
0.491406	1.674787
0.491504	1.675128
0.491602	1.675460
0.491699	1.675736
0.491797	1.676151
0.491895	1.676476
0.491992	1.676739
0.492090	1.676932
0.492187	1.677322
0.492285	1.677787
0.492383	1.678162
0.492480	1.678498
0.492578	1.678834
0.492676	1.679315
0.492773	1.679586
0.492871	1.680044
0.492969	1.680354
0.493066	1.680797
0.493164	1.681271
0.493262	1.681697
0.493359	1.682067
0.493457	1.682570
0.493555	1.683163
0.493652	1.683647
0.493750	1.684212
0.493848	1.684874
0.493945	1.685487
0.494043	1.686087
0.494141	1.686815
0.494238	1.687513
0.494336	1.688182
0.494434	1.688935
0.494531	1.689507
0.494629	1.690149
0.494727	1.690783
0.494824	1.691291
0.494922	1.691878
0.495020	1.692204
0.495117	1.692406
0.495215	1.692502
0.495312	1.692293
0.495410	1.691793
0.495508	1.691156
0.495605	1.690293
0.495703	1.689296
0.495801	1.688298
0.495898	1.687362
0.495996	1.686439
0.496094	1.685509
0.496191	1.684789
0.496289	1.683991
0.496387	1.683276
0.496484	1.682716
0.496582	1.682098
0.496680	1.681531
0.496777	1.680923
0.496875	1.680267
0.496973	1.679462
0.497070	1.678517
0.497168	1.677583
0.497266	1.676427
0.497363	1.675288
0.497461	1.674484
0.497559	1.673612
0.497656	1.672912
0.497754	1.672394
0.497852	1.671810
0.497949	1.671477
0.498047	1.671259
0.498145	1.670994
0.498242	1.670740
0.498340	1.670673
0.498437	1.670495
0.498535	1.670484
0.498633	1.670318
0.498730	1.670190
0.498828	1.670065
0.498926	1.669938
0.499023	1.669812
0.499121	1.669718
0.499219	1.669492
0.499316	1.669363
0.499414	1.669305
0.499512	1.669127
0.499609	1.669264
0.499707	1.669293
0.499805	1.669371
0.499902	1.669395
0.500000	1.669207
0.500098	1.668948
0.500195	1.668711
0.500293	1.668305
0.500391	1.667791
0.500488	1.667300
0.500586	1.666654
0.500684	1.666001
0.500781	1.665422
0.500879	1.664790
0.500977	1.664110
0.501074	1.663519
0.501172	1.662947
0.501270	1.662544
0.501367	1.662017
0.501465	1.661708
0.501562	1.661395
0.501660	1.661095
0.501758	1.660823
0.501855	1.660701
0.501953	1.660532
0.502051	1.660344
0.502148	1.660233
0.502246	1.660273
0.502344	1.660215
0.502441	1.660181
0.502539	1.660253
0.502637	1.660225
0.502734	1.660262
0.502832	1.660382
0.502930	1.660444
0.503027	1.660560
0.503125	1.660670
0.503223	1.660792
0.503320	1.660952
0.503418	1.661122
0.503516	1.661292
0.503613	1.661639
0.503711	1.661806
0.503809	1.662126
0.503906	1.662378
0.504004	1.662520
0.504102	1.662885
0.504199	1.663179
0.504297	1.663414
0.504395	1.663758
0.504492	1.664001
0.504590	1.664407
0.504687	1.664649
0.504785	1.664922
0.504883	1.665255
0.504980	1.665617
0.505078	1.665865
0.505176	1.666152
0.505273	1.666492
0.505371	1.666846
0.505469	1.667157
0.505566	1.667492
0.505664	1.667833
0.505762	1.668158
0.505859	1.668547
0.505957	1.668928
0.506055	1.669310
0.506152	1.669651
0.506250	1.670079
0.506348	1.670583
0.506445	1.670974
0.506543	1.671443
0.506641	1.671909
0.506738	1.672398
0.506836	1.672874
0.506934	1.673358
0.507031	1.673792
0.507129	1.674201
0.507227	1.674634
0.507324	1.675033
0.507422	1.675509
0.507520	1.675881
0.507617	1.676262
0.507715	1.676685
0.507812	1.677106
0.507910	1.677436
0.508008	1.677749
0.508105	1.678239
0.508203	1.678612
0.508301	1.678954
0.508398	1.679304
0.508496	1.679661
0.508594	1.680021
0.508691	1.680388
0.508789	1.680684
0.508887	1.681020
0.508984	1.681355
0.509082	1.681732
0.509180	1.682019
0.509277	1.682419
0.509375	1.682750
0.509473	1.683263
0.509570	1.683708
0.509668	1.684263
0.509766	1.684998
0.509863	1.685633
0.509961	1.686476
0.510059	1.687127
0.510156	1.687666
0.510254	1.687787
0.510352	1.687470
0.510449	1.686862
0.510547	1.686041
0.510645	1.685048
0.510742	1.683912
0.510840	1.682695
0.510937	1.681463
0.511035	1.680185
0.511133	1.678907
0.511230	1.677806
0.511328	1.676799
0.511426	1.675990
0.511523	1.675337
0.511621	1.674752
0.511719	1.674300
0.511816	1.673823
0.511914	1.673393
0.512012	1.672795
0.512109	1.672291
0.512207	1.671802
0.512305	1.671355
0.512402	1.670829
0.512500	1.670271
0.512598	1.669643
0.512695	1.669069
0.512793	1.668494
0.512891	1.667996
0.512988	1.667473
0.513086	1.666994
0.513184	1.666569
0.513281	1.666116
0.513379	1.665679
0.513477	1.665284
0.513574	1.664833
0.513672	1.664481
0.513770	1.664050
0.513867	1.663823
0.513965	1.663440
0.514062	1.663090
0.514160	1.662805
0.514258	1.662494
0.514355	1.662173
0.514453	1.661961
0.514551	1.661733
0.514648	1.661531
0.514746	1.661374
0.514844	1.661274
0.514941	1.661113
0.515039	1.661018
0.515137	1.660997
0.515234	1.660869
0.515332	1.660870
0.515430	1.660883
0.515527	1.660828
0.515625	1.660864
0.515723	1.660878
0.515820	1.660897
0.515918	1.661059
0.516016	1.661113
0.516113	1.661212
0.516211	1.661297
0.516309	1.661489
0.516406	1.661520
0.516504	1.661743
0.516602	1.661960
0.516699	1.662102
0.516797	1.662426
0.516895	1.662661
0.516992	1.662994
0.517090	1.663250
0.517187	1.663674
0.517285	1.664047
0.517383	1.664427
0.517480	1.664874
0.517578	1.665271
0.517676	1.665607
0.517773	1.666133
0.517871	1.666518
0.517969	1.666902
0.518066	1.667267
0.518164	1.667542
0.518262	1.667882
0.518359	1.668219
0.518457	1.668431
0.518555	1.668752
0.518652	1.668943
0.518750	1.669263
0.518848	1.669490
0.518945	1.669754
0.519043	1.670022
0.519141	1.670257
0.519238	1.670436
0.519336	1.670709
0.519434	1.671051
0.519531	1.671338
0.519629	1.671742
0.519727	1.672084
0.519824	1.672545
0.519922	1.672928
0.520020	1.673340
0.520117	1.673886
0.520215	1.674316
0.520312	1.674850
0.520410	1.675409
0.520508	1.676010
0.520605	1.676643
0.520703	1.677143
0.520801	1.677792
0.520898	1.678357
0.520996	1.678945
0.521094	1.679428
0.521191	1.679856
0.521289	1.680299
0.521387	1.680752
0.521484	1.681086
0.521582	1.681488
0.521680	1.681750
0.521777	1.682136
0.521875	1.682435
0.521973	1.682588
0.522070	1.682820
0.522168	1.682837
0.522266	1.682902
0.522363	1.682827
0.522461	1.682632
0.522559	1.682625
0.522656	1.682426
0.522754	1.682334
0.522852	1.682139
0.522949	1.681899
0.523047	1.681596
0.523145	1.681246
0.523242	1.680757
0.523340	1.680086
0.523437	1.679511
0.523535	1.678893
0.523633	1.678388
0.523730	1.677946
0.523828	1.677478
0.523926	1.677106
0.524023	1.676763
0.524121	1.676345
0.524219	1.676050
0.524316	1.675640
0.524414	1.675315
0.524512	1.674902
0.524609	1.674484
0.524707	1.674102
0.524805	1.673664
0.524902	1.673178
0.525000	1.672765
0.525098	1.672356
0.525195	1.671893
0.525293	1.671459
0.525391	1.671119
0.525488	1.670673
0.525586	1.670459
0.525684	1.670105
0.525781	1.669887
0.525879	1.669636
0.525977	1.669450
0.526074	1.669299
0.526172	1.669094
0.526270	1.669093
0.526367	1.669087
0.526465	1.669053
0.526562	1.669113
0.526660	1.669164
0.526758	1.669292
0.526855	1.669363
0.526953	1.669487
0.527051	1.669702
0.527148	1.669812
0.527246	1.670060
0.527344	1.670185
0.527441	1.670351
0.527539	1.670622
0.527637	1.670800
0.527734	1.670921
0.527832	1.671163
0.527930	1.671237
0.528027	1.671387
0.528125	1.671520
0.528223	1.671671
0.528320	1.671768
0.528418	1.671912
0.528516	1.672020
0.528613	1.672161
0.528711	1.672269
0.528809	1.672402
0.528906	1.672409
0.529004	1.672521
0.529102	1.672662
0.529199	1.672727
0.529297	1.672770
0.529395	1.672918
0.529492	1.672933
0.529590	1.673088
0.529687	1.673250
0.529785	1.673350
0.529883	1.673506
0.529980	1.673580
0.530078	1.673546
0.530176	1.673629
0.530273	1.673694
0.530371	1.673732
0.530469	1.673748
0.530566	1.673717
0.530664	1.673746
0.530762	1.673760
0.530859	1.673729
0.530957	1.673712
0.531055	1.673664
0.531152	1.673700
0.531250	1.673680
0.531348	1.673604
0.531445	1.673662
0.531543	1.673777
0.531641	1.673845
0.531738	1.673977
0.531836	1.674114
0.531934	1.674262
0.532031	1.674326
0.532129	1.674468
0.532227	1.674862
0.532324	1.674989
0.532422	1.675332
0.532520	1.675517
0.532617	1.675811
0.532715	1.676056
0.532812	1.676294
0.532910	1.676530
0.533008	1.676760
0.533105	1.677026
0.533203	1.677217
0.533301	1.677507
0.533398	1.677757
0.533496	1.677955
0.533594	1.678255
0.533691	1.678542
0.533789	1.678862
0.533887	1.679230
0.533984	1.679479
0.534082	1.679913
0.534180	1.680266
0.534277	1.680769
0.534375	1.681141
0.534473	1.681638
0.534570	1.682073
0.534668	1.682523
0.534766	1.682911
0.534863	1.683409
0.534961	1.683969
0.535059	1.684469
0.535156	1.685118
0.535254	1.685770
0.535352	1.686460
0.535449	1.687120
0.535547	1.687748
0.535645	1.688284
0.535742	1.688945
0.535840	1.689400
0.535937	1.689968
0.536035	1.690554
0.536133	1.691146
0.536230	1.691730
0.536328	1.692240
0.536426	1.692580
0.536523	1.692816
0.536621	1.692869
0.536719	1.692677
0.536816	1.692437
0.536914	1.692141
0.537012	1.691666
0.537109	1.691245
0.537207	1.690460
0.537305	1.689764
0.537402	1.689066
0.537500	1.688324
0.537598	1.687562
0.537695	1.686688
0.537793	1.685787
0.537891	1.684818
0.537988	1.683814
0.538086	1.682933
0.538184	1.682071
0.538281	1.681190
0.538379	1.680480
0.538477	1.679603
0.538574	1.678797
0.538672	1.677890
0.538770	1.676947
0.538867	1.675899
0.538965	1.674976
0.539062	1.673874
0.539160	1.672940
0.539258	1.671767
0.539355	1.670794
0.539453	1.669759
0.539551	1.668721
0.539648	1.667741
0.539746	1.666829
0.539844	1.665790
0.539941	1.664858
0.540039	1.663837
0.540137	1.662898
0.540234	1.661968
0.540332	1.661119
0.540430	1.660344
0.540527	1.659591
0.540625	1.659036
0.540723	1.658337
0.540820	1.657883
0.540918	1.657451
0.541016	1.657130
0.541113	1.656816
0.541211	1.656499
0.541309	1.656309
0.541406	1.656077
0.541504	1.655937
0.541602	1.655832
0.541699	1.655686
0.541797	1.655629
0.541895	1.655657
0.541992	1.655615
0.542090	1.655649
0.542187	1.655780
0.542285	1.655942
0.542383	1.656164
0.542480	1.656322
0.542578	1.656556
0.542676	1.656845
0.542773	1.657109
0.542871	1.657470
0.542969	1.657780
0.543066	1.658182
0.543164	1.658565
0.543262	1.658960
0.543359	1.659377
0.543457	1.659807
0.543555	1.660294
0.543652	1.660718
0.543750	1.661121
0.543848	1.661668
0.543945	1.662120
0.544043	1.662586
0.544141	1.663113
0.544238	1.663591
0.544336	1.663987
0.544434	1.664547
0.544531	1.664871
0.544629	1.665294
0.544727	1.665794
0.544824	1.666171
0.544922	1.666577
0.545020	1.666894
0.545117	1.667336
0.545215	1.667697
0.545312	1.667978
0.545410	1.668312
0.545508	1.668574
0.545605	1.668939
0.545703	1.669158
0.545801	1.669518
0.545898	1.669831
0.545996	1.670048
0.546094	1.670494
0.546191	1.670780
0.546289	1.671091
0.546387	1.671467
0.546484	1.671779
0.546582	1.672167
0.546680	1.672561
0.546777	1.672863
0.546875	1.673132
0.546973	1.673333
0.547070	1.673535
0.547168	1.673547
0.547266	1.673580
0.547363	1.673550
0.547461	1.673362
0.547559	1.673272
0.547656	1.672981
0.547754	1.672755
0.547852	1.672470
0.547949	1.672390
0.548047	1.672164
0.548145	1.672084
0.548242	1.671980
0.548340	1.671966
0.548437	1.672032
0.548535	1.672057
0.548633	1.672208
0.548730	1.672374
0.548828	1.672569
0.548926	1.672716
0.549023	1.673016
0.549121	1.673308
0.549219	1.673537
0.549316	1.673784
0.549414	1.674070
0.549512	1.674376
0.549609	1.674653
0.549707	1.674966
0.549805	1.675295
0.549902	1.675575
0.550000	1.675817
0.550098	1.675977
0.550195	1.676285
0.550293	1.676441
0.550391	1.676697
0.550488	1.676766
0.550586	1.677097
0.550684	1.677233
0.550781	1.677449
0.550879	1.677602
0.550977	1.677843
0.551074	1.678108
0.551172	1.678277
0.551270	1.678560
0.551367	1.678677
0.551465	1.678977
0.551562	1.679136
0.551660	1.679378
0.551758	1.679622
0.551855	1.679733
0.551953	1.680005
0.552051	1.680106
0.552148	1.680262
0.552246	1.680574
0.552344	1.680794
0.552441	1.681064
0.552539	1.681257
0.552637	1.681496
0.552734	1.681568
0.552832	1.681777
0.552930	1.681977
0.553027	1.682096
0.553125	1.682224
0.553223	1.682270
0.553320	1.682365
0.553418	1.682289
0.553516	1.682178
0.553613	1.682123
0.553711	1.681943
0.553809	1.681798
0.553906	1.681763
0.554004	1.681618
0.554102	1.681552
0.554199	1.681558
0.554297	1.681557
0.554395	1.681654
0.554492	1.681646
0.554590	1.681596
0.554687	1.681690
0.554785	1.681628
0.554883	1.681638
0.554980	1.681485
0.555078	1.681535
0.555176	1.681306
0.555273	1.681163
0.555371	1.680990
0.555469	1.680729
0.555566	1.680514
0.555664	1.680140
0.555762	1.679798
0.555859	1.679435
0.555957	1.678942
0.556055	1.678390
0.556152	1.677791
0.556250	1.676938
0.556348	1.676182
0.556445	1.675243
0.556543	1.674393
0.556641	1.673680
0.556738	1.672948
0.556836	1.672314
0.556934	1.671696
0.557031	1.671224
0.557129	1.670826
0.557227	1.670400
0.557324	1.670147
0.557422	1.669869
0.557520	1.669634
0.557617	1.669425
0.557715	1.669101
0.557812	1.668986
0.557910	1.668842
0.558008	1.668706
0.558105	1.668625
0.558203	1.668594
0.558301	1.668581
0.558398	1.668566
0.558496	1.668639
0.558594	1.668605
0.558691	1.668709
0.558789	1.668756
0.558887	1.668825
0.558984	1.668873
0.559082	1.668947
0.559180	1.669076
0.559277	1.669068
0.559375	1.669219
0.559473	1.669244
0.559570	1.669474
0.559668	1.669671
0.559766	1.669845
0.559863	1.670074
0.559961	1.670289
0.560059	1.670500
0.560156	1.670767
0.560254	1.671024
0.560352	1.671291
0.560449	1.671556
0.560547	1.671945
0.560645	1.672236
0.560742	1.672575
0.560840	1.672886
0.560937	1.673227
0.561035	1.673507
0.561133	1.673811
0.561230	1.674144
0.561328	1.674381
0.561426	1.674634
0.561523	1.674908
0.561621	1.675112
0.561719	1.675420
0.561816	1.675613
0.561914	1.675821
0.562012	1.676083
0.562109	1.676200
0.562207	1.676557
0.562305	1.676837
0.562402	1.677076
0.562500	1.677314
0.562598	1.677632
0.562695	1.677843
0.562793	1.677948
0.562891	1.678202
0.562988	1.678465
0.563086	1.678573
0.563184	1.678767
0.563281	1.678880
0.563379	1.679027
0.563477	1.679102
0.563574	1.679261
0.563672	1.679365
0.563770	1.679469
0.563867	1.679536
0.563965	1.679564
0.564062	1.679533
0.564160	1.679698
0.564258	1.679641
0.564355	1.679669
0.564453	1.679693
0.564551	1.679680
0.564648	1.679694
0.564746	1.679678
0.564844	1.679716
0.564941	1.679672
0.565039	1.679711
0.565137	1.679705
0.565234	1.679789
0.565332	1.679883
0.565430	1.680002
0.565527	1.680179
0.565625	1.680322
0.565723	1.680580
0.565820	1.680782
0.565918	1.681020
0.566016	1.681244
0.566113	1.681583
0.566211	1.681798
0.566309	1.682166
0.566406	1.682448
0.566504	1.682734
0.566602	1.683008
0.566699	1.683312
0.566797	1.683566
0.566895	1.683881
0.566992	1.684112
0.567090	1.684451
0.567187	1.684742
0.567285	1.685026
0.567383	1.685346
0.567480	1.685524
0.567578	1.685792
0.567676	1.685902
0.567773	1.685948
0.567871	1.685968
0.567969	1.685973
0.568066	1.685878
0.568164	1.685759
0.568262	1.685496
0.568359	1.685327
0.568457	1.685154
0.568555	1.684834
0.568652	1.684513
0.568750	1.684143
0.568848	1.683799
0.568945	1.683477
0.569043	1.683035
0.569141	1.682662
0.569238	1.682232
0.569336	1.681701
0.569434	1.681325
0.569531	1.680725
0.569629	1.680239
0.569727	1.679717
0.569824	1.679072
0.569922	1.678424
0.570020	1.677826
0.570117	1.677181
0.570215	1.676589
0.570312	1.675973
0.570410	1.675473
0.570508	1.674989
0.570605	1.674495
0.570703	1.674195
0.570801	1.673747
0.570898	1.673370
0.570996	1.673075
0.571094	1.672647
0.571191	1.672325
0.571289	1.672048
0.571387	1.671775
0.571484	1.671552
0.571582	1.671311
0.571680	1.671085
0.571777	1.670881
0.571875	1.670702
0.571973	1.670564
0.572070	1.670331
0.572168	1.670255
0.572266	1.670187
0.572363	1.670121
0.572461	1.670115
0.572559	1.670016
0.572656	1.670041
0.572754	1.669990
0.572852	1.669972
0.572949	1.670001
0.573047	1.670016
0.573145	1.670041
0.573242	1.669982
0.573340	1.669980
0.573437	1.670067
0.573535	1.670046
0.573633	1.669989
0.573730	1.669985
0.573828	1.669889
0.573926	1.669806
0.574023	1.669671
0.574121	1.669620
0.574219	1.669614
0.574316	1.669576
0.574414	1.669576
0.574512	1.669567
0.574609	1.669603
0.574707	1.669714
0.574805	1.669828
0.574902	1.669937
0.575000	1.670199
0.575098	1.670321
0.575195	1.670548
0.575293	1.670711
0.575391	1.670899
0.575488	1.671110
0.575586	1.671217
0.575684	1.671339
0.575781	1.671453
0.575879	1.671608
0.575977	1.671764
0.576074	1.671869
0.576172	1.671976
0.576270	1.672140
0.576367	1.672204
0.576465	1.672256
0.576562	1.672221
0.576660	1.672183
0.576758	1.672128
0.576855	1.671945
0.576953	1.671689
0.577051	1.671531
0.577148	1.671306
0.577246	1.671084
0.577344	1.670882
0.577441	1.670696
0.577539	1.670685
0.577637	1.670493
0.577734	1.670495
0.577832	1.670356
0.577930	1.670390
0.578027	1.670373
0.578125	1.670332
0.578223	1.670369
0.578320	1.670360
0.578418	1.670363
0.578516	1.670352
0.578613	1.670419
0.578711	1.670265
0.578809	1.670395
0.578906	1.670332
0.579004	1.670280
0.579102	1.670086
0.579199	1.669998
0.579297	1.669816
0.579395	1.669668
0.579492	1.669471
0.579590	1.669324
0.579687	1.669076
0.579785	1.668868
0.579883	1.668699
0.579980	1.668536
0.580078	1.668286
0.580176	1.668020
0.580273	1.667927
0.580371	1.667681
0.580469	1.667517
0.580566	1.667351
0.580664	1.667265
0.580762	1.667154
0.580859	1.667104
0.580957	1.667078
0.581055	1.667006
0.581152	1.666989
0.581250	1.667021
0.581348	1.666891
0.581445	1.666966
0.581543	1.667018
0.581641	1.667045
0.581738	1.667154
0.581836	1.667264
0.581934	1.667294
0.582031	1.667319
0.582129	1.667408
0.582227	1.667643
0.582324	1.667807
0.582422	1.667957
0.582520	1.668066
0.582617	1.668361
0.582715	1.668497
0.582812	1.668694
0.582910	1.668909
0.583008	1.669068
0.583105	1.669299
0.583203	1.669560
0.583301	1.669763
0.583398	1.670069
0.583496	1.670273
0.583594	1.670546
0.583691	1.670753
0.583789	1.671003
0.583887	1.671268
0.583984	1.671489
0.584082	1.671815
0.584180	1.672033
0.584277	1.672300
0.584375	1.672510
0.584473	1.672734
0.584570	1.672992
0.584668	1.673081
0.584766	1.673377
0.584863	1.673487
0.584961	1.673701
0.585059	1.673792
0.585156	1.674005
0.585254	1.674158
0.585352	1.674322
0.585449	1.674510
0.585547	1.674721
0.585645	1.674912
0.585742	1.675074
0.585840	1.675265
0.585937	1.675416
0.586035	1.675632
0.586133	1.675731
0.586230	1.675832
0.586328	1.675882
0.586426	1.676001
0.586523	1.676013
0.586621	1.675911
0.586719	1.675940
0.586816	1.675916
0.586914	1.675787
0.587012	1.675729
0.587109	1.675530
0.587207	1.675626
0.587305	1.675469
0.587402	1.675415
0.587500	1.675397
0.587598	1.675386
0.587695	1.675365
0.587793	1.675393
0.587891	1.675411
0.587988	1.675555
0.588086	1.675674
0.588184	1.675825
0.588281	1.675841
0.588379	1.676013
0.588477	1.676136
0.588574	1.676262
0.588672	1.676409
0.588770	1.676511
0.588867	1.676697
0.588965	1.676732
0.589062	1.676824
0.589160	1.676913
0.589258	1.677040
0.589355	1.677078
0.589453	1.677122
0.589551	1.677275
0.589648	1.677482
0.589746	1.677712
0.589844	1.677929
0.589941	1.678110
0.590039	1.678381
0.590137	1.678413
0.590234	1.678525
0.590332	1.678452
0.590430	1.678360
0.590527	1.678027
0.590625	1.677621
0.590723	1.677213
0.590820	1.676539
0.590918	1.675860
0.591016	1.675108
0.591113	1.674434
0.591211	1.673679
0.591309	1.672904
0.591406	1.672258
0.591504	1.671588
0.591602	1.671088
0.591699	1.670469
0.591797	1.669963
0.591895	1.669463
0.591992	1.669081
0.592090	1.668616
0.592187	1.668399
0.592285	1.668184
0.592383	1.668043
0.592480	1.667970
0.592578	1.667894
0.592676	1.667918
0.592773	1.668085
0.592871	1.668211
0.592969	1.668456
0.593066	1.668745
0.593164	1.669091
0.593262	1.669421
0.593359	1.669944
0.593457	1.670336
0.593555	1.670873
0.593652	1.671461
0.593750	1.671996
0.593848	1.672536
0.593945	1.673105
0.594043	1.673739
0.594141	1.674273
0.594238	1.674940
0.594336	1.675536
0.594434	1.676164
0.594531	1.676821
0.594629	1.677375
0.594727	1.678022
0.594824	1.678618
0.594922	1.679180
0.595020	1.679895
0.595117	1.680516
0.595215	1.681202
0.595312	1.681892
0.595410	1.682680
0.595508	1.683377
0.595605	1.684143
0.595703	1.685015
0.595801	1.685856
0.595898	1.686547
0.595996	1.687361
0.596094	1.687880
0.596191	1.688450
0.596289	1.688806
0.596387	1.689162
0.596484	1.689258
0.596582	1.689337
0.596680	1.689208
0.596777	1.689029
0.596875	1.688844
0.596973	1.688559
0.597070	1.688252
0.597168	1.688069
0.597266	1.687726
0.597363	1.687371
0.597461	1.687051
0.597559	1.686709
0.597656	1.686529
0.597754	1.686395
0.597852	1.686341
0.597949	1.686460
0.598047	1.686569
0.598145	1.686845
0.598242	1.687243
0.598340	1.687814
0.598437	1.688596
0.598535	1.689550
0.598633	1.690667
0.598730	1.691922
0.598828	1.692882
0.598926	1.693454
0.599023	1.693859
0.599121	1.693950
0.599219	1.693737
0.599316	1.693721
0.599414	1.694059
0.599512	1.694569
0.599609	1.695282
0.599707	1.695985
0.599805	1.696687
0.599902	1.697027
0.600000	1.695902
0.600098	1.693678
0.600195	1.691531
0.600293	1.689707
0.600391	1.687844
0.600488	1.685871
0.600586	1.684177
0.600684	1.682840
0.600781	1.681641
0.600879	1.680600
0.600977	1.679526
0.601074	1.678560
0.601172	1.677430
0.601270	1.676420
0.601367	1.675359
0.601465	1.674395
0.601562	1.673465
0.601660	1.672727
0.601758	1.671940
0.601855	1.671338
0.601953	1.670777
0.602051	1.670109
0.602148	1.669686
0.602246	1.669359
0.602344	1.668906
0.602441	1.668510
0.602539	1.668112
0.602637	1.667746
0.602734	1.667262
0.602832	1.666854
0.602930	1.666575
0.603027	1.666241
0.603125	1.665951
0.603223	1.665659
0.603320	1.665501
0.603418	1.665239
0.603516	1.665187
0.603613	1.665070
0.603711	1.665135
0.603809	1.665185
0.603906	1.665211
0.604004	1.665268
0.604102	1.665418
0.604199	1.665565
0.604297	1.665757
0.604395	1.666013
0.604492	1.666277
0.604590	1.666477
0.604687	1.666767
0.604785	1.667056
0.604883	1.667358
0.604980	1.667655
0.605078	1.667932
0.605176	1.668244
0.605273	1.668445
0.605371	1.668734
0.605469	1.668972
0.605566	1.669195
0.605664	1.669262
0.605762	1.669335
0.605859	1.669356
0.605957	1.669412
0.606055	1.669360
0.606152	1.669307
0.606250	1.669302
0.606348	1.669300
0.606445	1.669253
0.606543	1.669250
0.606641	1.669167
0.606738	1.669081
0.606836	1.669086
0.606934	1.669056
0.607031	1.669067
0.607129	1.669062
0.607227	1.669017
0.607324	1.669083
0.607422	1.669033
0.607520	1.669034
0.607617	1.669138
0.607715	1.669195
0.607812	1.669312
0.607910	1.669399
0.608008	1.669538
0.608105	1.669717
0.608203	1.669944
0.608301	1.670047
0.608398	1.670256
0.608496	1.670506
0.608594	1.670748
0.608691	1.670934
0.608789	1.671082
0.608887	1.671446
0.608984	1.671524
0.609082	1.671877
0.609180	1.671981
0.609277	1.672198
0.609375	1.672422
0.609473	1.672621
0.609570	1.672927
0.609668	1.673237
0.609766	1.673427
0.609863	1.673805
0.609961	1.674011
0.610059	1.674363
0.610156	1.674586
0.610254	1.674933
0.610352	1.675203
0.610449	1.675551
0.610547	1.675996
0.610645	1.676300
0.610742	1.676737
0.610840	1.677150
0.610937	1.677571
0.611035	1.678017
0.611133	1.678634
0.611230	1.679178
0.611328	1.679735
0.611426	1.680384
0.611523	1.680982
0.611621	1.681731
0.611719	1.682460
0.611816	1.683261
0.611914	1.683980
0.612012	1.684813
0.612109	1.685598
0.612207	1.686483
0.612305	1.687466
0.612402	1.688228
0.612500	1.689084
0.612598	1.689734
0.612695	1.690425
0.612793	1.690992
0.612891	1.691590
0.612988	1.692125
0.613086	1.692521
0.613184	1.692871
0.613281	1.693093
0.613379	1.693347
0.613477	1.693452
0.613574	1.693591
0.613672	1.693642
0.613770	1.693791
0.613867	1.693793
0.613965	1.693801
0.614062	1.693811
0.614160	1.693697
0.614258	1.693533
0.614355	1.693234
0.614453	1.692788
0.614551	1.692182
0.614648	1.691487
0.614746	1.690716
0.614844	1.689740
0.614941	1.688760
0.615039	1.687774
0.615137	1.686814
0.615234	1.685816
0.615332	1.684829
0.615430	1.683816
0.615527	1.682711
0.615625	1.681561
0.615723	1.680348
0.615820	1.679084
0.615918	1.677925
0.616016	1.676765
0.616113	1.675819
0.616211	1.674890
0.616309	1.674102
0.616406	1.673413
0.616504	1.672887
0.616602	1.672326
0.616699	1.672032
0.616797	1.671697
0.616895	1.671486
0.616992	1.671372
0.617090	1.671356
0.617187	1.671318
0.617285	1.671304
0.617383	1.671403
0.617480	1.671531
0.617578	1.671669
0.617676	1.671866
0.617773	1.672022
0.617871	1.672339
0.617969	1.672610
0.618066	1.672946
0.618164	1.673267
0.618262	1.673600
0.618359	1.673933
0.618457	1.674324
0.618555	1.674637
0.618652	1.675025
0.618750	1.675371
0.618848	1.675746
0.618945	1.676118
0.619043	1.676430
0.619141	1.676754
0.619238	1.676906
0.619336	1.677219
0.619434	1.677333
0.619531	1.677577
0.619629	1.677770
0.619727	1.677961
0.619824	1.678141
0.619922	1.678285
0.620020	1.678380
0.620117	1.678590
0.620215	1.678773
0.620312	1.679007
0.620410	1.679251
0.620508	1.679483
0.620605	1.679835
0.620703	1.680066
0.620801	1.680475
0.620898	1.680728
0.620996	1.681081
0.621094	1.681351
0.621191	1.681774
0.621289	1.682042
0.621387	1.682340
0.621484	1.682621
0.621582	1.682894
0.621680	1.683206
0.621777	1.683572
0.621875	1.683923
0.621973	1.684158
0.622070	1.684602
0.622168	1.685034
0.622266	1.685499
0.622363	1.685785
0.622461	1.686043
0.622559	1.686104
0.622656	1.686125
0.622754	1.686062
0.622852	1.685730
0.622949	1.685435
0.623047	1.685162
0.623145	1.684799
0.623242	1.684567
0.623340	1.684241
0.623437	1.684054
0.623535	1.683924
0.623633	1.683767
0.623730	1.683700
0.623828	1.683484
0.623926	1.683429
0.624023	1.683282
0.624121	1.683116
0.624219	1.682976
0.624316	1.682895
0.624414	1.682876
0.624512	1.682736
0.624609	1.682695
0.624707	1.682590
0.624805	1.682449
0.624902	1.682406
0.625000	1.682216
0.625098	1.682031
0.625195	1.681869
0.625293	1.681748
0.625391	1.681610
0.625488	1.681292
0.625586	1.681279
0.625684	1.681114
0.625781	1.680937
0.625879	1.680834
0.625977	1.680736
0.626074	1.680653
0.626172	1.680581
0.626270	1.680502
0.626367	1.680421
0.626465	1.680303
0.626562	1.680000
0.626660	1.679717
0.626758	1.679381
0.626855	1.679026
0.626953	1.678586
0.627051	1.678116
0.627148	1.677618
0.627246	1.677033
0.627344	1.676503
0.627441	1.675996
0.627539	1.675364
0.627637	1.674897
0.627734	1.674399
0.627832	1.673883
0.627930	1.673410
0.628027	1.672931
0.628125	1.672538
0.628223	1.672080
0.628320	1.671721
0.628418	1.671264
0.628516	1.670921
0.628613	1.670567
0.628711	1.670270
0.628809	1.670048
0.628906	1.669749
0.629004	1.669541
0.629102	1.669423
0.629199	1.669129
0.629297	1.669124
0.629395	1.668964
0.629492	1.668811
0.629590	1.668833
0.629687	1.668835
0.629785	1.668862
0.629883	1.668882
0.629980	1.668967
0.630078	1.669012
0.630176	1.669145
0.630273	1.669246
0.630371	1.669371
0.630469	1.669632
0.630566	1.669802
0.630664	1.670086
0.630762	1.670294
0.630859	1.670671
0.630957	1.670925
0.631055	1.671271
0.631152	1.671544
0.631250	1.671914
0.631348	1.672256
0.631445	1.672659
0.631543	1.673004
0.631641	1.673382
0.631738	1.673798
0.631836	1.674222
0.631934	1.674579
0.632031	1.674959
0.632129	1.675343
0.632227	1.675822
0.632324	1.676160
0.632422	1.676586
0.632520	1.676874
0.632617	1.677167
0.632715	1.677508
0.632812	1.677734
0.632910	1.677998
0.633008	1.678230
0.633105	1.678582
0.633203	1.678933
0.633301	1.679302
0.633398	1.679800
0.633496	1.680284
0.633594	1.680882
0.633691	1.681511
0.633789	1.682296
0.633887	1.682955
0.633984	1.683725
0.634082	1.684300
0.634180	1.684507
0.634277	1.684507
0.634375	1.684526
0.634473	1.684672
0.634570	1.685016
0.634668	1.685489
0.634766	1.685919
0.634863	1.686304
0.634961	1.686634
0.635059	1.686866
0.635156	1.687015
0.635254	1.687066
0.635352	1.687086
0.635449	1.687002
0.635547	1.686796
0.635645	1.686483
0.635742	1.686169
0.635840	1.685768
0.635937	1.685314
0.636035	1.684715
0.636133	1.684013
0.636230	1.683332
0.636328	1.682630
0.636426	1.681860
0.636523	1.681078
0.636621	1.680397
0.636719	1.679644
0.636816	1.679046
0.636914	1.678388
0.637012	1.677784
0.637109	1.677186
0.637207	1.676721
0.637305	1.676289
0.637402	1.675818
0.637500	1.675373
0.637598	1.674976
0.637695	1.674684
0.637793	1.674463
0.637891	1.674144
0.637988	1.673825
0.638086	1.673705
0.638184	1.673459
0.638281	1.673306
0.638379	1.673192
0.638477	1.673018
0.638574	1.673026
0.638672	1.672972
0.638770	1.672931
0.638867	1.672998
0.638965	1.673028
0.639062	1.673150
0.639160	1.673222
0.639258	1.673326
0.639355	1.673465
0.639453	1.673636
0.639551	1.673864
0.639648	1.674025
0.639746	1.674265
0.639844	1.674535
0.639941	1.674812
0.640039	1.675029
0.640137	1.675227
0.640234	1.675449
0.640332	1.675719
0.640430	1.675902
0.640527	1.676103
0.640625	1.676282
0.640723	1.676305
0.640820	1.676401
0.640918	1.676525
0.641016	1.676568
0.641113	1.676577
0.641211	1.676623
0.641309	1.676657
0.641406	1.676705
0.641504	1.676835
0.641602	1.676942
0.641699	1.676929
0.641797	1.677098
0.641895	1.677169
0.641992	1.677292
0.642090	1.677411
0.642187	1.677678
0.642285	1.677883
0.642383	1.678115
0.642480	1.678260
0.642578	1.678518
0.642676	1.678764
0.642773	1.678950
0.642871	1.679260
0.642969	1.679328
0.643066	1.679547
0.643164	1.679757
0.643262	1.679915
0.643359	1.679974
0.643457	1.680054
0.643555	1.680044
0.643652	1.679989
0.643750	1.679921
0.643848	1.679771
0.643945	1.679558
0.644043	1.679289
0.644141	1.678932
0.644238	1.678588
0.644336	1.678269
0.644434	1.677910
0.644531	1.677503
0.644629	1.677045
0.644727	1.676695
0.644824	1.676253
0.644922	1.675840
0.645020	1.675406
0.645117	1.675046
0.645215	1.674609
0.645312	1.674397
0.645410	1.674096
0.645508	1.673847
0.645605	1.673645
0.645703	1.673463
0.645801	1.673416
0.645898	1.673317
0.645996	1.673293
0.646094	1.673406
0.646191	1.673525
0.646289	1.673636
0.646387	1.673808
0.646484	1.674070
0.646582	1.674269
0.646680	1.674512
0.646777	1.674818
0.646875	1.674927
0.646973	1.675387
0.647070	1.675664
0.647168	1.675993
0.647266	1.676371
0.647363	1.676633
0.647461	1.676992
0.647559	1.677275
0.647656	1.677643
0.647754	1.677944
0.647852	1.678192
0.647949	1.678453
0.648047	1.678699
0.648145	1.678974
0.648242	1.679207
0.648340	1.679388
0.648437	1.679632
0.648535	1.679838
0.648633	1.680104
0.648730	1.680330
0.648828	1.680653
0.648926	1.680890
0.649023	1.681213
0.649121	1.681528
0.649219	1.681904
0.649316	1.682266
0.649414	1.682668
0.649512	1.683163
0.649609	1.683805
0.649707	1.684309
0.649805	1.684858
0.649902	1.685344
0.650000	1.685819
0.650098	1.686216
0.650195	1.686562
0.650293	1.686906
0.650391	1.686993
0.650488	1.687075
0.650586	1.686947
0.650684	1.686378
0.650781	1.685400
0.650879	1.684275
0.650977	1.683380
0.651074	1.682891
0.651172	1.682545
0.651270	1.682175
0.651367	1.681995
0.651465	1.681868
0.651562	1.681845
0.651660	1.682027
0.651758	1.682133
0.651855	1.682385
0.651953	1.682530
0.652051	1.682424
0.652148	1.682513
0.652246	1.682377
0.652344	1.682119
0.652441	1.681943
0.652539	1.681735
0.652637	1.681572
0.652734	1.681534
0.652832	1.681462
0.652930	1.681496
0.653027	1.681494
0.653125	1.681538
0.653223	1.681388
0.653320	1.681441
0.653418	1.681240
0.653516	1.681238
0.653613	1.681154
0.653711	1.681077
0.653809	1.681084
0.653906	1.681077
0.654004	1.681107
0.654102	1.681125
0.654199	1.681190
0.654297	1.681190
0.654395	1.681289
0.654492	1.681333
0.654590	1.681323
0.654687	1.681514
0.654785	1.681580
0.654883	1.681739
0.654980	1.681893
0.655078	1.682109
0.655176	1.682417
0.655273	1.682565
0.655371	1.682806
0.655469	1.682891
0.655566	1.682846
0.655664	1.682898
0.655762	1.682958
0.655859	1.682962
0.655957	1.683055
0.656055	1.683188
0.656152	1.683247
0.656250	1.683457
0.656348	1.683445
0.656445	1.683570
0.656543	1.683499
0.656641	1.683556
0.656738	1.683404
0.656836	1.683291
0.656934	1.683026
0.657031	1.682812
0.657129	1.682534
0.657227	1.682202
0.657324	1.681804
0.657422	1.681401
0.657520	1.680799
0.657617	1.680224
0.657715	1.679534
0.657812	1.678703
0.657910	1.677889
0.658008	1.676937
0.658105	1.675891
0.658203	1.674849
0.658301	1.673702
0.658398	1.672594
0.658496	1.671497
0.658594	1.670442
0.658691	1.669408
0.658789	1.668467
0.658887	1.667653
0.658984	1.666954
0.659082	1.666243
0.659180	1.665612
0.659277	1.665233
0.659375	1.664919
0.659473	1.664626
0.659570	1.664525
0.659668	1.664460
0.659766	1.664438
0.659863	1.664515
0.659961	1.664645
0.660059	1.664665
0.660156	1.664843
0.660254	1.665139
0.660352	1.665354
0.660449	1.665651
0.660547	1.665986
0.660645	1.666353
0.660742	1.666720
0.660840	1.667113
0.660937	1.667580
0.661035	1.668188
0.661133	1.668566
0.661230	1.669212
0.661328	1.669642
0.661426	1.670222
0.661523	1.670790
0.661621	1.671523
0.661719	1.672092
0.661816	1.672727
0.661914	1.673335
0.662012	1.673952
0.662109	1.674699
0.662207	1.675431
0.662305	1.676153
0.662402	1.676917
0.662500	1.677691
0.662598	1.678390
0.662695	1.679163
0.662793	1.679905
0.662891	1.680619
0.662988	1.681319
0.663086	1.682042
0.663184	1.682678
0.663281	1.683332
0.663379	1.683929
0.663477	1.684522
0.663574	1.685014
0.663672	1.685580
0.663770	1.686069
0.663867	1.686509
0.663965	1.687080
0.664062	1.687501
0.664160	1.688014
0.664258	1.688444
0.664355	1.688861
0.664453	1.689258
0.664551	1.689691
0.664648	1.690076
0.664746	1.690508
0.664844	1.690933
0.664941	1.691200
0.665039	1.691565
0.665137	1.691848
0.665234	1.692138
0.665332	1.692394
0.665430	1.692777
0.665527	1.692877
0.665625	1.693188
0.665723	1.693260
0.665820	1.693404
0.665918	1.693357
0.666016	1.693445
0.666113	1.693265
0.666211	1.693153
0.666309	1.692919
0.666406	1.692383
0.666504	1.691861
0.666602	1.691217
0.666699	1.690386
0.666797	1.689534
0.666895	1.688671
0.666992	1.687769
0.667090	1.686894
0.667187	1.685979
0.667285	1.685273
0.667383	1.684530
0.667480	1.683922
0.667578	1.683248
0.667676	1.682538
0.667773	1.681970
0.667871	1.681470
0.667969	1.680777
0.668066	1.680179
0.668164	1.679520
0.668262	1.678909
0.668359	1.678182
0.668457	1.677427
0.668555	1.676641
0.668652	1.675847
0.668750	1.675019
0.668848	1.674188
0.668945	1.673361
0.669043	1.672495
0.669141	1.671624
0.669238	1.670755
0.669336	1.669913
0.669434	1.669105
0.669531	1.668383
0.669629	1.667629
0.669727	1.666919
0.669824	1.666386
0.669922	1.665721
0.670020	1.665150
0.670117	1.664610
0.670215	1.664059
0.670312	1.663662
0.670410	1.663266
0.670508	1.662837
0.670605	1.662595
0.670703	1.662270
0.670801	1.662024
0.670898	1.661814
0.670996	1.661682
0.671094	1.661556
0.671191	1.661388
0.671289	1.661355
0.671387	1.661348
0.671484	1.661332
0.671582	1.661288
0.671680	1.661352
0.671777	1.661454
0.671875	1.661509
0.671973	1.661600
0.672070	1.661617
0.672168	1.661914
0.672266	1.662082
0.672363	1.662310
0.672461	1.662578
0.672559	1.662689
0.672656	1.663055
0.672754	1.663339
0.672852	1.663635
0.672949	1.663997
0.673047	1.664292
0.673145	1.664640
0.673242	1.664969
0.673340	1.665294
0.673437	1.665686
0.673535	1.665926
0.673633	1.666298
0.673730	1.666508
0.673828	1.666833
0.673926	1.666962
0.674023	1.667243
0.674121	1.667336
0.674219	1.667520
0.674316	1.667726
0.674414	1.667799
0.674512	1.667965
0.674609	1.668012
0.674707	1.668122
0.674805	1.668209
0.674902	1.668259
0.675000	1.668242
0.675098	1.668355
0.675195	1.668382
0.675293	1.668418
0.675391	1.668399
0.675488	1.668469
0.675586	1.668497
0.675684	1.668606
0.675781	1.668681
0.675879	1.668768
0.675977	1.668953
0.676074	1.669060
0.676172	1.669228
0.676270	1.669332
0.676367	1.669501
0.676465	1.669740
0.676562	1.669807
0.676660	1.669985
0.676758	1.670115
0.676855	1.670280
0.676953	1.670409
0.677051	1.670462
0.677148	1.670689
0.677246	1.670773
0.677344	1.670961
0.677441	1.671016
0.677539	1.671166
0.677637	1.671184
0.677734	1.671347
0.677832	1.671394
0.677930	1.671356
0.678027	1.671451
0.678125	1.671511
0.678223	1.671486
0.678320	1.671567
0.678418	1.671492
0.678516	1.671434
0.678613	1.671416
0.678711	1.671331
0.678809	1.671156
0.678906	1.671191
0.679004	1.671079
0.679102	1.671058
0.679199	1.670965
0.679297	1.670932
0.679395	1.670971
0.679492	1.671049
0.679590	1.671135
0.679687	1.671310
0.679785	1.671472
0.679883	1.671821
0.679980	1.671927
0.680078	1.672178
0.680176	1.672374
0.680273	1.672765
0.680371	1.673091
0.680469	1.673425
0.680566	1.673883
0.680664	1.674240
0.680762	1.674612
0.680859	1.675116
0.680957	1.675574
0.681055	1.675996
0.681152	1.676517
0.681250	1.676914
0.681348	1.677403
0.681445	1.677867
0.681543	1.678410
0.681641	1.678885
0.681738	1.679323
0.681836	1.679811
0.681934	1.680263
0.682031	1.680746
0.682129	1.681264
0.682227	1.681788
0.682324	1.682337
0.682422	1.682836
0.682520	1.683336
0.682617	1.683772
0.682715	1.684209
0.682812	1.684603
0.682910	1.684858
0.683008	1.685076
0.683105	1.685203
0.683203	1.685181
0.683301	1.685034
0.683398	1.684748
0.683496	1.684541
0.683594	1.684128
0.683691	1.683880
0.683789	1.683611
0.683887	1.683324
0.683984	1.683041
0.684082	1.682740
0.684180	1.682485
0.684277	1.682223
0.684375	1.681848
0.684473	1.681607
0.684570	1.681338
0.684668	1.681041
0.684766	1.680915
0.684863	1.680594
0.684961	1.680566
0.685059	1.680343
0.685156	1.680254
0.685254	1.680076
0.685352	1.680049
0.685449	1.679971
0.685547	1.679906
0.685645	1.679890
0.685742	1.679990
0.685840	1.679951
0.685937	1.680018
0.686035	1.679958
0.686133	1.680019
0.686230	1.679897
0.686328	1.679653
0.686426	1.679014
0.686523	1.678286
0.686621	1.677245
0.686719	1.676290
0.686816	1.675281
0.686914	1.674442
0.687012	1.673745
0.687109	1.673122
0.687207	1.672547
0.687305	1.672077
0.687402	1.671511
0.687500	1.670978
0.687598	1.670484
0.687695	1.669928
0.687793	1.669429
0.687891	1.668862
0.687988	1.668127
0.688086	1.667682
0.688184	1.667096
0.688281	1.666602
0.688379	1.666099
0.688477	1.665715
0.688574	1.665298
0.688672	1.664908
0.688770	1.664639
0.688867	1.664333
0.688965	1.664169
0.689062	1.663959
0.689160	1.663818
0.689258	1.663624
0.689355	1.663605
0.689453	1.663477
0.689551	1.663530
0.689648	1.663579
0.689746	1.663660
0.689844	1.663703
0.689941	1.663860
0.690039	1.663949
0.690137	1.664008
0.690234	1.664204
0.690332	1.664421
0.690430	1.664572
0.690527	1.664792
0.690625	1.665047
0.690723	1.665259
0.690820	1.665457
0.690918	1.665805
0.691016	1.666065
0.691113	1.666281
0.691211	1.666550
0.691309	1.666894
0.691406	1.667177
0.691504	1.667522
0.691602	1.667893
0.691699	1.668249
0.691797	1.668634
0.691895	1.668942
0.691992	1.669297
0.692090	1.669643
0.692187	1.670182
0.692285	1.670663
0.692383	1.671112
0.692480	1.671660
0.692578	1.672145
0.692676	1.672657
0.692773	1.673179
0.692871	1.673738
0.692969	1.674284
0.693066	1.675013
0.693164	1.675669
0.693262	1.676287
0.693359	1.676945
0.693457	1.677679
0.693555	1.678359
0.693652	1.679066
0.693750	1.679763
0.693848	1.680472
0.693945	1.681190
0.694043	1.681901
0.694141	1.682736
0.694238	1.683475
0.694336	1.684371
0.694434	1.685120
0.694531	1.686146
0.694629	1.686940
0.694727	1.687873
0.694824	1.688839
0.694922	1.689855
0.695020	1.690835
0.695117	1.692000
0.695215	1.693045
0.695312	1.694260
0.695410	1.695270
0.695508	1.696056
0.695605	1.696540
0.695703	1.697019
0.695801	1.697702
0.695898	1.698510
0.695996	1.699212
0.696094	1.699956
0.696191	1.700697
0.696289	1.701288
0.696387	1.701725
0.696484	1.701918
0.696582	1.702179
0.696680	1.702674
0.696777	1.702699
0.696875	1.701500
0.696973	1.699419
0.697070	1.696653
0.697168	1.692940
0.697266	1.688933
0.697363	1.685599
0.697461	1.682951
0.697559	1.681128
0.697656	1.679791
0.697754	1.678950
0.697852	1.678309
0.697949	1.677665
0.698047	1.677357
0.698145	1.677026
0.698242	1.676841
0.698340	1.676618
0.698437	1.676474
0.698535	1.676440
0.698633	1.676313
0.698730	1.676322
0.698828	1.676317
0.698926	1.676315
0.699023	1.676315
0.699121	1.676353
0.699219	1.676294
0.699316	1.676314
0.699414	1.676268
0.699512	1.676323
0.699609	1.676358
0.699707	1.676401
0.699805	1.676390
0.699902	1.676267
0.700000	1.676225
0.700098	1.676128
0.700195	1.676018
0.700293	1.675849
0.700391	1.675742
0.700488	1.675573
0.700586	1.675409
0.700684	1.675195
0.700781	1.674956
0.700879	1.674678
0.700977	1.674513
0.701074	1.674299
0.701172	1.674077
0.701270	1.673824
0.701367	1.673631
0.701465	1.673302
0.701562	1.672990
0.701660	1.672814
0.701758	1.672590
0.701855	1.672331
0.701953	1.672043
0.702051	1.671719
0.702148	1.671532
0.702246	1.671341
0.702344	1.671125
0.702441	1.670916
0.702539	1.670734
0.702637	1.670533
0.702734	1.670437
0.702832	1.670271
0.702930	1.670228
0.703027	1.670077
0.703125	1.670021
0.703223	1.669867
0.703320	1.669917
0.703418	1.669901
0.703516	1.669822
0.703613	1.669884
0.703711	1.669932
0.703809	1.669974
0.703906	1.670083
0.704004	1.670091
0.704102	1.670165
0.704199	1.670359
0.704297	1.670395
0.704395	1.670631
0.704492	1.670734
0.704590	1.671008
0.704687	1.671084
0.704785	1.671282
0.704883	1.671445
0.704980	1.671688
0.705078	1.671829
0.705176	1.672033
0.705273	1.672249
0.705371	1.672428
0.705469	1.672620
0.705566	1.672909
0.705664	1.673159
0.705762	1.673529
0.705859	1.673897
0.705957	1.674337
0.706055	1.674847
0.706152	1.675348
0.706250	1.675977
0.706348	1.676625
0.706445	1.677288
0.706543	1.678083
0.706641	1.678873
0.706738	1.679554
0.706836	1.680447
0.706934	1.681191
0.707031	1.682064
0.707129	1.682778
0.707227	1.683485
0.707324	1.684280
0.707422	1.684998
0.707520	1.685762
0.707617	1.686568
0.707715	1.687269
0.707812	1.688006
0.707910	1.688539
0.708008	1.689082
0.708105	1.689536
0.708203	1.689981
0.708301	1.690289
0.708398	1.690650
0.708496	1.690837
0.708594	1.691151
0.708691	1.691183
0.708789	1.691218
0.708887	1.691198
0.708984	1.691079
0.709082	1.691081
0.709180	1.690826
0.709277	1.690729
0.709375	1.690519
0.709473	1.690364
0.709570	1.690180
0.709668	1.690036
0.709766	1.689896
0.709863	1.689599
0.709961	1.689444
0.710059	1.689160
0.710156	1.688978
0.710254	1.688816
0.710352	1.688664
0.710449	1.688707
0.710547	1.688701
0.710645	1.688834
0.710742	1.689074
0.710840	1.689434
0.710937	1.689887
0.711035	1.690192
0.711133	1.690239
0.711230	1.689880
0.711328	1.688913
0.711426	1.687707
0.711523	1.686793
0.711621	1.686349
0.711719	1.685986
0.711816	1.685273
0.711914	1.684315
0.712012	1.682724
0.712109	1.681385
0.712207	1.680462
0.712305	1.679672
0.712402	1.678915
0.712500	1.678273
0.712598	1.677706
0.712695	1.677319
0.712793	1.676810
0.712891	1.676321
0.712988	1.675807
0.713086	1.675274
0.713184	1.674518
0.713281	1.673679
0.713379	1.672816
0.713477	1.671943
0.713574	1.671034
0.713672	1.670326
0.713770	1.669661
0.713867	1.668936
0.713965	1.668298
0.714062	1.667573
0.714160	1.667035
0.714258	1.666439
0.714355	1.665933
0.714453	1.665410
0.714551	1.664869
0.714648	1.664432
0.714746	1.664032
0.714844	1.663502
0.714941	1.663053
0.715039	1.662722
0.715137	1.662320
0.715234	1.661863
0.715332	1.661585
0.715430	1.661183
0.715527	1.660825
0.715625	1.660542
0.715723	1.660241
0.715820	1.659928
0.715918	1.659631
0.716016	1.659475
0.716113	1.659259
0.716211	1.659070
0.716309	1.658914
0.716406	1.658769
0.716504	1.658628
0.716602	1.658533
0.716699	1.658475
0.716797	1.658414
0.716895	1.658394
0.716992	1.658397
0.717090	1.658319
0.717187	1.658438
0.717285	1.658491
0.717383	1.658520
0.717480	1.658729
0.717578	1.658806
0.717676	1.659076
0.717773	1.659160
0.717871	1.659363
0.717969	1.659558
0.718066	1.659812
0.718164	1.660077
0.718262	1.660315
0.718359	1.660651
0.718457	1.660930
0.718555	1.661192
0.718652	1.661528
0.718750	1.661886
0.718848	1.662136
0.718945	1.662431
0.719043	1.662682
0.719141	1.662818
0.719238	1.663181
0.719336	1.663413
0.719434	1.663639
0.719531	1.663936
0.719629	1.664169
0.719727	1.664519
0.719824	1.664820
0.719922	1.665100
0.720020	1.665422
0.720117	1.665667
0.720215	1.666057
0.720312	1.666303
0.720410	1.666670
0.720508	1.666930
0.720605	1.667169
0.720703	1.667481
0.720801	1.667799
0.720898	1.668148
0.720996	1.668399
0.721094	1.668727
0.721191	1.668941
0.721289	1.669181
0.721387	1.669476
0.721484	1.669647
0.721582	1.669836
0.721680	1.669991
0.721777	1.670117
0.721875	1.670242
0.721973	1.670388
0.722070	1.670437
0.722168	1.670712
0.722266	1.670859
0.722363	1.670976
0.722461	1.671198
0.722559	1.671356
0.722656	1.671578
0.722754	1.671879
0.722852	1.672201
0.722949	1.672384
0.723047	1.672729
0.723145	1.673001
0.723242	1.673375
0.723340	1.673754
0.723437	1.674064
0.723535	1.674445
0.723633	1.674783
0.723730	1.675115
0.723828	1.675478
0.723926	1.675800
0.724023	1.676039
0.724121	1.676355
0.724219	1.676661
0.724316	1.676846
0.724414	1.677142
0.724512	1.677360
0.724609	1.677439
0.724707	1.677764
0.724805	1.677881
0.724902	1.677993
0.725000	1.678203
0.725098	1.678272
0.725195	1.678488
0.725293	1.678714
0.725391	1.678858
0.725488	1.679162
0.725586	1.679335
0.725684	1.679580
0.725781	1.679838
0.725879	1.680131
0.725977	1.680395
0.726074	1.680676
0.726172	1.680920
0.726270	1.681126
0.726367	1.681303
0.726465	1.681422
0.726562	1.681618
0.726660	1.681686
0.726758	1.681641
0.726855	1.681659
0.726953	1.681564
0.727051	1.681528
0.727148	1.681364
0.727246	1.681148
0.727344	1.680960
0.727441	1.680772
0.727539	1.680423
0.727637	1.680129
0.727734	1.679774
0.727832	1.679258
0.727930	1.678692
0.728027	1.678352
0.728125	1.677785
0.728223	1.677297
0.728320	1.676791
0.728418	1.676151
0.728516	1.675597
0.728613	1.674966
0.728711	1.674364
0.728809	1.673775
0.728906	1.673050
0.729004	1.672398
0.729102	1.671812
0.729199	1.671046
0.729297	1.670434
0.729395	1.669826
0.729492	1.669225
0.729590	1.668702
0.729687	1.668265
0.729785	1.667654
0.729883	1.667193
0.729980	1.666794
0.730078	1.666334
0.730176	1.665917
0.730273	1.665473
0.730371	1.665243
0.730469	1.664933
0.730566	1.664631
0.730664	1.664341
0.730762	1.664129
0.730859	1.663907
0.730957	1.663767
0.731055	1.663683
0.731152	1.663545
0.731250	1.663360
0.731348	1.663337
0.731445	1.663222
0.731543	1.663196
0.731641	1.663229
0.731738	1.663138
0.731836	1.663163
0.731934	1.663137
0.732031	1.663065
0.732129	1.663153
0.732227	1.663260
0.732324	1.663339
0.732422	1.663265
0.732520	1.663296
0.732617	1.663269
0.732715	1.663347
0.732812	1.663333
0.732910	1.663334
0.733008	1.663328
0.733105	1.663391
0.733203	1.663376
0.733301	1.663353
0.733398	1.663355
0.733496	1.663365
0.733594	1.663419
0.733691	1.663455
0.733789	1.663401
0.733887	1.663519
0.733984	1.663502
0.734082	1.663547
0.734180	1.663574
0.734277	1.663682
0.734375	1.663746
0.734473	1.663863
0.734570	1.663954
0.734668	1.664014
0.734766	1.664225
0.734863	1.664411
0.734961	1.664538
0.735059	1.664773
0.735156	1.664886
0.735254	1.665261
0.735352	1.665376
0.735449	1.665637
0.735547	1.665914
0.735645	1.666138
0.735742	1.666437
0.735840	1.666713
0.735937	1.667021
0.736035	1.667335
0.736133	1.667694
0.736230	1.668008
0.736328	1.668287
0.736426	1.668727
0.736523	1.669000
0.736621	1.669296
0.736719	1.669579
0.736816	1.669904
0.736914	1.670222
0.737012	1.670472
0.737109	1.670755
0.737207	1.671076
0.737305	1.671174
0.737402	1.671505
0.737500	1.671782
0.737598	1.671934
0.737695	1.672246
0.737793	1.672509
0.737891	1.672762
0.737988	1.673092
0.738086	1.673357
0.738184	1.673724
0.738281	1.673996
0.738379	1.674326
0.738477	1.674686
0.738574	1.675019
0.738672	1.675351
0.738770	1.675721
0.738867	1.676138
0.738965	1.676388
0.739062	1.676755
0.739160	1.676961
0.739258	1.677236
0.739355	1.677403
0.739453	1.677553
0.739551	1.677772
0.739648	1.677808
0.739746	1.677942
0.739844	1.677917
0.739941	1.677877
0.740039	1.677823
0.740137	1.677555
0.740234	1.677362
0.740332	1.677061
0.740430	1.676837
0.740527	1.676541
0.740625	1.676369
0.740723	1.676136
0.740820	1.675880
0.740918	1.675687
0.741016	1.675603
0.741113	1.675328
0.741211	1.675166
0.741309	1.674850
0.741406	1.674726
0.741504	1.674344
0.741602	1.673998
0.741699	1.673505
0.741797	1.673028
0.741895	1.672677
0.741992	1.672090
0.742090	1.671682
0.742187	1.671271
0.742285	1.670818
0.742383	1.670396
0.742480	1.669885
0.742578	1.669387
0.742676	1.668837
0.742773	1.668382
0.742871	1.667751
0.742969	1.667310
0.743066	1.666643
0.743164	1.666180
0.743262	1.665606
0.743359	1.664997
0.743457	1.664521
0.743555	1.664020
0.743652	1.663474
0.743750	1.663038
0.743848	1.662582
0.743945	1.662190
0.744043	1.661804
0.744141	1.661456
0.744238	1.661187
0.744336	1.660939
0.744434	1.660635
0.744531	1.660557
0.744629	1.660292
0.744727	1.660111
0.744824	1.659996
0.744922	1.659871
0.745020	1.659720
0.745117	1.659771
0.745215	1.659751
0.745312	1.659672
0.745410	1.659729
0.745508	1.659672
0.745605	1.659817
0.745703	1.659803
0.745801	1.659861
0.745898	1.659867
0.745996	1.659937
0.746094	1.659962
0.746191	1.660092
0.746289	1.660053
0.746387	1.660252
0.746484	1.660359
0.746582	1.660530
0.746680	1.660682
0.746777	1.660714
0.746875	1.660927
0.746973	1.661094
0.747070	1.661235
0.747168	1.661462
0.747266	1.661698
0.747363	1.661854
0.747461	1.662053
0.747559	1.662353
0.747656	1.662534
0.747754	1.662804
0.747852	1.663078
0.747949	1.663292
0.748047	1.663582
0.748145	1.663867
0.748242	1.664219
0.748340	1.664521
0.748437	1.664826
0.748535	1.665111
0.748633	1.665394
0.748730	1.665811
0.748828	1.666135
0.748926	1.666525
0.749023	1.666861
0.749121	1.667229
0.749219	1.667614
0.749316	1.667977
0.749414	1.668280
0.749512	1.668722
0.749609	1.669197
0.749707	1.669585
0.749805	1.669944
0.749902	1.670403
0.750000	1.670713
0.750098	1.671034
0.750195	1.671339
0.750293	1.671621
0.750391	1.671984
0.750488	1.672184
0.750586	1.672484
0.750684	1.672697
0.750781	1.672933
0.750879	1.673084
0.750977	1.673297
0.751074	1.673400
0.751172	1.673661
0.751270	1.673789
0.751367	1.674000
0.751465	1.674218
0.751562	1.674424
0.751660	1.674642
0.751758	1.674816
0.751855	1.675207
0.751953	1.675234
0.752051	1.675492
0.752148	1.675855
0.752246	1.676381
0.752344	1.676661
0.752441	1.677053
0.752539	1.677521
0.752637	1.677931
0.752734	1.678363
0.752832	1.678842
0.752930	1.679346
0.753027	1.679835
0.753125	1.680431
0.753223	1.681032
0.753320	1.681622
0.753418	1.682287
0.753516	1.682854
0.753613	1.683413
0.753711	1.683949
0.753809	1.684404
0.753906	1.684857
0.754004	1.685218
0.754102	1.685413
0.754199	1.685764
0.754297	1.685904
0.754395	1.686059
0.754492	1.686148
0.754590	1.686286
0.754687	1.686432
0.754785	1.686449
0.754883	1.686571
0.754980	1.686656
0.755078	1.686743
0.755176	1.686829
0.755273	1.686850
0.755371	1.686811
0.755469	1.686760
0.755566	1.686594
0.755664	1.686460
0.755762	1.686296
0.755859	1.686184
0.755957	1.685995
0.756055	1.685908
0.756152	1.685740
0.756250	1.685688
0.756348	1.685591
0.756445	1.685559
0.756543	1.685624
0.756641	1.685599
0.756738	1.685550
0.756836	1.685536
0.756934	1.685521
0.757031	1.685337
0.757129	1.685281
0.757227	1.685161
0.757324	1.684910
0.757422	1.684669
0.757520	1.684065
0.757617	1.683307
0.757715	1.682161
0.757812	1.680953
0.757910	1.679652
0.758008	1.678506
0.758105	1.677512
0.758203	1.676530
0.758301	1.675774
0.758398	1.675095
0.758496	1.674449
0.758594	1.673955
0.758691	1.673482
0.758789	1.673136
0.758887	1.672704
0.758984	1.672536
0.759082	1.672280
0.759180	1.671927
0.759277	1.671753
0.759375	1.671629
0.759473	1.671412
0.759570	1.671398
0.759668	1.671305
0.759766	1.671163
0.759863	1.671177
0.759961	1.671120
0.760059	1.671127
0.760156	1.671155
0.760254	1.671214
0.760352	1.671296
0.760449	1.671440
0.760547	1.671558
0.760645	1.671782
0.760742	1.671964
0.760840	1.672165
0.760937	1.672475
0.761035	1.672789
0.761133	1.673220
0.761230	1.673521
0.761328	1.673828
0.761426	1.674275
0.761523	1.674700
0.761621	1.675133
0.761719	1.675506
0.761816	1.675974
0.761914	1.676360
0.762012	1.676712
0.762109	1.677153
0.762207	1.677616
0.762305	1.677961
0.762402	1.678329
0.762500	1.678708
0.762598	1.679022
0.762695	1.679307
0.762793	1.679605
0.762891	1.679866
0.762988	1.680020
0.763086	1.680276
0.763184	1.680323
0.763281	1.680472
0.763379	1.680570
0.763477	1.680651
0.763574	1.680741
0.763672	1.680793
0.763770	1.680760
0.763867	1.680855
0.763965	1.681037
0.764062	1.681163
0.764160	1.681217
0.764258	1.681383
0.764355	1.681655
0.764453	1.681831
0.764551	1.682081
0.764648	1.682347
0.764746	1.682712
0.764844	1.682989
0.764941	1.683304
0.765039	1.683749
0.765137	1.684012
0.765234	1.684406
0.765332	1.684662
0.765430	1.685052
0.765527	1.685416
0.765625	1.685714
0.765723	1.685960
0.765820	1.686166
0.765918	1.686458
0.766016	1.686675
0.766113	1.686797
0.766211	1.686953
0.766309	1.687137
0.766406	1.687114
0.766504	1.687193
0.766602	1.687246
0.766699	1.687211
0.766797	1.687117
0.766895	1.687053
0.766992	1.686886
0.767090	1.686696
0.767187	1.686491
0.767285	1.686205
0.767383	1.685842
0.767480	1.685589
0.767578	1.685198
0.767676	1.684935
0.767773	1.684607
0.767871	1.684324
0.767969	1.683946
0.768066	1.683701
0.768164	1.683348
0.768262	1.683109
0.768359	1.682870
0.768457	1.682620
0.768555	1.682301
0.768652	1.682031
0.768750	1.681853
0.768848	1.681550
0.768945	1.681225
0.769043	1.680934
0.769141	1.680635
0.769238	1.680354
0.769336	1.680137
0.769434	1.679841
0.769531	1.679745
0.769629	1.679424
0.769727	1.679407
0.769824	1.679194
0.769922	1.679085
0.770020	1.678916
0.770117	1.678812
0.770215	1.678751
0.770312	1.678593
0.770410	1.678602
0.770508	1.678504
0.770605	1.678419
0.770703	1.678401
0.770801	1.678299
0.770898	1.678294
0.770996	1.678191
0.771094	1.678057
0.771191	1.677866
0.771289	1.677708
0.771387	1.677583
0.771484	1.677205
0.771582	1.676966
0.771680	1.676713
0.771777	1.676464
0.771875	1.676288
0.771973	1.675984
0.772070	1.675758
0.772168	1.675719
0.772266	1.675625
0.772363	1.675576
0.772461	1.675525
0.772559	1.675706
0.772656	1.675769
0.772754	1.675977
0.772852	1.676131
0.772949	1.676495
0.773047	1.676741
0.773145	1.676984
0.773242	1.677451
0.773340	1.677809
0.773437	1.678122
0.773535	1.678514
0.773633	1.678966
0.773730	1.679366
0.773828	1.679885
0.773926	1.680257
0.774023	1.680564
0.774121	1.680655
0.774219	1.680469
0.774316	1.680251
0.774414	1.679841
0.774512	1.679489
0.774609	1.679130
0.774707	1.678794
0.774805	1.678432
0.774902	1.678297
0.775000	1.678153
0.775098	1.678001
0.775195	1.677693
0.775293	1.677382
0.775391	1.676860
0.775488	1.676398
0.775586	1.675774
0.775684	1.675147
0.775781	1.674593
0.775879	1.673903
0.775977	1.673316
0.776074	1.672720
0.776172	1.672168
0.776270	1.671597
0.776367	1.671167
0.776465	1.670736
0.776562	1.670273
0.776660	1.669898
0.776758	1.669560
0.776855	1.669306
0.776953	1.669042
0.777051	1.668749
0.777148	1.668549
0.777246	1.668347
0.777344	1.668175
0.777441	1.668103
0.777539	1.668038
0.777637	1.668039
0.777734	1.667978
0.777832	1.667957
0.777930	1.667990
0.778027	1.668068
0.778125	1.668191
0.778223	1.668313
0.778320	1.668427
0.778418	1.668574
0.778516	1.668820
0.778613	1.668892
0.778711	1.669081
0.778809	1.669178
0.778906	1.669242
0.779004	1.669407
0.779102	1.669481
0.779199	1.669561
0.779297	1.669690
0.779395	1.669675
0.779492	1.669851
0.779590	1.669898
0.779687	1.670085
0.779785	1.670202
0.779883	1.670441
0.779980	1.670569
0.780078	1.670855
0.780176	1.671023
0.780273	1.671213
0.780371	1.671573
0.780469	1.671856
0.780566	1.672085
0.780664	1.672375
0.780762	1.672674
0.780859	1.672807
0.780957	1.673023
0.781055	1.673088
0.781152	1.673260
0.781250	1.673239
0.781348	1.673313
0.781445	1.673107
0.781543	1.673078
0.781641	1.673094
0.781738	1.673022
0.781836	1.672826
0.781934	1.672642
0.782031	1.672566
0.782129	1.672452
0.782227	1.672345
0.782324	1.672297
0.782422	1.672267
0.782520	1.672302
0.782617	1.672314
0.782715	1.672516
0.782812	1.672650
0.782910	1.672930
0.783008	1.673289
0.783105	1.673511
0.783203	1.673920
0.783301	1.674404
0.783398	1.674867
0.783496	1.675393
0.783594	1.675888
0.783691	1.676436
0.783789	1.676970
0.783887	1.677587
0.783984	1.678117
0.784082	1.678634
0.784180	1.679148
0.784277	1.679667
0.784375	1.680129
0.784473	1.680576
0.784570	1.680920
0.784668	1.681302
0.784766	1.681709
0.784863	1.682023
0.784961	1.682369
0.785059	1.682803
0.785156	1.683269
0.785254	1.683684
0.785352	1.684065
0.785449	1.684588
0.785547	1.685184
0.785645	1.685721
0.785742	1.686327
0.785840	1.687020
0.785937	1.687600
0.786035	1.688245
0.786133	1.688755
0.786230	1.689238
0.786328	1.689668
0.786426	1.690062
0.786523	1.690513
0.786621	1.690822
0.786719	1.691219
0.786816	1.691454
0.786914	1.691707
0.787012	1.692075
0.787109	1.692487
0.787207	1.693024
0.787305	1.693674
0.787402	1.694604
0.787500	1.695512
0.787598	1.696590
0.787695	1.697658
0.787793	1.698522
0.787891	1.699090
0.787988	1.699246
0.788086	1.699328
0.788184	1.699144
0.788281	1.698889
0.788379	1.698480
0.788477	1.698044
0.788574	1.697639
0.788672	1.697074
0.788770	1.696625
0.788867	1.695999
0.788965	1.695084
0.789062	1.693825
0.789160	1.692066
0.789258	1.690088
0.789355	1.688108
0.789453	1.686227
0.789551	1.684602
0.789648	1.683296
0.789746	1.682256
0.789844	1.681486
0.789941	1.680760
0.790039	1.680367
0.790137	1.679866
0.790234	1.679658
0.790332	1.679514
0.790430	1.679318
0.790527	1.679306
0.790625	1.679146
0.790723	1.679002
0.790820	1.678930
0.790918	1.678865
0.791016	1.678684
0.791113	1.678429
0.791211	1.678095
0.791309	1.677731
0.791406	1.677335
0.791504	1.676685
0.791602	1.676176
0.791699	1.675555
0.791797	1.674756
0.791895	1.674045
0.791992	1.673133
0.792090	1.672378
0.792187	1.671641
0.792285	1.670739
0.792383	1.670058
0.792480	1.669182
0.792578	1.668473
0.792676	1.667894
0.792773	1.667201
0.792871	1.666678
0.792969	1.666260
0.793066	1.665896
0.793164	1.665730
0.793262	1.665418
0.793359	1.665345
0.793457	1.665324
0.793555	1.665249
0.793652	1.665413
0.793750	1.665536
0.793848	1.665787
0.793945	1.665999
0.794043	1.666274
0.794141	1.666702
0.794238	1.667043
0.794336	1.667465
0.794434	1.667876
0.794531	1.668332
0.794629	1.668806
0.794727	1.669208
0.794824	1.669700
0.794922	1.670199
0.795020	1.670566
0.795117	1.671055
0.795215	1.671406
0.795312	1.671726
0.795410	1.672093
0.795508	1.672362
0.795605	1.672706
0.795703	1.673036
0.795801	1.673255
0.795898	1.673569
0.795996	1.673770
0.796094	1.674070
0.796191	1.674197
0.796289	1.674463
0.796387	1.674664
0.796484	1.674860
0.796582	1.675066
0.796680	1.675285
0.796777	1.675481
0.796875	1.675715
0.796973	1.675949
0.797070	1.676074
0.797168	1.676353
0.797266	1.676610
0.797363	1.676970
0.797461	1.677196
0.797559	1.677529
0.797656	1.677883
0.797754	1.678268
0.797852	1.678649
0.797949	1.679035
0.798047	1.679435
0.798145	1.679830
0.798242	1.680318
0.798340	1.680602
0.798437	1.680967
0.798535	1.681195
0.798633	1.681513
0.798730	1.681632
0.798828	1.681781
0.798926	1.681869
0.799023	1.681995
0.799121	1.681866
0.799219	1.681786
0.799316	1.681666
0.799414	1.681527
0.799512	1.681334
0.799609	1.681234
0.799707	1.681018
0.799805	1.680874
0.799902	1.680735
0.800000	1.680538
0.800098	1.680483
0.800195	1.680420
0.800293	1.680353
0.800391	1.680406
0.800488	1.680516
0.800586	1.680472
0.800684	1.680588
0.800781	1.680658
0.800879	1.680885
0.800977	1.681003
0.801074	1.681280
0.801172	1.681501
0.801270	1.681765
0.801367	1.682015
0.801465	1.682372
0.801562	1.682715
0.801660	1.683118
0.801758	1.683604
0.801855	1.684040
0.801953	1.684674
0.802051	1.685187
0.802148	1.685987
0.802246	1.686706
0.802344	1.687462
0.802441	1.688166
0.802539	1.688856
0.802637	1.689628
0.802734	1.690302
0.802832	1.690994
0.802930	1.691627
0.803027	1.692353
0.803125	1.692962
0.803223	1.693486
0.803320	1.694046
0.803418	1.694592
0.803516	1.695051
0.803613	1.695548
0.803711	1.696003
0.803809	1.696423
0.803906	1.696720
0.804004	1.696942
0.804102	1.697141
0.804199	1.697161
0.804297	1.697049
0.804395	1.696890
0.804492	1.696756
0.804590	1.696606
0.804687	1.696451
0.804785	1.696309
0.804883	1.696147
0.804980	1.695924
0.805078	1.695700
0.805176	1.695494
0.805273	1.695162
0.805371	1.694871
0.805469	1.694371
0.805566	1.693820
0.805664	1.693188
0.805762	1.692525
0.805859	1.691803
0.805957	1.691227
0.806055	1.690723
0.806152	1.690233
0.806250	1.689913
0.806348	1.689754
0.806445	1.689557
0.806543	1.689480
0.806641	1.689335
0.806738	1.689057
0.806836	1.688756
0.806934	1.688272
0.807031	1.687755
0.807129	1.687114
0.807227	1.686478
0.807324	1.685844
0.807422	1.685388
0.807520	1.684746
0.807617	1.684243
0.807715	1.683960
0.807812	1.683542
0.807910	1.683227
0.808008	1.682982
0.808105	1.682843
0.808203	1.682781
0.808301	1.682551
0.808398	1.682318
0.808496	1.682158
0.808594	1.681877
0.808691	1.681663
0.808789	1.681378
0.808887	1.681081
0.808984	1.680791
0.809082	1.680502
0.809180	1.680253
0.809277	1.679845
0.809375	1.679567
0.809473	1.679217
0.809570	1.678854
0.809668	1.678554
0.809766	1.678056
0.809863	1.677466
0.809961	1.676668
0.810059	1.675807
0.810156	1.674792
0.810254	1.673521
0.810352	1.671889
0.810449	1.670230
0.810547	1.668579
0.810645	1.667370
0.810742	1.666483
0.810840	1.665843
0.810937	1.665427
0.811035	1.665153
0.811133	1.664934
0.811230	1.664787
0.811328	1.664834
0.811426	1.664842
0.811523	1.664877
0.811621	1.665171
0.811719	1.665478
0.811816	1.665700
0.811914	1.666035
0.812012	1.666370
0.812109	1.666799
0.812207	1.667356
0.812305	1.667746
0.812402	1.668288
0.812500	1.668645
0.812598	1.669051
0.812695	1.669416
0.812793	1.669812
0.812891	1.670094
0.812988	1.670346
0.813086	1.670638
0.813184	1.671007
0.813281	1.671179
0.813379	1.671545
0.813477	1.671808
0.813574	1.672083
0.813672	1.672555
0.813770	1.672885
0.813867	1.673466
0.813965	1.673945
0.814062	1.674587
0.814160	1.675211
0.814258	1.675921
0.814355	1.676693
0.814453	1.677540
0.814551	1.678379
0.814648	1.679284
0.814746	1.680187
0.814844	1.681140
0.814941	1.682034
0.815039	1.682957
0.815137	1.683918
0.815234	1.684813
0.815332	1.685523
0.815430	1.686228
0.815527	1.686822
0.815625	1.687332
0.815723	1.687712
0.815820	1.687975
0.815918	1.688351
0.816016	1.688423
0.816113	1.688384
0.816211	1.688279
0.816309	1.688011
0.816406	1.687587
0.816504	1.687145
0.816602	1.686661
0.816699	1.686129
0.816797	1.685608
0.816895	1.685124
0.816992	1.684512
0.817090	1.683990
0.817187	1.683329
0.817285	1.682753
0.817383	1.682084
0.817480	1.681364
0.817578	1.680696
0.817676	1.680032
0.817773	1.679312
0.817871	1.678656
0.817969	1.678019
0.818066	1.677366
0.818164	1.676738
0.818262	1.676171
0.818359	1.675650
0.818457	1.675110
0.818555	1.674630
0.818652	1.674255
0.818750	1.673764
0.818848	1.673294
0.818945	1.672863
0.819043	1.672466
0.819141	1.672023
0.819238	1.671730
0.819336	1.671293
0.819434	1.671024
0.819531	1.670723
0.819629	1.670476
0.819727	1.670290
0.819824	1.670098
0.819922	1.669868
0.820020	1.669757
0.820117	1.669636
0.820215	1.669518
0.820312	1.669483
0.820410	1.669481
0.820508	1.669526
0.820605	1.669571
0.820703	1.669676
0.820801	1.669708
0.820898	1.669848
0.820996	1.669982
0.821094	1.670075
0.821191	1.670256
0.821289	1.670365
0.821387	1.670525
0.821484	1.670698
0.821582	1.670855
0.821680	1.671041
0.821777	1.671288
0.821875	1.671437
0.821973	1.671629
0.822070	1.671794
0.822168	1.672197
0.822266	1.672388
0.822363	1.672670
0.822461	1.672896
0.822559	1.673120
0.822656	1.673316
0.822754	1.673453
0.822852	1.673637
0.822949	1.673713
0.823047	1.673722
0.823145	1.673795
0.823242	1.673731
0.823340	1.673672
0.823437	1.673519
0.823535	1.673295
0.823633	1.673139
0.823730	1.672884
0.823828	1.672593
0.823926	1.672282
0.824023	1.671968
0.824121	1.671481
0.824219	1.671105
0.824316	1.670596
0.824414	1.670180
0.824512	1.669709
0.824609	1.669238
0.824707	1.668856
0.824805	1.668463
0.824902	1.668075
0.825000	1.667632
0.825098	1.667243
0.825195	1.666948
0.825293	1.666521
0.825391	1.666340
0.825488	1.666048
0.825586	1.665714
0.825684	1.665560
0.825781	1.665360
0.825879	1.665208
0.825977	1.665102
0.826074	1.665133
0.826172	1.665034
0.826270	1.665118
0.826367	1.665189
0.826465	1.665318
0.826562	1.665464
0.826660	1.665686
0.826758	1.665889
0.826855	1.666202
0.826953	1.666451
0.827051	1.666897
0.827148	1.667260
0.827246	1.667675
0.827344	1.668139
0.827441	1.668616
0.827539	1.669066
0.827637	1.669689
0.827734	1.670138
0.827832	1.670738
0.827930	1.671340
0.828027	1.671857
0.828125	1.672533
0.828223	1.673175
0.828320	1.673832
0.828418	1.674438
0.828516	1.675115
0.828613	1.675750
0.828711	1.676477
0.828809	1.677078
0.828906	1.677734
0.829004	1.678488
0.829102	1.679053
0.829199	1.679633
0.829297	1.680131
0.829395	1.680741
0.829492	1.681272
0.829590	1.681630
0.829687	1.682083
0.829785	1.682349
0.829883	1.682425
0.829980	1.682672
0.830078	1.682672
0.830176	1.682743
0.830273	1.682785
0.830371	1.682673
0.830469	1.682606
0.830566	1.682522
0.830664	1.682300
0.830762	1.682276
0.830859	1.682161
0.830957	1.682010
0.831055	1.681951
0.831152	1.681903
0.831250	1.681919
0.831348	1.681810
0.831445	1.681743
0.831543	1.681674
0.831641	1.681557
0.831738	1.681449
0.831836	1.681267
0.831934	1.681107
0.832031	1.680823
0.832129	1.680821
0.832227	1.680833
0.832324	1.680792
0.832422	1.680758
0.832520	1.680832
0.832617	1.680932
0.832715	1.681063
0.832812	1.681295
0.832910	1.681508
0.833008	1.681856
0.833105	1.682173
0.833203	1.682522
0.833301	1.683075
0.833398	1.683528
0.833496	1.684163
0.833594	1.684785
0.833691	1.685818
0.833789	1.686714
0.833887	1.688265
0.833984	1.689640
0.834082	1.692144
0.834180	1.694387
0.834277	1.699471
0.834375	1.700097
0.834473	1.696886
0.834570	1.693093
0.834668	1.684976
0.834766	1.681839
0.834863	1.681276
0.834961	1.681879
0.835059	1.682266
0.835156	1.683254
0.835254	1.683832
0.835352	1.684451
0.835449	1.684683
0.835547	1.685038
0.835645	1.684999
0.835742	1.685089
0.835840	1.684959
0.835937	1.684935
0.836035	1.684769
0.836133	1.684662
0.836230	1.684458
0.836328	1.684481
0.836426	1.684352
0.836523	1.684365
0.836621	1.684313
0.836719	1.684080
0.836816	1.683813
0.836914	1.682981
0.837012	1.682045
0.837109	1.680884
0.837207	1.679783
0.837305	1.678798
0.837402	1.677959
0.837500	1.677045
0.837598	1.676296
0.837695	1.675481
0.837793	1.674660
0.837891	1.673925
0.837988	1.673369
0.838086	1.672943
0.838184	1.672682
0.838281	1.672552
0.838379	1.672513
0.838477	1.672448
0.838574	1.672700
0.838672	1.672873
0.838770	1.673167
0.838867	1.673416
0.838965	1.673772
0.839062	1.674083
0.839160	1.674493
0.839258	1.674868
0.839355	1.675273
0.839453	1.675822
0.839551	1.676349
0.839648	1.676915
0.839746	1.677490
0.839844	1.677994
0.839941	1.678491
0.840039	1.678863
0.840137	1.679116
0.840234	1.679390
0.840332	1.679472
0.840430	1.679516
0.840527	1.679600
0.840625	1.679561
0.840723	1.679656
0.840820	1.679786
0.840918	1.679880
0.841016	1.680035
0.841113	1.680032
0.841211	1.680194
0.841309	1.680176
0.841406	1.680321
0.841504	1.680357
0.841602	1.680449
0.841699	1.680470
0.841797	1.680536
0.841895	1.680570
0.841992	1.680442
0.842090	1.680463
0.842187	1.680406
0.842285	1.680261
0.842383	1.679976
0.842480	1.679821
0.842578	1.679763
0.842676	1.679700
0.842773	1.679745
0.842871	1.680008
0.842969	1.680110
0.843066	1.680517
0.843164	1.680902
0.843262	1.681330
0.843359	1.681797
0.843457	1.682316
0.843555	1.682864
0.843652	1.683379
0.843750	1.684074
0.843848	1.684826
0.843945	1.685589
0.844043	1.686532
0.844141	1.687269
0.844238	1.688157
0.844336	1.688891
0.844434	1.689569
0.844531	1.690012
0.844629	1.690432
0.844727	1.691111
0.844824	1.691977
0.844922	1.692775
0.845020	1.693419
0.845117	1.693767
0.845215	1.694029
0.845312	1.694155
0.845410	1.694102
0.845508	1.694126
0.845605	1.693990
0.845703	1.693845
0.845801	1.693857
0.845898	1.693697
0.845996	1.693705
0.846094	1.693732
0.846191	1.693945
0.846289	1.694257
0.846387	1.694541
0.846484	1.695009
0.846582	1.695374
0.846680	1.695603
0.846777	1.695756
0.846875	1.695660
0.846973	1.695415
0.847070	1.695200
0.847168	1.694982
0.847266	1.694849
0.847363	1.694593
0.847461	1.694337
0.847559	1.693977
0.847656	1.693342
0.847754	1.692418
0.847852	1.691258
0.847949	1.689943
0.848047	1.688892
0.848145	1.687732
0.848242	1.686626
0.848340	1.685585
0.848437	1.684526
0.848535	1.683377
0.848633	1.682330
0.848730	1.681408
0.848828	1.680578
0.848926	1.679959
0.849023	1.679492
0.849121	1.678992
0.849219	1.678575
0.849316	1.678336
0.849414	1.677986
0.849512	1.677938
0.849609	1.677818
0.849707	1.677791
0.849805	1.677852
0.849902	1.677859
0.850000	1.677961
0.850098	1.677959
0.850195	1.678100
0.850293	1.678189
0.850391	1.678423
0.850488	1.678473
0.850586	1.678553
0.850684	1.678662
0.850781	1.678593
0.850879	1.678531
0.850977	1.678338
0.851074	1.678168
0.851172	1.677809
0.851270	1.677446
0.851367	1.677197
0.851465	1.676675
0.851562	1.676256
0.851660	1.675826
0.851758	1.675222
0.851855	1.674706
0.851953	1.673999
0.852051	1.673434
0.852148	1.673011
0.852246	1.672584
0.852344	1.672028
0.852441	1.671463
0.852539	1.671013
0.852637	1.670437
0.852734	1.669962
0.852832	1.669622
0.852930	1.669040
0.853027	1.668618
0.853125	1.668230
0.853223	1.667713
0.853320	1.667359
0.853418	1.666967
0.853516	1.666475
0.853613	1.666033
0.853711	1.665754
0.853809	1.665330
0.853906	1.665012
0.854004	1.664580
0.854102	1.664250
0.854199	1.663901
0.854297	1.663527
0.854395	1.663286
0.854492	1.662984
0.854590	1.662720
0.854687	1.662432
0.854785	1.662281
0.854883	1.662049
0.854980	1.661902
0.855078	1.661776
0.855176	1.661723
0.855273	1.661725
0.855371	1.661573
0.855469	1.661642
0.855566	1.661602
0.855664	1.661587
0.855762	1.661683
0.855859	1.661664
0.855957	1.661696
0.856055	1.661820
0.856152	1.661878
0.856250	1.661924
0.856348	1.662035
0.856445	1.662154
0.856543	1.662271
0.856641	1.662357
0.856738	1.662517
0.856836	1.662654
0.856934	1.662797
0.857031	1.662988
0.857129	1.663121
0.857227	1.663419
0.857324	1.663554
0.857422	1.663915
0.857520	1.664081
0.857617	1.664421
0.857715	1.664831
0.857812	1.665227
0.857910	1.665609
0.858008	1.666067
0.858105	1.666528
0.858203	1.667081
0.858301	1.667661
0.858398	1.668182
0.858496	1.668890
0.858594	1.669518
0.858691	1.670135
0.858789	1.670892
0.858887	1.671487
0.858984	1.672154
0.859082	1.672813
0.859180	1.673440
0.859277	1.674026
0.859375	1.674543
0.859473	1.675149
0.859570	1.675689
0.859668	1.676141
0.859766	1.676633
0.859863	1.676979
0.859961	1.677292
0.860059	1.677575
0.860156	1.677757
0.860254	1.678070
0.860352	1.678296
0.860449	1.678466
0.860547	1.678725
0.860645	1.678953
0.860742	1.679157
0.860840	1.679353
0.860937	1.679739
0.861035	1.680040
0.861133	1.680431
0.861230	1.680770
0.861328	1.681039
0.861426	1.681560
0.861523	1.681953
0.861621	1.682315
0.861719	1.682811
0.861816	1.683337
0.861914	1.683777
0.862012	1.684274
0.862109	1.684965
0.862207	1.685571
0.862305	1.686239
0.862402	1.686842
0.862500	1.687470
0.862598	1.687933
0.862695	1.688440
0.862793	1.688841
0.862891	1.689239
0.862988	1.689442
0.863086	1.689740
0.863184	1.690053
0.863281	1.690160
0.863379	1.690387
0.863477	1.690608
0.863574	1.690757
0.863672	1.690951
0.863770	1.690935
0.863867	1.691074
0.863965	1.690958
0.864062	1.690950
0.864160	1.690617
0.864258	1.690294
0.864355	1.689910
0.864453	1.689527
0.864551	1.689038
0.864648	1.688654
0.864746	1.688308
0.864844	1.687780
0.864941	1.687303
0.865039	1.686554
0.865137	1.685640
0.865234	1.684436
0.865332	1.683038
0.865430	1.681460
0.865527	1.680050
0.865625	1.678596
0.865723	1.677256
0.865820	1.676020
0.865918	1.674827
0.866016	1.673668
0.866113	1.672579
0.866211	1.671492
0.866309	1.670488
0.866406	1.669423
0.866504	1.668546
0.866602	1.667618
0.866699	1.666751
0.866797	1.665886
0.866895	1.665077
0.866992	1.664356
0.867090	1.663687
0.867187	1.663048
0.867285	1.662417
0.867383	1.661864
0.867480	1.661413
0.867578	1.660887
0.867676	1.660442
0.867773	1.660106
0.867871	1.659782
0.867969	1.659500
0.868066	1.659233
0.868164	1.659112
0.868262	1.658796
0.868359	1.658730
0.868457	1.658676
0.868555	1.658565
0.868652	1.658556
0.868750	1.658408
0.868848	1.658492
0.868945	1.658483
0.869043	1.658519
0.869141	1.658482
0.869238	1.658475
0.869336	1.658419
0.869434	1.658500
0.869531	1.658492
0.869629	1.658548
0.869727	1.658579
0.869824	1.658589
0.869922	1.658563
0.870020	1.658513
0.870117	1.658478
0.870215	1.658484
0.870312	1.658530
0.870410	1.658510
0.870508	1.658605
0.870605	1.658578
0.870703	1.658672
0.870801	1.658738
0.870898	1.658890
0.870996	1.658895
0.871094	1.659068
0.871191	1.659121
0.871289	1.659193
0.871387	1.659327
0.871484	1.659302
0.871582	1.659272
0.871680	1.659302
0.871777	1.659238
0.871875	1.659237
0.871973	1.659075
0.872070	1.659126
0.872168	1.659163
0.872266	1.659094
0.872363	1.659144
0.872461	1.659068
0.872559	1.659230
0.872656	1.659208
0.872754	1.659339
0.872852	1.659452
0.872949	1.659566
0.873047	1.659798
0.873145	1.659995
0.873242	1.660350
0.873340	1.660547
0.873437	1.660967
0.873535	1.661300
0.873633	1.661748
0.873730	1.662094
0.873828	1.662616
0.873926	1.663050
0.874023	1.663607
0.874121	1.664081
0.874219	1.664615
0.874316	1.665191
0.874414	1.665754
0.874512	1.666348
0.874609	1.666833
0.874707	1.667386
0.874805	1.668018
0.874902	1.668547
0.875000	1.669119
0.875098	1.669590
0.875195	1.670136
0.875293	1.670563
0.875391	1.671032
0.875488	1.671449
0.875586	1.671968
0.875684	1.672347
0.875781	1.672682
0.875879	1.673112
0.875977	1.673433
0.876074	1.673781
0.876172	1.674161
0.876270	1.674528
0.876367	1.674795
0.876465	1.675182
0.876562	1.675599
0.876660	1.675937
0.876758	1.676333
0.876855	1.676679
0.876953	1.676949
0.877051	1.677425
0.877148	1.677660
0.877246	1.677948
0.877344	1.678310
0.877441	1.678489
0.877539	1.678746
0.877637	1.678884
0.877734	1.679039
0.877832	1.678980
0.877930	1.679066
0.878027	1.679020
0.878125	1.678977
0.878223	1.678848
0.878320	1.678776
0.878418	1.678593
0.878516	1.678368
0.878613	1.678191
0.878711	1.677892
0.878809	1.677701
0.878906	1.677321
0.879004	1.677145
0.879102	1.676773
0.879199	1.676489
0.879297	1.676154
0.879395	1.675747
0.879492	1.675574
0.879590	1.675237
0.879687	1.675030
0.879785	1.674748
0.879883	1.674373
0.879980	1.673986
0.880078	1.673659
0.880176	1.673232
0.880273	1.672871
0.880371	1.672520
0.880469	1.672092
0.880566	1.671648
0.880664	1.671284
0.880762	1.670919
0.880859	1.670520
0.880957	1.670245
0.881055	1.669899
0.881152	1.669629
0.881250	1.669311
0.881348	1.669226
0.881445	1.669023
0.881543	1.668975
0.881641	1.668925
0.881738	1.668895
0.881836	1.668893
0.881934	1.668961
0.882031	1.669012
0.882129	1.669288
0.882227	1.669434
0.882324	1.669735
0.882422	1.669906
0.882520	1.670213
0.882617	1.670412
0.882715	1.670647
0.882812	1.670968
0.882910	1.671152
0.883008	1.671431
0.883105	1.671644
0.883203	1.671880
0.883301	1.672195
0.883398	1.672394
0.883496	1.672588
0.883594	1.672822
0.883691	1.673072
0.883789	1.673304
0.883887	1.673480
0.883984	1.673698
0.884082	1.673984
0.884180	1.674135
0.884277	1.674390
0.884375	1.674794
0.884473	1.675029
0.884570	1.675341
0.884668	1.675569
0.884766	1.675871
0.884863	1.676104
0.884961	1.676353
0.885059	1.676580
0.885156	1.676799
0.885254	1.676943
0.885352	1.677198
0.885449	1.677234
0.885547	1.677390
0.885645	1.677411
0.885742	1.677427
0.885840	1.677339
0.885937	1.677102
0.886035	1.676831
0.886133	1.676314
0.886230	1.675888
0.886328	1.675267
0.886426	1.674590
0.886523	1.673878
0.886621	1.673146
0.886719	1.672477
0.886816	1.671891
0.886914	1.671232
0.887012	1.670735
0.887109	1.670316
0.887207	1.669901
0.887305	1.669620
0.887402	1.669319
0.887500	1.669084
0.887598	1.668959
0.887695	1.668917
0.887793	1.668805
0.887891	1.668806
0.887988	1.668831
0.888086	1.668888
0.888184	1.668902
0.888281	1.669044
0.888379	1.669084
0.888477	1.669282
0.888574	1.669330
0.888672	1.669517
0.888770	1.669559
0.888867	1.669722
0.888965	1.669831
0.889062	1.669878
0.889160	1.669862
0.889258	1.669882
0.889355	1.669933
0.889453	1.669923
0.889551	1.670015
0.889648	1.670111
0.889746	1.670147
0.889844	1.670224
0.889941	1.670257
0.890039	1.670378
0.890137	1.670511
0.890234	1.670644
0.890332	1.670855
0.890430	1.670998
0.890527	1.671159
0.890625	1.671475
0.890723	1.671729
0.890820	1.672026
0.890918	1.672383
0.891016	1.672673
0.891113	1.673084
0.891211	1.673278
0.891309	1.673676
0.891406	1.674033
0.891504	1.674290
0.891602	1.674686
0.891699	1.674939
0.891797	1.675246
0.891895	1.675481
0.891992	1.675621
0.892090	1.675879
0.892187	1.676218
0.892285	1.676436
0.892383	1.676598
0.892480	1.676793
0.892578	1.676930
0.892676	1.677034
0.892773	1.677225
0.892871	1.677417
0.892969	1.677532
0.893066	1.677782
0.893164	1.677903
0.893262	1.678025
0.893359	1.678232
0.893457	1.678487
0.893555	1.678633
0.893652	1.678874
0.893750	1.679049
0.893848	1.679335
0.893945	1.679513
0.894043	1.679792
0.894141	1.680007
0.894238	1.680250
0.894336	1.680480
0.894434	1.680711
0.894531	1.680982
0.894629	1.681165
0.894727	1.681339
0.894824	1.681382
0.894922	1.681580
0.895020	1.681676
0.895117	1.681831
0.895215	1.681899
0.895312	1.681936
0.895410	1.681971
0.895508	1.681967
0.895605	1.681868
0.895703	1.681798
0.895801	1.681699
0.895898	1.681535
0.895996	1.681402
0.896094	1.681128
0.896191	1.680927
0.896289	1.680554
0.896387	1.680170
0.896484	1.679915
0.896582	1.679617
0.896680	1.679215
0.896777	1.678989
0.896875	1.678686
0.896973	1.678465
0.897070	1.678290
0.897168	1.678154
0.897266	1.678116
0.897363	1.677985
0.897461	1.678067
0.897559	1.678130
0.897656	1.678204
0.897754	1.678260
0.897852	1.678318
0.897949	1.678474
0.898047	1.678416
0.898145	1.678446
0.898242	1.678415
0.898340	1.678358
0.898437	1.678243
0.898535	1.678078
0.898633	1.677965
0.898730	1.677750
0.898828	1.677668
0.898926	1.677536
0.899023	1.677494
0.899121	1.677269
0.899219	1.677241
0.899316	1.677122
0.899414	1.677007
0.899512	1.677065
0.899609	1.677015
0.899707	1.677128
0.899805	1.677196
0.899902	1.677246
0.900000	1.677214
0.900098	1.677291
0.900195	1.677259
0.900293	1.677331
0.900391	1.677227
0.900488	1.677094
0.900586	1.676910
0.900684	1.676694
0.900781	1.676480
0.900879	1.676206
0.900977	1.675932
0.901074	1.675652
0.901172	1.675384
0.901270	1.675097
0.901367	1.674866
0.901465	1.674386
0.901562	1.673986
0.901660	1.673505
0.901758	1.672954
0.901855	1.672237
0.901953	1.671508
0.902051	1.670876
0.902148	1.670288
0.902246	1.669737
0.902344	1.669192
0.902441	1.668771
0.902539	1.668287
0.902637	1.667981
0.902734	1.667675
0.902832	1.667470
0.902930	1.667319
0.903027	1.667134
0.903125	1.667122
0.903223	1.666998
0.903320	1.667029
0.903418	1.666985
0.903516	1.667103
0.903613	1.667137
0.903711	1.667175
0.903809	1.667386
0.903906	1.667416
0.904004	1.667668
0.904102	1.667807
0.904199	1.668000
0.904297	1.668218
0.904395	1.668418
0.904492	1.668644
0.904590	1.668925
0.904687	1.669173
0.904785	1.669437
0.904883	1.669671
0.904980	1.670049
0.905078	1.670370
0.905176	1.670735
0.905273	1.671055
0.905371	1.671518
0.905469	1.671852
0.905566	1.672386
0.905664	1.672754
0.905762	1.673171
0.905859	1.673585
0.905957	1.673858
0.906055	1.674329
0.906152	1.674568
0.906250	1.674955
0.906348	1.675191
0.906445	1.675382
0.906543	1.675625
0.906641	1.675764
0.906738	1.675852
0.906836	1.675956
0.906934	1.676026
0.907031	1.676045
0.907129	1.676095
0.907227	1.676176
0.907324	1.676179
0.907422	1.676221
0.907520	1.676328
0.907617	1.676367
0.907715	1.676504
0.907812	1.676516
0.907910	1.676716
0.908008	1.676804
0.908105	1.677012
0.908203	1.677116
0.908301	1.677309
0.908398	1.677446
0.908496	1.677588
0.908594	1.677800
0.908691	1.677832
0.908789	1.678005
0.908887	1.678073
0.908984	1.678231
0.909082	1.678230
0.909180	1.678268
0.909277	1.678225
0.909375	1.678343
0.909473	1.678281
0.909570	1.678309
0.909668	1.678321
0.909766	1.678335
0.909863	1.678293
0.909961	1.678208
0.910059	1.678053
0.910156	1.678075
0.910254	1.677865
0.910352	1.677892
0.910449	1.677770
0.910547	1.677524
0.910645	1.677473
0.910742	1.677185
0.910840	1.677073
0.910937	1.676919
0.911035	1.676715
0.911133	1.676558
0.911230	1.676290
0.911328	1.676025
0.911426	1.675868
0.911523	1.675676
0.911621	1.675528
0.911719	1.675359
0.911816	1.675212
0.911914	1.674979
0.912012	1.674778
0.912109	1.674911
0.912207	1.674781
0.912305	1.674703
0.912402	1.674700
0.912500	1.674717
0.912598	1.674646
0.912695	1.674717
0.912793	1.674724
0.912891	1.674789
0.912988	1.674903
0.913086	1.674988
0.913184	1.675108
0.913281	1.675259
0.913379	1.675459
0.913477	1.675677
0.913574	1.675756
0.913672	1.676090
0.913770	1.676290
0.913867	1.676509
0.913965	1.676790
0.914062	1.676996
0.914160	1.677271
0.914258	1.677512
0.914355	1.677800
0.914453	1.678006
0.914551	1.678301
0.914648	1.678538
0.914746	1.678786
0.914844	1.678889
0.914941	1.679079
0.915039	1.679151
0.915137	1.679216
0.915234	1.679164
0.915332	1.679093
0.915430	1.678909
0.915527	1.678708
0.915625	1.678401
0.915723	1.678215
0.915820	1.677914
0.915918	1.677692
0.916016	1.677454
0.916113	1.677209
0.916211	1.677074
0.916309	1.676901
0.916406	1.676934
0.916504	1.676750
0.916602	1.676840
0.916699	1.676851
0.916797	1.676848
0.916895	1.676900
0.916992	1.676888
0.917090	1.676824
0.917187	1.676492
0.917285	1.676162
0.917383	1.675763
0.917480	1.675300
0.917578	1.674716
0.917676	1.674175
0.917773	1.673527
0.917871	1.673040
0.917969	1.672446
0.918066	1.672051
0.918164	1.671577
0.918262	1.671171
0.918359	1.670903
0.918457	1.670541
0.918555	1.670341
0.918652	1.670179
0.918750	1.670047
0.918848	1.669884
0.918945	1.669897
0.919043	1.669860
0.919141	1.669874
0.919238	1.669986
0.919336	1.670090
0.919434	1.670254
0.919531	1.670518
0.919629	1.670864
0.919727	1.671189
0.919824	1.671663
0.919922	1.671908
0.920020	1.672420
0.920117	1.672835
0.920215	1.673364
0.920312	1.673787
0.920410	1.674337
0.920508	1.674743
0.920605	1.675351
0.920703	1.675888
0.920801	1.676398
0.920898	1.676935
0.920996	1.677416
0.921094	1.677937
0.921191	1.678338
0.921289	1.678786
0.921387	1.679174
0.921484	1.679581
0.921582	1.679871
0.921680	1.680179
0.921777	1.680488
0.921875	1.680683
0.921973	1.680791
0.922070	1.681082
0.922168	1.681444
0.922266	1.681739
0.922363	1.682098
0.922461	1.682401
0.922559	1.682596
0.922656	1.682938
0.922754	1.683263
0.922852	1.683562
0.922949	1.683969
0.923047	1.684196
0.923145	1.684475
0.923242	1.684807
0.923340	1.684904
0.923437	1.685207
0.923535	1.685253
0.923633	1.685461
0.923730	1.685582
0.923828	1.685848
0.923926	1.685971
0.924023	1.686138
0.924121	1.686434
0.924219	1.686674
0.924316	1.686966
0.924414	1.687110
0.924512	1.687276
0.924609	1.687245
0.924707	1.687053
0.924805	1.686770
0.924902	1.686521
0.925000	1.686248
0.925098	1.686029
0.925195	1.686003
0.925293	1.685996
0.925391	1.686054
0.925488	1.686179
0.925586	1.686363
0.925684	1.686634
0.925781	1.686818
0.925879	1.686992
0.925977	1.687097
0.926074	1.687120
0.926172	1.687022
0.926270	1.686837
0.926367	1.686688
0.926465	1.686352
0.926562	1.686102
0.926660	1.685912
0.926758	1.685735
0.926855	1.685497
0.926953	1.685481
0.927051	1.684841
0.927148	1.684065
0.927246	1.682690
0.927344	1.681458
0.927441	1.680257
0.927539	1.679392
0.927637	1.678820
0.927734	1.678232
0.927832	1.677871
0.927930	1.677566
0.928027	1.677446
0.928125	1.677352
0.928223	1.677227
0.928320	1.677158
0.928418	1.676998
0.928516	1.676885
0.928613	1.676672
0.928711	1.676569
0.928809	1.676295
0.928906	1.676101
0.929004	1.675891
0.929102	1.675591
0.929199	1.675299
0.929297	1.674914
0.929395	1.674409
0.929492	1.673955
0.929590	1.673441
0.929687	1.672947
0.929785	1.672413
0.929883	1.671794
0.929980	1.671318
0.930078	1.670802
0.930176	1.670336
0.930273	1.670012
0.930371	1.669490
0.930469	1.669213
0.930566	1.668762
0.930664	1.668413
0.930762	1.668043
0.930859	1.667619
0.930957	1.667281
0.931055	1.667021
0.931152	1.666695
0.931250	1.666304
0.931348	1.666129
0.931445	1.665913
0.931543	1.665711
0.931641	1.665631
0.931738	1.665390
0.931836	1.665404
0.931934	1.665413
0.932031	1.665318
0.932129	1.665498
0.932227	1.665658
0.932324	1.665783
0.932422	1.665933
0.932520	1.666224
0.932617	1.666462
0.932715	1.666678
0.932812	1.666993
0.932910	1.667333
0.933008	1.667677
0.933105	1.668149
0.933203	1.668549
0.933301	1.669072
0.933398	1.669654
0.933496	1.670255
0.933594	1.670893
0.933691	1.671552
0.933789	1.672369
0.933887	1.673149
0.933984	1.673936
0.934082	1.674897
0.934180	1.675741
0.934277	1.676649
0.934375	1.677383
0.934473	1.677994
0.934570	1.678430
0.934668	1.678568
0.934766	1.678696
0.934863	1.678720
0.934961	1.678719
0.935059	1.678567
0.935156	1.678449
0.935254	1.678322
0.935352	1.678036
0.935449	1.677933
0.935547	1.677735
0.935645	1.677641
0.935742	1.677676
0.935840	1.677731
0.935937	1.677851
0.936035	1.677953
0.936133	1.678100
0.936230	1.678347
0.936328	1.678503
0.936426	1.678640
0.936523	1.678801
0.936621	1.678956
0.936719	1.679022
0.936816	1.679149
0.936914	1.679299
0.937012	1.679448
0.937109	1.679529
0.937207	1.679620
0.937305	1.679759
0.937402	1.679894
0.937500	1.680072
0.937598	1.680168
0.937695	1.680317
0.937793	1.680428
0.937891	1.680559
0.937988	1.680638
0.938086	1.680808
0.938184	1.680833
0.938281	1.680996
0.938379	1.680976
0.938477	1.681024
0.938574	1.681082
0.938672	1.680992
0.938770	1.680902
0.938867	1.680815
0.938965	1.680776
0.939062	1.680579
0.939160	1.680499
0.939258	1.680300
0.939355	1.680189
0.939453	1.680079
0.939551	1.679990
0.939648	1.679947
0.939746	1.679946
0.939844	1.679891
0.939941	1.679862
0.940039	1.679842
0.940137	1.679990
0.940234	1.680000
0.940332	1.680082
0.940430	1.680129
0.940527	1.680191
0.940625	1.680271
0.940723	1.680316
0.940820	1.680403
0.940918	1.680384
0.941016	1.680386
0.941113	1.680362
0.941211	1.680318
0.941309	1.680078
0.941406	1.679924
0.941504	1.679813
0.941602	1.679637
0.941699	1.679238
0.941797	1.679034
0.941895	1.678667
0.941992	1.678271
0.942090	1.678023
0.942187	1.677623
0.942285	1.677476
0.942383	1.677050
0.942480	1.676737
0.942578	1.676452
0.942676	1.676004
0.942773	1.675724
0.942871	1.675429
0.942969	1.675150
0.943066	1.674757
0.943164	1.674436
0.943262	1.674251
0.943359	1.673883
0.943457	1.673668
0.943555	1.673443
0.943652	1.673152
0.943750	1.673120
0.943848	1.672887
0.943945	1.672872
0.944043	1.672748
0.944141	1.672779
0.944238	1.672853
0.944336	1.672912
0.944434	1.673096
0.944531	1.673243
0.944629	1.673434
0.944727	1.673632
0.944824	1.673877
0.944922	1.674070
0.945020	1.674385
0.945117	1.674639
0.945215	1.674900
0.945312	1.675235
0.945410	1.675494
0.945508	1.675819
0.945605	1.676190
0.945703	1.676491
0.945801	1.676818
0.945898	1.677356
0.945996	1.677735
0.946094	1.678250
0.946191	1.678800
0.946289	1.679472
0.946387	1.680098
0.946484	1.680788
0.946582	1.681558
0.946680	1.682233
0.946777	1.682860
0.946875	1.683328
0.946973	1.683479
0.947070	1.683086
0.947168	1.682552
0.947266	1.681924
0.947363	1.681302
0.947461	1.680697
0.947559	1.680139
0.947656	1.679464
0.947754	1.678836
0.947852	1.678080
0.947949	1.677335
0.948047	1.676720
0.948145	1.675941
0.948242	1.675301
0.948340	1.674753
0.948437	1.674159
0.948535	1.673658
0.948633	1.673230
0.948730	1.672765
0.948828	1.672391
0.948926	1.672031
0.949023	1.671524
0.949121	1.671168
0.949219	1.670725
0.949316	1.670296
0.949414	1.669932
0.949512	1.669664
0.949609	1.669369
0.949707	1.669070
0.949805	1.668856
0.949902	1.668588
0.950000	1.668385
0.950098	1.668319
0.950195	1.668083
0.950293	1.668063
0.950391	1.667977
0.950488	1.667991
0.950586	1.668087
0.950684	1.668228
0.950781	1.668328
0.950879	1.668529
0.950977	1.668723
0.951074	1.668973
0.951172	1.669312
0.951270	1.669555
0.951367	1.669974
0.951465	1.670378
0.951562	1.670824
0.951660	1.671223
0.951758	1.671602
0.951855	1.672013
0.951953	1.672414
0.952051	1.672948
0.952148	1.673537
0.952246	1.674018
0.952344	1.674520
0.952441	1.674974
0.952539	1.675502
0.952637	1.675909
0.952734	1.676431
0.952832	1.676871
0.952930	1.677263
0.953027	1.677664
0.953125	1.678008
0.953223	1.678343
0.953320	1.678682
0.953418	1.679060
0.953516	1.679240
0.953613	1.679592
0.953711	1.679908
0.953809	1.680179
0.953906	1.680480
0.954004	1.680738
0.954102	1.681158
0.954199	1.681527
0.954297	1.681868
0.954395	1.682282
0.954492	1.682749
0.954590	1.683175
0.954687	1.683659
0.954785	1.684111
0.954883	1.684673
0.954980	1.685106
0.955078	1.685592
0.955176	1.685965
0.955273	1.686296
0.955371	1.686662
0.955469	1.686962
0.955566	1.687172
0.955664	1.687271
0.955762	1.687421
0.955859	1.687445
0.955957	1.687496
0.956055	1.687386
0.956152	1.687233
0.956250	1.687125
0.956348	1.686966
0.956445	1.686673
0.956543	1.686255
0.956641	1.685737
0.956738	1.685236
0.956836	1.684514
0.956934	1.683801
0.957031	1.683124
0.957129	1.682532
0.957227	1.681917
0.957324	1.681323
0.957422	1.680644
0.957520	1.679960
0.957617	1.679287
0.957715	1.678592
0.957812	1.677872
0.957910	1.677276
0.958008	1.676760
0.958105	1.676151
0.958203	1.675660
0.958301	1.675113
0.958398	1.674644
0.958496	1.674219
0.958594	1.673756
0.958691	1.673332
0.958789	1.672964
0.958887	1.672448
0.958984	1.672142
0.959082	1.671643
0.959180	1.671268
0.959277	1.670877
0.959375	1.670367
0.959473	1.670093
0.959570	1.669809
0.959668	1.669449
0.959766	1.669138
0.959863	1.668723
0.959961	1.668324
0.960059	1.667997
0.960156	1.667627
0.960254	1.667381
0.960352	1.667029
0.960449	1.666824
0.960547	1.666460
0.960645	1.666238
0.960742	1.665971
0.960840	1.665745
0.960937	1.665585
0.961035	1.665431
0.961133	1.665281
0.961230	1.665187
0.961328	1.665164
0.961426	1.665015
0.961523	1.665035
0.961621	1.665092
0.961719	1.665041
0.961816	1.665150
0.961914	1.665248
0.962012	1.665269
0.962109	1.665539
0.962207	1.665819
0.962305	1.666050
0.962402	1.666278
0.962500	1.666595
0.962598	1.666845
0.962695	1.667272
0.962793	1.667638
0.962891	1.667934
0.962988	1.668392
0.963086	1.668726
0.963184	1.669061
0.963281	1.669394
0.963379	1.669686
0.963477	1.669964
0.963574	1.670194
0.963672	1.670407
0.963770	1.670736
0.963867	1.670927
0.963965	1.671101
0.964062	1.671280
0.964160	1.671345
0.964258	1.671365
0.964355	1.671152
0.964453	1.670814
0.964551	1.670209
0.964648	1.669418
0.964746	1.668622
0.964844	1.667816
0.964941	1.667073
0.965039	1.666542
0.965137	1.666150
0.965234	1.665927
0.965332	1.665764
0.965430	1.665648
0.965527	1.665650
0.965625	1.665572
0.965723	1.665559
0.965820	1.665587
0.965918	1.665575
0.966016	1.665658
0.966113	1.665715
0.966211	1.665780
0.966309	1.665826
0.966406	1.665934
0.966504	1.665996
0.966602	1.666083
0.966699	1.666083
0.966797	1.666207
0.966895	1.666317
0.966992	1.666384
0.967090	1.666445
0.967187	1.666574
0.967285	1.666660
0.967383	1.666722
0.967480	1.666777
0.967578	1.666941
0.967676	1.667037
0.967773	1.667090
0.967871	1.667175
0.967969	1.667356
0.968066	1.667526
0.968164	1.667709
0.968262	1.667760
0.968359	1.668021
0.968457	1.668170
0.968555	1.668388
0.968652	1.668585
0.968750	1.668738
0.968848	1.668986
0.968945	1.669174
0.969043	1.669363
0.969141	1.669559
0.969238	1.669802
0.969336	1.669922
0.969434	1.670180
0.969531	1.670595
0.969629	1.670747
0.969727	1.671085
0.969824	1.671321
0.969922	1.671544
0.970020	1.671786
0.970117	1.671990
0.970215	1.672172
0.970312	1.672383
0.970410	1.672610
0.970508	1.672751
0.970605	1.672830
0.970703	1.672971
0.970801	1.673186
0.970898	1.673253
0.970996	1.673430
0.971094	1.673505
0.971191	1.673610
0.971289	1.673737
0.971387	1.673869
0.971484	1.673984
0.971582	1.674097
0.971680	1.674207
0.971777	1.674203
0.971875	1.674294
0.971973	1.674244
0.972070	1.674385
0.972168	1.674448
0.972266	1.674531
0.972363	1.674466
0.972461	1.674386
0.972559	1.674380
0.972656	1.674238
0.972754	1.674216
0.972852	1.674020
0.972949	1.673900
0.973047	1.673708
0.973145	1.673394
0.973242	1.673141
0.973340	1.672869
0.973437	1.672668
0.973535	1.672298
0.973633	1.672014
0.973730	1.671738
0.973828	1.671415
0.973926	1.671106
0.974023	1.670786
0.974121	1.670416
0.974219	1.670167
0.974316	1.669927
0.974414	1.669633
0.974512	1.669483
0.974609	1.669183
0.974707	1.669095
0.974805	1.668909
0.974902	1.668810
0.975000	1.668674
0.975098	1.668548
0.975195	1.668551
0.975293	1.668552
0.975391	1.668601
0.975488	1.668603
0.975586	1.668648
0.975684	1.668745
0.975781	1.668812
0.975879	1.668943
0.975977	1.669091
0.976074	1.669230
0.976172	1.669474
0.976270	1.669621
0.976367	1.669974
0.976465	1.670137

