LabVIEW Measurement	
Writer_Version	2
Reader_Version	2
Separator	Tab
Decimal_Separator	.
Multi_Headings	Yes
X_Columns	One
Time_Pref	Absolute
Operator	W-Tunnel
Date	1904/01/01
Time	01:00:00
***End_of_Header***	
	
Channels	1	
Samples	10000	
Date	2024/05/17	
Time	18:20:31.8808058562495563271	
Y_Unit_Label	Volts	
X_Dimension	Time	
X0	0.0000000000000000E+0	
Delta_X	9.765625E-5	
***End_of_Header***		
X_Value	Voltage	Comment
0.000000	1.607984
9.765625E-5	1.610685
0.000195	1.616894
0.000293	1.624411
0.000391	1.632710
0.000488	1.641180
0.000586	1.649131
0.000684	1.654922
0.000781	1.649716
0.000879	1.640081
0.000977	1.647307
0.001074	1.651503
0.001172	1.646307
0.001270	1.649401
0.001367	1.641117
0.001465	1.626285
0.001562	1.617841
0.001660	1.616979
0.001758	1.614857
0.001855	1.608475
0.001953	1.604408
0.002051	1.599428
0.002148	1.595610
0.002246	1.603392
0.002344	1.603781
0.002441	1.607026
0.002539	1.613919
0.002637	1.621266
0.002734	1.629322
0.002832	1.635886
0.002930	1.642532
0.003027	1.649283
0.003125	1.654790
0.003223	1.656694
0.003320	1.651171
0.003418	1.624047
0.003516	1.619901
0.003613	1.620116
0.003711	1.612274
0.003809	1.623243
0.003906	1.624170
0.004004	1.618063
0.004102	1.610117
0.004199	1.604350
0.004297	1.598485
0.004395	1.592763
0.004492	1.585435
0.004590	1.589595
0.004687	1.596557
0.004785	1.603240
0.004883	1.610839
0.004980	1.619167
0.005078	1.627969
0.005176	1.637818
0.005273	1.647405
0.005371	1.656330
0.005469	1.656471
0.005566	1.652399
0.005664	1.653749
0.005762	1.645568
0.005859	1.635356
0.005957	1.630556
0.006055	1.623290
0.006152	1.619487
0.006250	1.615892
0.006348	1.608033
0.006445	1.606169
0.006543	1.604610
0.006641	1.599424
0.006738	1.591794
0.006836	1.582799
0.006934	1.577653
0.007031	1.578597
0.007129	1.582397
0.007227	1.589575
0.007324	1.600522
0.007422	1.609922
0.007520	1.621972
0.007617	1.631700
0.007715	1.644567
0.007812	1.645301
0.007910	1.639385
0.008008	1.646535
0.008105	1.657260
0.008203	1.634888
0.008301	1.625723
0.008398	1.633320
0.008496	1.628648
0.008594	1.626031
0.008691	1.617565
0.008789	1.613481
0.008887	1.606416
0.008984	1.602460
0.009082	1.596904
0.009180	1.592450
0.009277	1.584994
0.009375	1.588267
0.009473	1.597820
0.009570	1.602086
0.009668	1.606924
0.009766	1.614124
0.009863	1.620718
0.009961	1.629629
0.010059	1.636787
0.010156	1.647225
0.010254	1.632687
0.010352	1.630702
0.010449	1.635473
0.010547	1.636034
0.010645	1.641465
0.010742	1.618855
0.010840	1.619374
0.010937	1.617525
0.011035	1.617036
0.011133	1.617148
0.011230	1.613832
0.011328	1.614428
0.011426	1.617041
0.011523	1.613204
0.011621	1.608163
0.011719	1.604880
0.011816	1.604505
0.011914	1.608453
0.012012	1.613207
0.012109	1.619121
0.012207	1.624114
0.012305	1.631038
0.012402	1.636948
0.012500	1.646845
0.012598	1.655845
0.012695	1.658194
0.012793	1.654859
0.012891	1.657894
0.012988	1.643363
0.013086	1.640128
0.013184	1.640126
0.013281	1.626884
0.013379	1.619352
0.013477	1.614212
0.013574	1.612262
0.013672	1.604726
0.013770	1.594952
0.013867	1.582289
0.013965	1.586932
0.014062	1.599277
0.014160	1.603053
0.014258	1.604063
0.014355	1.607982
0.014453	1.614021
0.014551	1.621100
0.014648	1.628987
0.014746	1.637610
0.014844	1.647594
0.014941	1.657795
0.015039	1.657775
0.015137	1.657424
0.015234	1.656352
0.015332	1.648902
0.015430	1.642076
0.015527	1.632562
0.015625	1.629754
0.015723	1.618377
0.015820	1.614823
0.015918	1.617190
0.016016	1.608739
0.016113	1.603410
0.016211	1.589103
0.016309	1.580843
0.016406	1.574607
0.016504	1.570812
0.016602	1.588911
0.016699	1.605987
0.016797	1.613296
0.016895	1.620803
0.016992	1.627175
0.017090	1.635567
0.017187	1.643282
0.017285	1.651839
0.017383	1.651634
0.017480	1.635252
0.017578	1.631355
0.017676	1.636727
0.017773	1.637289
0.017871	1.637238
0.017969	1.636226
0.018066	1.629833
0.018164	1.626619
0.018262	1.623004
0.018359	1.619591
0.018457	1.614186
0.018555	1.603996
0.018652	1.596724
0.018750	1.597138
0.018848	1.602784
0.018945	1.607563
0.019043	1.605433
0.019141	1.610026
0.019238	1.616000
0.019336	1.623957
0.019434	1.631862
0.019531	1.641311
0.019629	1.649073
0.019727	1.656559
0.019824	1.656967
0.019922	1.650690
0.020020	1.650198
0.020117	1.650563
0.020215	1.643568
0.020312	1.638752
0.020410	1.631202
0.020508	1.622042
0.020605	1.616823
0.020703	1.611754
0.020801	1.608034
0.020898	1.604791
0.020996	1.598520
0.021094	1.599273
0.021191	1.601866
0.021289	1.600163
0.021387	1.602999
0.021484	1.607124
0.021582	1.613339
0.021680	1.619563
0.021777	1.626725
0.021875	1.632244
0.021973	1.638938
0.022070	1.644497
0.022168	1.649412
0.022266	1.651569
0.022363	1.654649
0.022461	1.647222
0.022559	1.622358
0.022656	1.607799
0.022754	1.601623
0.022852	1.621318
0.022949	1.617898
0.023047	1.617782
0.023145	1.613522
0.023242	1.605293
0.023340	1.601369
0.023437	1.597665
0.023535	1.595144
0.023633	1.598686
0.023730	1.600339
0.023828	1.601940
0.023926	1.605838
0.024023	1.611191
0.024121	1.618012
0.024219	1.626069
0.024316	1.636119
0.024414	1.647056
0.024512	1.653287
0.024609	1.656799
0.024707	1.659320
0.024805	1.660482
0.024902	1.660693
0.025000	1.653869
0.025098	1.628086
0.025195	1.634385
0.025293	1.626390
0.025391	1.615377
0.025488	1.611056
0.025586	1.605795
0.025684	1.595369
0.025781	1.591863
0.025879	1.589753
0.025977	1.582829
0.026074	1.583755
0.026172	1.586750
0.026270	1.586500
0.026367	1.595570
0.026465	1.608876
0.026562	1.619471
0.026660	1.627536
0.026758	1.637047
0.026855	1.644913
0.026953	1.654601
0.027051	1.649531
0.027148	1.640569
0.027246	1.633674
0.027344	1.632335
0.027441	1.631584
0.027539	1.636800
0.027637	1.630354
0.027734	1.621192
0.027832	1.612116
0.027930	1.612559
0.028027	1.606945
0.028125	1.603890
0.028223	1.602925
0.028320	1.604872
0.028418	1.608144
0.028516	1.610953
0.028613	1.613621
0.028711	1.616592
0.028809	1.620370
0.028906	1.625090
0.029004	1.631828
0.029102	1.640977
0.029199	1.657503
0.029297	1.669795
0.029395	1.667073
0.029492	1.665323
0.029590	1.663007
0.029687	1.634063
0.029785	1.626564
0.029883	1.634823
0.029980	1.638259
0.030078	1.628660
0.030176	1.612823
0.030273	1.612413
0.030371	1.607967
0.030469	1.601359
0.030566	1.593641
0.030664	1.590794
0.030762	1.589956
0.030859	1.589124
0.030957	1.595707
0.031055	1.599969
0.031152	1.607873
0.031250	1.616128
0.031348	1.627372
0.031445	1.636207
0.031543	1.647911
0.031641	1.656039
0.031738	1.658487
0.031836	1.651648
0.031934	1.636088
0.032031	1.613648
0.032129	1.602134
0.032227	1.601702
0.032324	1.612989
0.032422	1.630233
0.032520	1.625296
0.032617	1.624409
0.032715	1.615095
0.032812	1.606472
0.032910	1.601134
0.033008	1.598331
0.033105	1.598532
0.033203	1.601476
0.033301	1.604315
0.033398	1.609055
0.033496	1.614881
0.033594	1.621687
0.033691	1.630432
0.033789	1.640536
0.033887	1.650327
0.033984	1.641505
0.034082	1.647547
0.034180	1.636660
0.034277	1.633258
0.034375	1.630865
0.034473	1.635352
0.034570	1.635408
0.034668	1.614087
0.034766	1.613548
0.034863	1.619889
0.034961	1.608972
0.035059	1.605056
0.035156	1.609694
0.035254	1.611348
0.035352	1.612921
0.035449	1.611901
0.035547	1.613619
0.035645	1.612878
0.035742	1.614054
0.035840	1.616246
0.035937	1.619759
0.036035	1.623388
0.036133	1.628281
0.036230	1.634521
0.036328	1.642296
0.036426	1.654837
0.036523	1.659496
0.036621	1.653715
0.036719	1.666121
0.036816	1.661207
0.036914	1.644866
0.037012	1.634099
0.037109	1.620903
0.037207	1.617865
0.037305	1.626781
0.037402	1.625716
0.037500	1.621872
0.037598	1.614217
0.037695	1.612760
0.037793	1.608716
0.037891	1.604675
0.037988	1.602872
0.038086	1.605004
0.038184	1.609381
0.038281	1.615810
0.038379	1.623106
0.038477	1.632494
0.038574	1.643134
0.038672	1.656662
0.038770	1.665526
0.038867	1.667989
0.038965	1.646782
0.039062	1.630633
0.039160	1.648750
0.039258	1.643474
0.039355	1.632129
0.039453	1.613828
0.039551	1.604289
0.039648	1.603791
0.039746	1.604722
0.039844	1.602842
0.039941	1.608019
0.040039	1.611304
0.040137	1.609158
0.040234	1.607793
0.040332	1.607598
0.040430	1.609373
0.040527	1.612956
0.040625	1.618448
0.040723	1.624778
0.040820	1.631943
0.040918	1.639268
0.041016	1.647289
0.041113	1.649915
0.041211	1.644099
0.041309	1.640584
0.041406	1.638971
0.041504	1.644931
0.041602	1.631195
0.041699	1.628255
0.041797	1.630160
0.041895	1.625285
0.041992	1.616852
0.042090	1.612080
0.042187	1.609171
0.042285	1.609287
0.042383	1.597900
0.042480	1.593274
0.042578	1.599796
0.042676	1.604658
0.042773	1.609315
0.042871	1.609738
0.042969	1.613743
0.043066	1.616490
0.043164	1.622640
0.043262	1.628794
0.043359	1.637582
0.043457	1.644577
0.043555	1.644946
0.043652	1.650483
0.043750	1.653938
0.043848	1.653873
0.043945	1.650710
0.044043	1.649383
0.044141	1.643617
0.044238	1.637575
0.044336	1.631182
0.044434	1.625790
0.044531	1.620626
0.044629	1.614845
0.044727	1.607860
0.044824	1.602381
0.044922	1.598090
0.045020	1.596131
0.045117	1.597421
0.045215	1.600887
0.045312	1.605463
0.045410	1.610111
0.045508	1.616626
0.045605	1.624321
0.045703	1.633548
0.045801	1.643382
0.045898	1.651056
0.045996	1.652881
0.046094	1.660502
0.046191	1.655005
0.046289	1.640372
0.046387	1.634440
0.046484	1.636732
0.046582	1.633278
0.046680	1.630835
0.046777	1.630191
0.046875	1.624503
0.046973	1.618945
0.047070	1.612283
0.047168	1.609439
0.047266	1.601781
0.047363	1.592079
0.047461	1.589824
0.047559	1.598477
0.047656	1.602531
0.047754	1.607362
0.047852	1.612812
0.047949	1.619735
0.048047	1.628065
0.048145	1.637600
0.048242	1.649512
0.048340	1.656075
0.048437	1.655878
0.048535	1.661219
0.048633	1.640118
0.048730	1.627387
0.048828	1.638830
0.048926	1.638189
0.049023	1.623616
0.049121	1.608405
0.049219	1.613312
0.049316	1.612607
0.049414	1.609828
0.049512	1.604893
0.049609	1.591940
0.049707	1.589866
0.049805	1.598252
0.049902	1.603992
0.050000	1.608196
0.050098	1.613376
0.050195	1.618331
0.050293	1.625793
0.050391	1.633203
0.050488	1.645189
0.050586	1.655114
0.050684	1.661734
0.050781	1.656884
0.050879	1.658350
0.050977	1.658699
0.051074	1.639823
0.051172	1.623890
0.051270	1.602491
0.051367	1.603489
0.051465	1.614554
0.051562	1.613344
0.051660	1.605894
0.051758	1.599958
0.051855	1.600359
0.051953	1.594597
0.052051	1.587476
0.052148	1.576505
0.052246	1.568304
0.052344	1.577154
0.052441	1.589598
0.052539	1.601713
0.052637	1.614894
0.052734	1.624174
0.052832	1.638228
0.052930	1.650254
0.053027	1.666210
0.053125	1.670670
0.053223	1.663796
0.053320	1.663425
0.053418	1.656611
0.053516	1.645167
0.053613	1.640253
0.053711	1.629603
0.053809	1.625454
0.053906	1.622271
0.054004	1.616388
0.054102	1.613124
0.054199	1.608333
0.054297	1.604497
0.054395	1.599265
0.054492	1.594110
0.054590	1.584989
0.054687	1.581690
0.054785	1.590965
0.054883	1.600837
0.054980	1.610999
0.055078	1.619818
0.055176	1.629418
0.055273	1.636652
0.055371	1.645701
0.055469	1.642714
0.055566	1.636990
0.055664	1.653894
0.055762	1.641203
0.055859	1.631254
0.055957	1.624908
0.056055	1.616034
0.056152	1.616250
0.056250	1.613840
0.056348	1.613274
0.056445	1.608580
0.056543	1.602842
0.056641	1.597497
0.056738	1.593656
0.056836	1.593381
0.056934	1.586778
0.057031	1.579639
0.057129	1.586775
0.057227	1.594401
0.057324	1.600987
0.057422	1.609919
0.057520	1.618417
0.057617	1.629119
0.057715	1.638764
0.057812	1.646674
0.057910	1.650732
0.058008	1.652556
0.058105	1.658263
0.058203	1.653246
0.058301	1.645097
0.058398	1.634282
0.058496	1.625750
0.058594	1.621160
0.058691	1.624194
0.058789	1.624067
0.058887	1.623676
0.058984	1.624511
0.059082	1.619020
0.059180	1.615765
0.059277	1.610985
0.059375	1.609248
0.059473	1.609026
0.059570	1.611709
0.059668	1.614827
0.059766	1.619663
0.059863	1.624735
0.059961	1.632081
0.060059	1.639728
0.060156	1.647987
0.060254	1.644412
0.060352	1.652615
0.060449	1.653581
0.060547	1.658066
0.060645	1.653897
0.060742	1.645815
0.060840	1.641334
0.060937	1.637266
0.061035	1.632242
0.061133	1.624146
0.061230	1.623636
0.061328	1.621428
0.061426	1.613645
0.061523	1.604891
0.061621	1.598142
0.061719	1.593947
0.061816	1.598106
0.061914	1.601940
0.062012	1.606888
0.062109	1.612684
0.062207	1.619381
0.062305	1.626567
0.062402	1.634016
0.062500	1.641578
0.062598	1.648920
0.062695	1.653753
0.062793	1.653035
0.062891	1.649748
0.062988	1.642278
0.063086	1.645520
0.063184	1.641235
0.063281	1.632164
0.063379	1.627456
0.063477	1.622659
0.063574	1.618239
0.063672	1.613868
0.063770	1.608977
0.063867	1.602537
0.063965	1.593925
0.064062	1.584542
0.064160	1.583871
0.064258	1.598448
0.064355	1.602582
0.064453	1.603374
0.064551	1.614062
0.064648	1.622373
0.064746	1.633008
0.064844	1.640651
0.064941	1.648868
0.065039	1.649563
0.065137	1.654042
0.065234	1.642383
0.065332	1.651282
0.065430	1.630292
0.065527	1.604858
0.065625	1.630252
0.065723	1.628373
0.065820	1.624386
0.065918	1.618152
0.066016	1.606504
0.066113	1.601746
0.066211	1.602049
0.066309	1.599032
0.066406	1.593011
0.066504	1.588669
0.066602	1.590650
0.066699	1.598290
0.066797	1.607982
0.066895	1.615870
0.066992	1.624295
0.067090	1.632738
0.067187	1.641789
0.067285	1.649010
0.067383	1.649981
0.067480	1.648376
0.067578	1.646507
0.067676	1.648941
0.067773	1.637100
0.067871	1.641859
0.067969	1.640542
0.068066	1.628699
0.068164	1.621733
0.068262	1.619920
0.068359	1.615255
0.068457	1.601170
0.068555	1.593847
0.068652	1.589832
0.068750	1.591611
0.068848	1.595207
0.068945	1.593816
0.069043	1.595791
0.069141	1.602911
0.069238	1.609327
0.069336	1.615545
0.069434	1.623097
0.069531	1.631332
0.069629	1.645135
0.069727	1.650462
0.069824	1.648844
0.069922	1.661637
0.070020	1.670780
0.070117	1.676787
0.070215	1.639629
0.070312	1.616750
0.070410	1.630437
0.070508	1.627505
0.070605	1.626189
0.070703	1.619916
0.070801	1.606719
0.070898	1.589338
0.070996	1.575255
0.071094	1.564009
0.071191	1.564384
0.071289	1.568864
0.071387	1.574593
0.071484	1.584623
0.071582	1.598179
0.071680	1.609840
0.071777	1.620774
0.071875	1.631360
0.071973	1.640592
0.072070	1.649461
0.072168	1.657096
0.072266	1.658181
0.072363	1.643051
0.072461	1.651206
0.072559	1.652711
0.072656	1.648245
0.072754	1.648215
0.072852	1.633633
0.072949	1.619436
0.073047	1.610006
0.073145	1.601527
0.073242	1.604569
0.073340	1.607091
0.073437	1.599279
0.073535	1.585606
0.073633	1.583324
0.073730	1.587387
0.073828	1.584748
0.073926	1.594010
0.074023	1.611644
0.074121	1.620637
0.074219	1.634298
0.074316	1.644443
0.074414	1.654554
0.074512	1.635291
0.074609	1.642858
0.074707	1.639927
0.074805	1.625230
0.074902	1.617728
0.075000	1.605796
0.075098	1.598871
0.075195	1.602049
0.075293	1.626267
0.075391	1.622822
0.075488	1.615366
0.075586	1.607314
0.075684	1.600789
0.075781	1.593386
0.075879	1.588458
0.075977	1.588364
0.076074	1.597572
0.076172	1.603228
0.076270	1.609887
0.076367	1.614933
0.076465	1.621224
0.076562	1.626798
0.076660	1.633924
0.076758	1.640466
0.076855	1.647750
0.076953	1.653539
0.077051	1.659551
0.077148	1.643022
0.077246	1.628616
0.077344	1.625591
0.077441	1.617612
0.077539	1.617732
0.077637	1.615790
0.077734	1.610918
0.077832	1.609518
0.077930	1.608108
0.078027	1.606226
0.078125	1.602464
0.078223	1.598801
0.078320	1.593403
0.078418	1.587762
0.078516	1.581498
0.078613	1.576739
0.078711	1.589084
0.078809	1.605253
0.078906	1.616460
0.079004	1.628808
0.079102	1.637785
0.079199	1.647374
0.079297	1.644079
0.079395	1.635320
0.079492	1.652294
0.079590	1.642321
0.079687	1.637904
0.079785	1.631747
0.079883	1.630184
0.079980	1.623121
0.080078	1.624033
0.080176	1.630133
0.080273	1.625799
0.080371	1.617065
0.080469	1.608428
0.080566	1.605234
0.080664	1.603579
0.080762	1.601684
0.080859	1.601106
0.080957	1.603160
0.081055	1.606663
0.081152	1.612381
0.081250	1.618338
0.081348	1.625831
0.081445	1.632218
0.081543	1.640298
0.081641	1.646733
0.081738	1.653967
0.081836	1.648438
0.081934	1.646196
0.082031	1.637917
0.082129	1.635761
0.082227	1.649386
0.082324	1.651313
0.082422	1.640685
0.082520	1.627192
0.082617	1.617168
0.082715	1.606838
0.082812	1.608190
0.082910	1.603783
0.083008	1.598063
0.083105	1.589677
0.083203	1.577314
0.083301	1.574128
0.083398	1.589091
0.083496	1.600516
0.083594	1.610196
0.083691	1.619347
0.083789	1.628634
0.083887	1.638525
0.083984	1.649493
0.084082	1.654876
0.084180	1.649361
0.084277	1.665348
0.084375	1.654554
0.084473	1.648073
0.084570	1.643517
0.084668	1.631782
0.084766	1.632289
0.084863	1.623516
0.084961	1.615970
0.085059	1.606227
0.085156	1.606243
0.085254	1.601140
0.085352	1.597270
0.085449	1.589747
0.085547	1.586076
0.085645	1.583337
0.085742	1.593674
0.085840	1.604749
0.085937	1.613860
0.086035	1.622792
0.086133	1.631934
0.086230	1.640118
0.086328	1.645425
0.086426	1.647604
0.086523	1.652351
0.086621	1.656434
0.086719	1.660675
0.086816	1.656770
0.086914	1.640067
0.087012	1.629495
0.087109	1.626135
0.087207	1.621205
0.087305	1.611970
0.087402	1.613099
0.087500	1.614811
0.087598	1.615116
0.087695	1.609307
0.087793	1.607057
0.087891	1.602898
0.087988	1.599688
0.088086	1.602599
0.088184	1.607421
0.088281	1.612971
0.088379	1.620714
0.088477	1.627685
0.088574	1.637034
0.088672	1.644318
0.088770	1.656780
0.088867	1.648790
0.088965	1.640843
0.089062	1.638822
0.089160	1.627295
0.089258	1.610792
0.089355	1.612607
0.089453	1.624608
0.089551	1.631610
0.089648	1.633815
0.089746	1.624629
0.089844	1.615180
0.089941	1.606108
0.090039	1.605189
0.090137	1.604584
0.090234	1.606629
0.090332	1.605132
0.090430	1.606815
0.090527	1.608594
0.090625	1.612812
0.090723	1.616135
0.090820	1.622416
0.090918	1.628217
0.091016	1.639698
0.091113	1.648634
0.091211	1.648758
0.091309	1.641422
0.091406	1.656762
0.091504	1.663802
0.091602	1.657437
0.091699	1.651776
0.091797	1.633435
0.091895	1.636232
0.091992	1.630980
0.092090	1.627885
0.092187	1.621867
0.092285	1.617129
0.092383	1.610612
0.092480	1.604401
0.092578	1.595884
0.092676	1.595185
0.092773	1.599317
0.092871	1.603568
0.092969	1.609239
0.093066	1.615141
0.093164	1.622450
0.093262	1.629822
0.093359	1.637889
0.093457	1.644137
0.093555	1.651202
0.093652	1.650984
0.093750	1.643285
0.093848	1.635760
0.093945	1.633899
0.094043	1.629357
0.094141	1.634131
0.094238	1.628064
0.094336	1.618599
0.094434	1.618302
0.094531	1.614236
0.094629	1.624704
0.094727	1.629835
0.094824	1.619059
0.094922	1.606944
0.095020	1.602505
0.095117	1.597707
0.095215	1.593154
0.095312	1.594073
0.095410	1.600027
0.095508	1.609169
0.095605	1.616936
0.095703	1.624870
0.095801	1.633942
0.095898	1.644649
0.095996	1.652024
0.096094	1.650481
0.096191	1.652707
0.096289	1.656343
0.096387	1.650165
0.096484	1.647224
0.096582	1.640099
0.096680	1.634517
0.096777	1.629366
0.096875	1.623943
0.096973	1.617160
0.097070	1.614915
0.097168	1.608519
0.097266	1.601509
0.097363	1.595985
0.097461	1.600183
0.097559	1.605031
0.097656	1.607608
0.097754	1.609611
0.097852	1.613336
0.097949	1.618658
0.098047	1.626495
0.098145	1.635345
0.098242	1.648383
0.098340	1.650882
0.098437	1.638749
0.098535	1.649428
0.098633	1.659162
0.098730	1.654645
0.098828	1.645409
0.098926	1.637911
0.099023	1.638265
0.099121	1.638879
0.099219	1.633171
0.099316	1.625922
0.099414	1.622337
0.099512	1.621347
0.099609	1.615899
0.099707	1.616413
0.099805	1.615687
0.099902	1.613351
0.100000	1.611662
0.100098	1.611463
0.100195	1.610752
0.100293	1.613182
0.100391	1.616809
0.100488	1.623840
0.100586	1.631113
0.100684	1.642079
0.100781	1.646234
0.100879	1.642333
0.100977	1.637962
0.101074	1.674209
0.101172	1.652071
0.101270	1.636089
0.101367	1.647387
0.101465	1.615639
0.101562	1.621124
0.101660	1.627724
0.101758	1.623265
0.101855	1.617350
0.101953	1.603938
0.102051	1.602906
0.102148	1.607473
0.102246	1.611039
0.102344	1.611996
0.102441	1.611576
0.102539	1.614281
0.102637	1.618244
0.102734	1.623285
0.102832	1.629042
0.102930	1.635510
0.103027	1.642921
0.103125	1.651732
0.103223	1.659364
0.103320	1.645217
0.103418	1.637325
0.103516	1.633071
0.103613	1.623656
0.103711	1.625933
0.103809	1.600671
0.103906	1.596712
0.104004	1.613965
0.104102	1.604769
0.104199	1.590202
0.104297	1.596968
0.104395	1.615956
0.104492	1.614812
0.104590	1.609700
0.104687	1.607044
0.104785	1.608562
0.104883	1.612230
0.104980	1.616643
0.105078	1.621619
0.105176	1.627002
0.105273	1.633561
0.105371	1.639731
0.105469	1.645864
0.105566	1.647279
0.105664	1.643723
0.105762	1.653094
0.105859	1.640365
0.105957	1.647655
0.106055	1.644623
0.106152	1.625235
0.106250	1.619708
0.106348	1.626427
0.106445	1.619131
0.106543	1.615925
0.106641	1.613727
0.106738	1.610319
0.106836	1.602868
0.106934	1.599957
0.107031	1.599948
0.107129	1.602802
0.107227	1.608018
0.107324	1.614710
0.107422	1.621744
0.107520	1.628641
0.107617	1.636782
0.107715	1.647647
0.107812	1.656969
0.107910	1.658566
0.108008	1.640171
0.108105	1.621401
0.108203	1.609477
0.108301	1.620970
0.108398	1.605256
0.108496	1.607482
0.108594	1.619626
0.108691	1.616293
0.108789	1.618114
0.108887	1.611409
0.108984	1.601235
0.109082	1.593780
0.109180	1.587524
0.109277	1.578116
0.109375	1.572935
0.109473	1.579198
0.109570	1.584122
0.109668	1.599146
0.109766	1.612858
0.109863	1.624302
0.109961	1.635417
0.110059	1.648011
0.110156	1.658233
0.110254	1.655098
0.110352	1.659241
0.110449	1.652657
0.110547	1.646313
0.110645	1.647835
0.110742	1.637650
0.110840	1.634467
0.110937	1.630218
0.111035	1.623739
0.111133	1.612696
0.111230	1.608365
0.111328	1.604979
0.111426	1.602808
0.111523	1.594532
0.111621	1.592916
0.111719	1.597809
0.111816	1.600629
0.111914	1.606042
0.112012	1.612173
0.112109	1.620420
0.112207	1.629056
0.112305	1.640180
0.112402	1.644204
0.112500	1.647411
0.112598	1.649163
0.112695	1.650907
0.112793	1.651449
0.112891	1.652740
0.112988	1.644264
0.113086	1.625330
0.113184	1.623064
0.113281	1.625266
0.113379	1.623563
0.113477	1.621902
0.113574	1.619187
0.113672	1.615477
0.113770	1.612440
0.113867	1.607449
0.113965	1.598441
0.114062	1.587340
0.114160	1.581070
0.114258	1.581584
0.114355	1.588893
0.114453	1.598263
0.114551	1.608073
0.114648	1.618947
0.114746	1.630209
0.114844	1.641245
0.114941	1.652129
0.115039	1.657835
0.115137	1.668378
0.115234	1.676342
0.115332	1.656822
0.115430	1.648202
0.115527	1.640840
0.115625	1.639359
0.115723	1.633095
0.115820	1.623550
0.115918	1.614045
0.116016	1.612800
0.116113	1.611327
0.116211	1.607656
0.116309	1.604822
0.116406	1.595783
0.116504	1.596368
0.116602	1.599173
0.116699	1.607653
0.116797	1.608738
0.116895	1.610175
0.116992	1.616952
0.117090	1.625197
0.117187	1.634460
0.117285	1.642568
0.117383	1.647930
0.117480	1.647294
0.117578	1.648309
0.117676	1.644272
0.117773	1.645465
0.117871	1.649044
0.117969	1.648671
0.118066	1.645683
0.118164	1.639343
0.118262	1.629560
0.118359	1.616018
0.118457	1.605523
0.118555	1.598600
0.118652	1.598416
0.118750	1.597643
0.118848	1.598034
0.118945	1.589515
0.119043	1.586860
0.119141	1.594862
0.119238	1.600490
0.119336	1.608532
0.119434	1.616009
0.119531	1.626086
0.119629	1.634232
0.119727	1.644888
0.119824	1.651613
0.119922	1.657322
0.120020	1.655075
0.120117	1.646697
0.120215	1.640678
0.120312	1.629239
0.120410	1.608383
0.120508	1.602762
0.120605	1.614649
0.120703	1.617449
0.120801	1.610666
0.120898	1.607781
0.120996	1.602643
0.121094	1.597840
0.121191	1.602358
0.121289	1.603297
0.121387	1.606909
0.121484	1.609958
0.121582	1.614600
0.121680	1.618724
0.121777	1.623970
0.121875	1.629354
0.121973	1.636784
0.122070	1.645505
0.122168	1.654618
0.122266	1.659648
0.122363	1.655654
0.122461	1.650683
0.122559	1.645117
0.122656	1.648810
0.122754	1.646469
0.122852	1.638612
0.122949	1.630514
0.123047	1.625132
0.123145	1.620714
0.123242	1.612518
0.123340	1.600781
0.123437	1.588233
0.123535	1.585104
0.123633	1.595770
0.123730	1.599105
0.123828	1.593255
0.123926	1.599509
0.124023	1.607767
0.124121	1.614671
0.124219	1.624241
0.124316	1.633516
0.124414	1.643950
0.124512	1.648612
0.124609	1.658118
0.124707	1.660623
0.124805	1.660467
0.124902	1.646983
0.125000	1.645409
0.125098	1.639971
0.125195	1.639644
0.125293	1.616720
0.125391	1.625933
0.125488	1.619085
0.125586	1.610763
0.125684	1.609980
0.125781	1.601042
0.125879	1.600675
0.125977	1.599450
0.126074	1.599121
0.126172	1.603453
0.126270	1.620358
0.126367	1.614834
0.126465	1.609721
0.126562	1.614538
0.126660	1.622757
0.126758	1.631202
0.126855	1.638944
0.126953	1.645181
0.127051	1.650630
0.127148	1.654677
0.127246	1.651192
0.127344	1.652758
0.127441	1.637768
0.127539	1.623408
0.127637	1.630154
0.127734	1.615002
0.127832	1.615510
0.127930	1.620716
0.128027	1.616996
0.128125	1.611047
0.128223	1.606837
0.128320	1.605436
0.128418	1.603628
0.128516	1.606136
0.128613	1.604507
0.128711	1.606218
0.128809	1.610260
0.128906	1.616504
0.129004	1.623182
0.129102	1.631134
0.129199	1.639533
0.129297	1.648181
0.129395	1.654845
0.129492	1.648131
0.129590	1.633252
0.129687	1.632489
0.129785	1.628523
0.129883	1.619281
0.129980	1.644231
0.130078	1.636814
0.130176	1.626648
0.130273	1.621038
0.130371	1.610776
0.130469	1.599245
0.130566	1.594874
0.130664	1.603449
0.130762	1.612265
0.130859	1.608199
0.130957	1.599772
0.131055	1.601392
0.131152	1.605082
0.131250	1.612658
0.131348	1.619911
0.131445	1.627829
0.131543	1.635506
0.131641	1.643689
0.131738	1.651797
0.131836	1.657184
0.131934	1.651290
0.132031	1.650167
0.132129	1.645771
0.132227	1.631709
0.132324	1.629610
0.132422	1.618029
0.132520	1.612836
0.132617	1.614344
0.132715	1.609776
0.132812	1.614254
0.132910	1.604350
0.133008	1.591524
0.133105	1.598709
0.133203	1.598405
0.133301	1.600915
0.133398	1.603687
0.133496	1.608969
0.133594	1.613015
0.133691	1.619408
0.133789	1.624841
0.133887	1.632668
0.133984	1.638436
0.134082	1.645660
0.134180	1.636589
0.134277	1.620624
0.134375	1.621938
0.134473	1.629119
0.134570	1.622024
0.134668	1.614369
0.134766	1.631137
0.134863	1.624718
0.134961	1.618801
0.135059	1.616737
0.135156	1.614376
0.135254	1.609498
0.135352	1.605092
0.135449	1.599173
0.135547	1.589444
0.135645	1.583011
0.135742	1.593493
0.135840	1.601594
0.135937	1.607084
0.136035	1.614469
0.136133	1.621941
0.136230	1.630490
0.136328	1.638787
0.136426	1.645571
0.136523	1.648987
0.136621	1.635833
0.136719	1.618632
0.136816	1.625387
0.136914	1.633919
0.137012	1.642722
0.137109	1.625647
0.137207	1.616313
0.137305	1.626777
0.137402	1.628017
0.137500	1.625262
0.137598	1.626403
0.137695	1.621974
0.137793	1.614383
0.137891	1.613583
0.137988	1.610187
0.138086	1.610192
0.138184	1.611346
0.138281	1.615832
0.138379	1.621188
0.138477	1.628092
0.138574	1.635390
0.138672	1.643654
0.138770	1.652867
0.138867	1.650727
0.138965	1.640880
0.139062	1.642735
0.139160	1.636031
0.139258	1.629047
0.139355	1.629959
0.139453	1.627403
0.139551	1.624446
0.139648	1.617832
0.139746	1.611084
0.139844	1.615383
0.139941	1.615847
0.140039	1.603030
0.140137	1.595597
0.140234	1.587231
0.140332	1.583412
0.140430	1.591852
0.140527	1.598465
0.140625	1.605025
0.140723	1.612088
0.140820	1.617969
0.140918	1.624239
0.141016	1.631154
0.141113	1.639791
0.141211	1.650681
0.141309	1.659211
0.141406	1.660806
0.141504	1.660377
0.141602	1.646662
0.141699	1.621158
0.141797	1.620459
0.141895	1.622840
0.141992	1.613629
0.142090	1.602349
0.142187	1.598263
0.142285	1.610359
0.142383	1.617313
0.142480	1.611812
0.142578	1.616233
0.142676	1.616469
0.142773	1.608904
0.142871	1.608846
0.142969	1.611659
0.143066	1.617461
0.143164	1.623274
0.143262	1.631553
0.143359	1.638778
0.143457	1.648670
0.143555	1.648710
0.143652	1.636314
0.143750	1.634500
0.143848	1.644996
0.143945	1.650541
0.144043	1.631789
0.144141	1.610857
0.144238	1.598573
0.144336	1.589278
0.144434	1.581566
0.144531	1.574724
0.144629	1.601610
0.144727	1.611208
0.144824	1.600192
0.144922	1.595775
0.145020	1.593726
0.145117	1.594537
0.145215	1.591827
0.145312	1.598507
0.145410	1.600184
0.145508	1.605599
0.145605	1.615751
0.145703	1.625340
0.145801	1.636460
0.145898	1.646572
0.145996	1.649338
0.146094	1.646997
0.146191	1.659599
0.146289	1.644274
0.146387	1.641608
0.146484	1.647544
0.146582	1.641024
0.146680	1.633380
0.146777	1.623935
0.146875	1.607787
0.146973	1.603060
0.147070	1.601539
0.147168	1.606937
0.147266	1.599382
0.147363	1.591433
0.147461	1.593870
0.147559	1.599369
0.147656	1.606598
0.147754	1.608304
0.147852	1.613967
0.147949	1.619763
0.148047	1.627428
0.148145	1.633962
0.148242	1.640660
0.148340	1.644965
0.148437	1.650690
0.148535	1.650545
0.148633	1.644092
0.148730	1.646760
0.148828	1.660105
0.148926	1.642092
0.149023	1.634235
0.149121	1.613463
0.149219	1.612758
0.149316	1.611450
0.149414	1.607474
0.149512	1.607402
0.149609	1.605025
0.149707	1.601181
0.149805	1.603982
0.149902	1.605057
0.150000	1.607423
0.150098	1.610021
0.150195	1.611536
0.150293	1.615092
0.150391	1.622168
0.150488	1.630266
0.150586	1.639849
0.150684	1.647944
0.150781	1.651977
0.150879	1.638495
0.150977	1.643561
0.151074	1.635744
0.151172	1.628490
0.151270	1.628582
0.151367	1.633421
0.151465	1.643626
0.151562	1.626826
0.151660	1.615991
0.151758	1.599871
0.151855	1.582741
0.151953	1.583262
0.152051	1.584260
0.152148	1.555313
0.152246	1.563684
0.152344	1.577389
0.152441	1.589765
0.152539	1.597433
0.152637	1.608826
0.152734	1.617581
0.152832	1.626916
0.152930	1.634988
0.153027	1.643157
0.153125	1.655117
0.153223	1.660310
0.153320	1.652313
0.153418	1.650331
0.153516	1.637461
0.153613	1.636556
0.153711	1.619421
0.153809	1.621464
0.153906	1.627709
0.154004	1.618822
0.154102	1.617614
0.154199	1.611651
0.154297	1.606655
0.154395	1.602016
0.154492	1.596972
0.154590	1.588169
0.154687	1.581921
0.154785	1.586590
0.154883	1.596033
0.154980	1.604497
0.155078	1.614232
0.155176	1.624184
0.155273	1.634554
0.155371	1.644700
0.155469	1.649544
0.155566	1.641450
0.155664	1.645145
0.155762	1.645148
0.155859	1.649149
0.155957	1.648181
0.156055	1.646410
0.156152	1.644164
0.156250	1.634269
0.156348	1.620827
0.156445	1.611898
0.156543	1.607567
0.156641	1.603272
0.156738	1.598453
0.156836	1.589878
0.156934	1.578313
0.157031	1.580523
0.157129	1.599208
0.157227	1.606231
0.157324	1.610610
0.157422	1.615230
0.157520	1.621407
0.157617	1.628991
0.157715	1.638127
0.157812	1.647097
0.157910	1.652723
0.158008	1.638234
0.158105	1.630023
0.158203	1.636499
0.158301	1.630266
0.158398	1.625973
0.158496	1.624830
0.158594	1.620162
0.158691	1.617807
0.158789	1.613641
0.158887	1.613292
0.158984	1.610671
0.159082	1.604842
0.159180	1.598416
0.159277	1.594332
0.159375	1.588874
0.159473	1.587826
0.159570	1.592478
0.159668	1.598291
0.159766	1.606573
0.159863	1.615287
0.159961	1.625521
0.160059	1.635262
0.160156	1.645455
0.160254	1.651532
0.160352	1.655840
0.160449	1.655039
0.160547	1.651225
0.160645	1.640484
0.160742	1.636938
0.160840	1.619990
0.160937	1.621579
0.161035	1.620839
0.161133	1.614790
0.161230	1.602588
0.161328	1.603851
0.161426	1.612668
0.161523	1.600298
0.161621	1.590159
0.161719	1.568021
0.161816	1.568302
0.161914	1.584148
0.162012	1.588104
0.162109	1.602912
0.162207	1.613434
0.162305	1.624085
0.162402	1.632350
0.162500	1.643536
0.162598	1.648320
0.162695	1.651806
0.162793	1.656511
0.162891	1.648445
0.162988	1.649214
0.163086	1.651644
0.163184	1.637019
0.163281	1.615668
0.163379	1.617268
0.163477	1.617779
0.163574	1.621728
0.163672	1.617667
0.163770	1.612576
0.163867	1.601736
0.163965	1.586861
0.164062	1.582733
0.164160	1.589275
0.164258	1.591063
0.164355	1.596733
0.164453	1.600461
0.164551	1.607550
0.164648	1.614585
0.164746	1.625058
0.164844	1.634723
0.164941	1.648948
0.165039	1.655163
0.165137	1.653174
0.165234	1.646508
0.165332	1.650570
0.165430	1.644739
0.165527	1.631735
0.165625	1.620473
0.165723	1.622362
0.165820	1.620112
0.165918	1.621215
0.166016	1.617869
0.166113	1.605799
0.166211	1.600392
0.166309	1.589541
0.166406	1.584848
0.166504	1.577169
0.166602	1.576288
0.166699	1.578637
0.166797	1.589899
0.166895	1.599582
0.166992	1.608825
0.167090	1.617961
0.167187	1.629429
0.167285	1.642049
0.167383	1.654582
0.167480	1.640835
0.167578	1.640064
0.167676	1.648208
0.167773	1.646359
0.167871	1.648824
0.167969	1.636669
0.168066	1.622382
0.168164	1.614151
0.168262	1.613083
0.168359	1.601325
0.168457	1.598844
0.168555	1.598515
0.168652	1.608204
0.168750	1.609611
0.168848	1.603404
0.168945	1.597507
0.169043	1.597457
0.169141	1.600765
0.169238	1.607369
0.169336	1.613790
0.169434	1.621952
0.169531	1.629418
0.169629	1.638676
0.169727	1.647296
0.169824	1.659386
0.169922	1.656351
0.170020	1.658525
0.170117	1.651016
0.170215	1.649122
0.170312	1.650251
0.170410	1.642170
0.170508	1.629540
0.170605	1.622533
0.170703	1.616967
0.170801	1.610958
0.170898	1.625818
0.170996	1.614071
0.171094	1.603857
0.171191	1.606512
0.171289	1.607133
0.171387	1.605967
0.171484	1.605038
0.171582	1.606077
0.171680	1.609560
0.171777	1.614715
0.171875	1.622167
0.171973	1.629790
0.172070	1.640159
0.172168	1.647480
0.172266	1.645467
0.172363	1.657866
0.172461	1.655786
0.172559	1.650411
0.172656	1.649225
0.172754	1.642391
0.172852	1.635351
0.172949	1.629416
0.173047	1.625106
0.173145	1.623697
0.173242	1.616350
0.173340	1.613141
0.173437	1.614462
0.173535	1.603160
0.173633	1.599658
0.173730	1.602756
0.173828	1.606410
0.173926	1.610942
0.174023	1.616556
0.174121	1.622360
0.174219	1.630462
0.174316	1.638262
0.174414	1.649239
0.174512	1.654647
0.174609	1.654299
0.174707	1.651966
0.174805	1.652891
0.174902	1.625398
0.175000	1.617660
0.175098	1.628341
0.175195	1.626979
0.175293	1.635034
0.175391	1.629316
0.175488	1.629379
0.175586	1.623640
0.175684	1.616546
0.175781	1.609138
0.175879	1.603389
0.175977	1.604783
0.176074	1.606360
0.176172	1.606687
0.176270	1.609924
0.176367	1.613267
0.176465	1.618204
0.176562	1.621488
0.176660	1.627477
0.176758	1.633344
0.176855	1.642618
0.176953	1.637427
0.177051	1.636987
0.177148	1.638407
0.177246	1.647410
0.177344	1.647668
0.177441	1.632361
0.177539	1.620294
0.177637	1.629663
0.177734	1.635260
0.177832	1.629677
0.177930	1.624142
0.178027	1.616797
0.178125	1.612467
0.178223	1.606198
0.178320	1.597424
0.178418	1.587186
0.178516	1.577530
0.178613	1.583706
0.178711	1.596600
0.178809	1.602269
0.178906	1.612490
0.179004	1.622425
0.179102	1.633477
0.179199	1.642151
0.179297	1.649500
0.179395	1.645728
0.179492	1.653503
0.179590	1.659940
0.179687	1.652022
0.179785	1.626859
0.179883	1.618989
0.179980	1.616365
0.180078	1.630152
0.180176	1.639064
0.180273	1.638319
0.180371	1.635715
0.180469	1.634371
0.180566	1.623833
0.180664	1.605978
0.180762	1.597489
0.180859	1.591018
0.180957	1.583023
0.181055	1.576950
0.181152	1.582352
0.181250	1.598625
0.181348	1.606518
0.181445	1.614607
0.181543	1.626605
0.181641	1.637042
0.181738	1.650295
0.181836	1.645648
0.181934	1.652858
0.182031	1.655411
0.182129	1.655211
0.182227	1.640547
0.182324	1.633484
0.182422	1.635336
0.182520	1.641658
0.182617	1.653072
0.182715	1.633671
0.182812	1.619485
0.182910	1.613722
0.183008	1.601802
0.183105	1.592926
0.183203	1.582372
0.183301	1.574624
0.183398	1.589971
0.183496	1.602588
0.183594	1.609283
0.183691	1.616122
0.183789	1.623040
0.183887	1.630619
0.183984	1.640145
0.184082	1.649155
0.184180	1.657653
0.184277	1.657703
0.184375	1.656343
0.184473	1.657550
0.184570	1.650355
0.184668	1.644405
0.184766	1.638565
0.184863	1.633028
0.184961	1.628699
0.185059	1.619862
0.185156	1.609995
0.185254	1.605239
0.185352	1.606262
0.185449	1.604481
0.185547	1.606065
0.185645	1.607079
0.185742	1.609577
0.185840	1.612428
0.185937	1.617796
0.186035	1.623356
0.186133	1.631809
0.186230	1.638942
0.186328	1.644417
0.186426	1.643968
0.186523	1.645304
0.186621	1.628789
0.186719	1.638485
0.186816	1.636446
0.186914	1.622132
0.187012	1.592765
0.187109	1.588513
0.187207	1.627496
0.187305	1.620077
0.187402	1.616686
0.187500	1.611680
0.187598	1.608539
0.187695	1.602723
0.187793	1.598043
0.187891	1.591927
0.187988	1.586859
0.188086	1.582196
0.188184	1.590146
0.188281	1.597718
0.188379	1.605641
0.188477	1.615059
0.188574	1.624357
0.188672	1.634407
0.188770	1.645183
0.188867	1.640156
0.188965	1.651654
0.189062	1.650634
0.189160	1.645309
0.189258	1.642483
0.189355	1.641843
0.189453	1.650275
0.189551	1.645212
0.189648	1.630374
0.189746	1.624856
0.189844	1.617321
0.189941	1.609463
0.190039	1.597242
0.190137	1.593319
0.190234	1.596581
0.190332	1.598308
0.190430	1.604420
0.190527	1.610909
0.190625	1.615241
0.190723	1.620191
0.190820	1.624266
0.190918	1.628319
0.191016	1.630500
0.191113	1.633037
0.191211	1.635508
0.191309	1.638662
0.191406	1.646674
0.191504	1.663592
0.191602	1.644923
0.191699	1.653796
0.191797	1.641500
0.191895	1.619716
0.191992	1.623331
0.192090	1.626376
0.192187	1.614196
0.192285	1.608699
0.192383	1.598966
0.192480	1.606643
0.192578	1.605340
0.192676	1.606639
0.192773	1.608116
0.192871	1.608457
0.192969	1.607744
0.193066	1.608548
0.193164	1.616606
0.193262	1.624519
0.193359	1.634163
0.193457	1.643526
0.193555	1.654528
0.193652	1.639636
0.193750	1.623986
0.193848	1.633638
0.193945	1.623605
0.194043	1.626489
0.194141	1.608669
0.194238	1.610126
0.194336	1.619344
0.194434	1.612717
0.194531	1.609301
0.194629	1.600271
0.194727	1.600909
0.194824	1.598939
0.194922	1.596785
0.195020	1.591461
0.195117	1.587259
0.195215	1.594670
0.195312	1.600328
0.195410	1.606585
0.195508	1.612361
0.195605	1.620032
0.195703	1.627383
0.195801	1.637068
0.195898	1.645722
0.195996	1.655855
0.196094	1.658488
0.196191	1.652537
0.196289	1.620482
0.196387	1.634421
0.196484	1.634638
0.196582	1.614227
0.196680	1.613115
0.196777	1.622915
0.196875	1.628998
0.196973	1.622926
0.197070	1.618072
0.197168	1.612504
0.197266	1.608452
0.197363	1.604079
0.197461	1.598609
0.197559	1.589819
0.197656	1.584246
0.197754	1.590145
0.197852	1.599151
0.197949	1.606574
0.198047	1.614817
0.198145	1.623558
0.198242	1.632986
0.198340	1.644191
0.198437	1.650785
0.198535	1.655989
0.198633	1.655762
0.198730	1.654633
0.198828	1.652977
0.198926	1.647409
0.199023	1.638089
0.199121	1.618070
0.199219	1.613264
0.199316	1.618057
0.199414	1.621564
0.199512	1.620495
0.199609	1.613965
0.199707	1.606749
0.199805	1.603831
0.199902	1.603271
0.200000	1.607480
0.200098	1.613223
0.200195	1.605812
0.200293	1.603904
0.200391	1.612390
0.200488	1.620826
0.200586	1.632045
0.200684	1.644792
0.200781	1.662555
0.200879	1.653746
0.200977	1.656184
0.201074	1.662705
0.201172	1.651339
0.201270	1.637292
0.201367	1.626018
0.201465	1.634770
0.201562	1.640826
0.201660	1.626980
0.201758	1.620687
0.201855	1.612746
0.201953	1.604685
0.202051	1.598290
0.202148	1.587369
0.202246	1.586275
0.202344	1.594694
0.202441	1.600132
0.202539	1.604727
0.202637	1.610056
0.202734	1.615253
0.202832	1.621435
0.202930	1.628320
0.203027	1.636853
0.203125	1.647548
0.203223	1.656130
0.203320	1.662043
0.203418	1.667311
0.203516	1.665428
0.203613	1.669628
0.203711	1.639653
0.203809	1.641403
0.203906	1.636473
0.204004	1.630474
0.204102	1.629883
0.204199	1.619092
0.204297	1.614150
0.204395	1.609264
0.204492	1.604530
0.204590	1.597112
0.204687	1.599886
0.204785	1.600216
0.204883	1.601380
0.204980	1.603537
0.205078	1.608742
0.205176	1.615125
0.205273	1.623508
0.205371	1.631165
0.205469	1.639370
0.205566	1.645943
0.205664	1.656305
0.205762	1.662717
0.205859	1.649257
0.205957	1.647925
0.206055	1.643310
0.206152	1.633922
0.206250	1.630709
0.206348	1.627010
0.206445	1.623367
0.206543	1.619294
0.206641	1.614579
0.206738	1.609561
0.206836	1.604877
0.206934	1.598570
0.207031	1.591008
0.207129	1.581210
0.207227	1.572602
0.207324	1.569983
0.207422	1.586738
0.207520	1.601923
0.207617	1.613372
0.207715	1.623779
0.207812	1.634131
0.207910	1.642911
0.208008	1.647177
0.208105	1.645381
0.208203	1.645574
0.208301	1.638938
0.208398	1.631167
0.208496	1.630692
0.208594	1.634298
0.208691	1.626646
0.208789	1.617240
0.208887	1.612230
0.208984	1.608936
0.209082	1.602062
0.209180	1.589277
0.209277	1.583849
0.209375	1.589988
0.209473	1.598969
0.209570	1.603619
0.209668	1.608860
0.209766	1.613865
0.209863	1.619128
0.209961	1.625028
0.210059	1.631683
0.210156	1.640125
0.210254	1.649589
0.210352	1.658749
0.210449	1.645783
0.210547	1.624699
0.210645	1.626961
0.210742	1.616710
0.210840	1.623058
0.210937	1.628017
0.211035	1.613202
0.211133	1.625997
0.211230	1.618040
0.211328	1.605123
0.211426	1.620488
0.211523	1.615576
0.211621	1.605190
0.211719	1.595011
0.211816	1.583884
0.211914	1.582435
0.212012	1.594255
0.212109	1.601660
0.212207	1.610707
0.212305	1.618207
0.212402	1.627571
0.212500	1.636762
0.212598	1.647387
0.212695	1.649607
0.212793	1.655339
0.212891	1.649168
0.212988	1.636986
0.213086	1.640229
0.213184	1.630457
0.213281	1.630999
0.213379	1.627333
0.213477	1.627023
0.213574	1.622281
0.213672	1.615399
0.213770	1.612345
0.213867	1.607221
0.213965	1.595360
0.214062	1.581016
0.214160	1.569672
0.214258	1.579504
0.214355	1.594789
0.214453	1.603164
0.214551	1.610773
0.214648	1.617386
0.214746	1.625413
0.214844	1.632921
0.214941	1.642434
0.215039	1.651771
0.215137	1.663726
0.215234	1.655890
0.215332	1.648421
0.215430	1.648855
0.215527	1.641412
0.215625	1.630982
0.215723	1.620560
0.215820	1.622037
0.215918	1.619560
0.216016	1.616069
0.216113	1.616846
0.216211	1.615031
0.216309	1.608194
0.216406	1.598884
0.216504	1.586079
0.216602	1.577453
0.216699	1.577209
0.216797	1.585904
0.216895	1.599064
0.216992	1.606511
0.217090	1.614971
0.217187	1.622378
0.217285	1.631490
0.217383	1.638318
0.217480	1.645150
0.217578	1.646935
0.217676	1.653317
0.217773	1.653225
0.217871	1.656112
0.217969	1.658718
0.218066	1.647761
0.218164	1.630227
0.218262	1.601561
0.218359	1.595022
0.218457	1.596403
0.218555	1.596458
0.218652	1.591714
0.218750	1.585222
0.218848	1.590655
0.218945	1.587052
0.219043	1.581359
0.219141	1.591001
0.219238	1.599190
0.219336	1.606050
0.219434	1.611620
0.219531	1.619306
0.219629	1.626304
0.219727	1.635917
0.219824	1.644474
0.219922	1.656264
0.220020	1.653229
0.220117	1.639443
0.220215	1.628515
0.220312	1.615790
0.220410	1.631118
0.220508	1.637104
0.220605	1.602122
0.220703	1.583093
0.220801	1.593969
0.220898	1.585188
0.220996	1.602772
0.221094	1.597839
0.221191	1.594883
0.221289	1.580314
0.221387	1.574969
0.221484	1.574069
0.221582	1.585589
0.221680	1.596355
0.221777	1.607346
0.221875	1.617106
0.221973	1.626933
0.222070	1.636182
0.222168	1.644907
0.222266	1.654581
0.222363	1.652129
0.222461	1.645193
0.222559	1.646832
0.222656	1.629146
0.222754	1.616348
0.222852	1.611275
0.222949	1.611792
0.223047	1.617572
0.223145	1.610276
0.223242	1.611919
0.223340	1.611395
0.223437	1.606151
0.223535	1.600613
0.223633	1.596791
0.223730	1.590767
0.223828	1.583199
0.223926	1.578157
0.224023	1.583775
0.224121	1.595617
0.224219	1.605662
0.224316	1.615231
0.224414	1.624678
0.224512	1.633892
0.224609	1.643282
0.224707	1.651429
0.224805	1.656643
0.224902	1.640201
0.225000	1.630620
0.225098	1.641609
0.225195	1.610590
0.225293	1.613334
0.225391	1.626296
0.225488	1.611196
0.225586	1.611197
0.225684	1.617864
0.225781	1.614915
0.225879	1.608130
0.225977	1.604953
0.226074	1.601887
0.226172	1.600111
0.226270	1.600480
0.226367	1.603359
0.226465	1.608124
0.226562	1.614059
0.226660	1.621286
0.226758	1.629353
0.226855	1.639715
0.226953	1.650241
0.227051	1.660267
0.227148	1.663842
0.227246	1.650608
0.227344	1.622936
0.227441	1.623405
0.227539	1.641245
0.227637	1.635210
0.227734	1.630996
0.227832	1.626666
0.227930	1.621734
0.228027	1.614973
0.228125	1.606310
0.228223	1.598222
0.228320	1.590495
0.228418	1.583345
0.228516	1.581608
0.228613	1.586843
0.228711	1.596929
0.228809	1.604298
0.228906	1.612961
0.229004	1.620477
0.229102	1.629401
0.229199	1.637493
0.229297	1.647001
0.229395	1.652792
0.229492	1.655851
0.229590	1.652354
0.229687	1.645047
0.229785	1.634734
0.229883	1.650809
0.229980	1.625877
0.230078	1.608654
0.230176	1.618602
0.230273	1.611200
0.230371	1.609021
0.230469	1.603739
0.230566	1.599913
0.230664	1.594002
0.230762	1.590306
0.230859	1.588150
0.230957	1.595152
0.231055	1.599403
0.231152	1.603515
0.231250	1.611786
0.231348	1.621249
0.231445	1.631942
0.231543	1.640351
0.231641	1.651293
0.231738	1.652388
0.231836	1.640902
0.231934	1.634718
0.232031	1.634037
0.232129	1.635799
0.232227	1.629859
0.232324	1.625362
0.232422	1.619695
0.232520	1.614415
0.232617	1.608463
0.232715	1.602698
0.232812	1.593772
0.232910	1.596982
0.233008	1.602806
0.233105	1.605099
0.233203	1.609221
0.233301	1.609452
0.233398	1.605499
0.233496	1.607313
0.233594	1.610728
0.233691	1.616842
0.233789	1.623240
0.233887	1.632749
0.233984	1.642577
0.234082	1.655127
0.234180	1.663312
0.234277	1.669282
0.234375	1.661319
0.234473	1.651549
0.234570	1.644367
0.234668	1.630470
0.234766	1.626337
0.234863	1.626689
0.234961	1.620626
0.235059	1.603244
0.235156	1.602582
0.235254	1.612633
0.235352	1.617865
0.235449	1.611256
0.235547	1.589310
0.235645	1.584743
0.235742	1.598246
0.235840	1.603943
0.235937	1.610695
0.236035	1.615984
0.236133	1.623976
0.236230	1.631083
0.236328	1.639701
0.236426	1.644831
0.236523	1.649501
0.236621	1.640103
0.236719	1.642205
0.236816	1.629894
0.236914	1.637452
0.237012	1.627648
0.237109	1.605228
0.237207	1.623153
0.237305	1.617071
0.237402	1.605911
0.237500	1.596023
0.237598	1.596321
0.237695	1.598781
0.237793	1.600683
0.237891	1.601294
0.237988	1.599429
0.238086	1.601821
0.238184	1.601870
0.238281	1.605475
0.238379	1.609098
0.238477	1.615239
0.238574	1.621328
0.238672	1.629562
0.238770	1.637105
0.238867	1.646133
0.238965	1.652855
0.239062	1.656038
0.239160	1.635518
0.239258	1.638856
0.239355	1.654023
0.239453	1.643930
0.239551	1.633598
0.239648	1.629945
0.239746	1.626053
0.239844	1.619356
0.239941	1.610472
0.240039	1.599630
0.240137	1.589102
0.240234	1.577511
0.240332	1.574760
0.240430	1.575696
0.240527	1.582847
0.240625	1.598692
0.240723	1.603942
0.240820	1.608938
0.240918	1.615670
0.241016	1.623778
0.241113	1.632602
0.241211	1.642057
0.241309	1.652318
0.241406	1.663104
0.241504	1.662249
0.241602	1.640019
0.241699	1.634769
0.241797	1.642197
0.241895	1.627452
0.241992	1.622019
0.242090	1.619491
0.242187	1.615380
0.242285	1.631062
0.242383	1.623821
0.242480	1.617236
0.242578	1.612080
0.242676	1.604212
0.242773	1.607083
0.242871	1.612217
0.242969	1.609579
0.243066	1.608057
0.243164	1.610737
0.243262	1.616400
0.243359	1.623355
0.243457	1.631389
0.243555	1.640131
0.243652	1.649203
0.243750	1.656474
0.243848	1.656170
0.243945	1.641324
0.244043	1.633397
0.244141	1.626624
0.244238	1.622631
0.244336	1.611231
0.244434	1.602923
0.244531	1.615584
0.244629	1.624286
0.244727	1.620767
0.244824	1.613150
0.244922	1.600532
0.245020	1.599316
0.245117	1.602252
0.245215	1.605772
0.245312	1.612723
0.245410	1.613017
0.245508	1.609605
0.245605	1.614309
0.245703	1.620732
0.245801	1.630235
0.245898	1.637409
0.245996	1.648000
0.246094	1.654839
0.246191	1.667301
0.246289	1.658195
0.246387	1.653350
0.246484	1.654982
0.246582	1.623915
0.246680	1.611559
0.246777	1.603330
0.246875	1.605542
0.246973	1.604658
0.247070	1.617077
0.247168	1.599554
0.247266	1.591492
0.247363	1.586655
0.247461	1.584269
0.247559	1.582232
0.247656	1.583258
0.247754	1.584024
0.247852	1.596539
0.247949	1.605503
0.248047	1.607675
0.248145	1.616294
0.248242	1.625413
0.248340	1.633839
0.248437	1.643948
0.248535	1.648117
0.248633	1.646094
0.248730	1.656690
0.248828	1.659250
0.248926	1.671661
0.249023	1.647980
0.249121	1.633127
0.249219	1.625180
0.249316	1.629488
0.249414	1.622265
0.249512	1.600783
0.249609	1.586075
0.249707	1.600109
0.249805	1.605107
0.249902	1.609255
0.250000	1.611922
0.250098	1.609359
0.250195	1.609004
0.250293	1.609769
0.250391	1.615123
0.250488	1.620921
0.250586	1.629569
0.250684	1.637374
0.250781	1.647628
0.250879	1.649992
0.250977	1.653655
0.251074	1.651779
0.251172	1.655048
0.251270	1.653367
0.251367	1.634152
0.251465	1.609422
0.251562	1.609320
0.251660	1.614759
0.251758	1.612907
0.251855	1.615654
0.251953	1.615035
0.252051	1.611363
0.252148	1.607409
0.252246	1.590303
0.252344	1.584544
0.252441	1.602100
0.252539	1.602839
0.252637	1.609367
0.252734	1.613556
0.252832	1.621653
0.252930	1.627592
0.253027	1.638255
0.253125	1.648986
0.253223	1.657453
0.253320	1.656687
0.253418	1.675308
0.253516	1.661557
0.253613	1.639273
0.253711	1.618700
0.253809	1.598264
0.253906	1.601698
0.254004	1.609551
0.254102	1.618676
0.254199	1.626151
0.254297	1.628974
0.254395	1.610746
0.254492	1.603094
0.254590	1.594653
0.254687	1.585268
0.254785	1.584821
0.254883	1.595076
0.254980	1.600165
0.255078	1.607922
0.255176	1.614991
0.255273	1.624826
0.255371	1.633976
0.255469	1.645812
0.255566	1.652407
0.255664	1.651808
0.255762	1.648493
0.255859	1.637781
0.255957	1.639645
0.256055	1.636495
0.256152	1.625871
0.256250	1.622007
0.256348	1.632443
0.256445	1.630679
0.256543	1.624420
0.256641	1.619290
0.256738	1.613788
0.256836	1.608735
0.256934	1.603412
0.257031	1.598495
0.257129	1.592961
0.257227	1.591040
0.257324	1.596004
0.257422	1.600805
0.257520	1.606220
0.257617	1.613880
0.257715	1.620868
0.257812	1.629440
0.257910	1.638438
0.258008	1.652861
0.258105	1.647908
0.258203	1.631013
0.258301	1.611486
0.258398	1.628425
0.258496	1.614018
0.258594	1.592616
0.258691	1.623500
0.258789	1.629693
0.258887	1.622967
0.258984	1.626558
0.259082	1.623841
0.259180	1.615961
0.259277	1.610105
0.259375	1.601421
0.259473	1.594348
0.259570	1.597703
0.259668	1.600703
0.259766	1.605491
0.259863	1.612299
0.259961	1.619806
0.260059	1.628325
0.260156	1.637017
0.260254	1.646444
0.260352	1.654291
0.260449	1.660214
0.260547	1.655295
0.260645	1.648565
0.260742	1.626576
0.260840	1.614619
0.260937	1.627200
0.261035	1.634686
0.261133	1.625585
0.261230	1.618331
0.261328	1.619183
0.261426	1.612729
0.261523	1.604300
0.261621	1.593617
0.261719	1.588816
0.261816	1.588035
0.261914	1.590869
0.262012	1.593280
0.262109	1.599761
0.262207	1.607339
0.262305	1.614809
0.262402	1.622864
0.262500	1.630171
0.262598	1.639733
0.262695	1.649402
0.262793	1.664011
0.262891	1.653246
0.262988	1.640169
0.263086	1.647146
0.263184	1.634392
0.263281	1.649903
0.263379	1.652525
0.263477	1.625003
0.263574	1.608725
0.263672	1.606496
0.263770	1.606865
0.263867	1.601455
0.263965	1.598375
0.264062	1.603532
0.264160	1.602501
0.264258	1.605217
0.264355	1.608090
0.264453	1.612182
0.264551	1.616318
0.264648	1.622188
0.264746	1.628340
0.264844	1.633704
0.264941	1.638830
0.265039	1.643990
0.265137	1.649425
0.265234	1.650226
0.265332	1.647891
0.265430	1.640760
0.265527	1.622262
0.265625	1.625463
0.265723	1.630218
0.265820	1.626660
0.265918	1.626610
0.266016	1.620203
0.266113	1.615184
0.266211	1.613489
0.266309	1.607697
0.266406	1.602823
0.266504	1.595584
0.266602	1.585174
0.266699	1.566917
0.266797	1.563246
0.266895	1.581035
0.266992	1.599332
0.267090	1.612454
0.267187	1.621919
0.267285	1.630902
0.267383	1.638933
0.267480	1.646331
0.267578	1.651481
0.267676	1.648850
0.267773	1.634103
0.267871	1.637516
0.267969	1.632008
0.268066	1.633344
0.268164	1.633785
0.268262	1.620315
0.268359	1.623363
0.268457	1.617370
0.268555	1.612493
0.268652	1.606164
0.268750	1.600236
0.268848	1.592515
0.268945	1.585283
0.269043	1.577886
0.269141	1.570685
0.269238	1.570752
0.269336	1.592242
0.269434	1.609259
0.269531	1.620062
0.269629	1.630710
0.269727	1.640735
0.269824	1.651692
0.269922	1.650499
0.270020	1.661509
0.270117	1.652228
0.270215	1.645477
0.270312	1.650657
0.270410	1.632504
0.270508	1.613421
0.270605	1.620417
0.270703	1.626708
0.270801	1.623305
0.270898	1.611258
0.270996	1.599243
0.271094	1.591575
0.271191	1.598764
0.271289	1.610699
0.271387	1.608460
0.271484	1.606743
0.271582	1.611532
0.271680	1.615936
0.271777	1.620611
0.271875	1.626056
0.271973	1.631232
0.272070	1.637361
0.272168	1.641455
0.272266	1.645193
0.272363	1.645457
0.272461	1.655592
0.272559	1.659730
0.272656	1.651175
0.272754	1.637031
0.272852	1.632673
0.272949	1.619508
0.273047	1.612986
0.273145	1.608632
0.273242	1.605056
0.273340	1.608285
0.273437	1.605319
0.273535	1.597676
0.273633	1.590154
0.273730	1.583140
0.273828	1.577495
0.273926	1.587608
0.274023	1.595728
0.274121	1.606467
0.274219	1.617473
0.274316	1.627735
0.274414	1.637385
0.274512	1.637123
0.274609	1.647440
0.274707	1.659996
0.274805	1.661495
0.274902	1.659681
0.275000	1.648158
0.275098	1.640471
0.275195	1.634648
0.275293	1.622329
0.275391	1.617548
0.275488	1.608493
0.275586	1.601715
0.275684	1.600768
0.275781	1.596209
0.275879	1.595915
0.275977	1.595533
0.276074	1.597617
0.276172	1.601287
0.276270	1.605664
0.276367	1.609569
0.276465	1.614345
0.276562	1.619072
0.276660	1.625001
0.276758	1.630702
0.276855	1.637744
0.276953	1.644481
0.277051	1.653026
0.277148	1.653145
0.277246	1.651753
0.277344	1.647123
0.277441	1.620801
0.277539	1.620612
0.277637	1.627576
0.277734	1.630023
0.277832	1.627909
0.277930	1.626051
0.278027	1.619300
0.278125	1.607917
0.278223	1.601613
0.278320	1.598597
0.278418	1.598407
0.278516	1.598650
0.278613	1.601687
0.278711	1.605946
0.278809	1.610691
0.278906	1.615350
0.279004	1.620623
0.279102	1.625848
0.279199	1.632552
0.279297	1.639829
0.279395	1.650231
0.279492	1.657711
0.279590	1.661604
0.279687	1.660737
0.279785	1.649017
0.279883	1.645768
0.279980	1.633787
0.280078	1.633679
0.280176	1.631617
0.280273	1.627826
0.280371	1.621130
0.280469	1.615627
0.280566	1.611008
0.280664	1.605981
0.280762	1.600467
0.280859	1.595054
0.280957	1.590432
0.281055	1.587319
0.281152	1.589734
0.281250	1.596487
0.281348	1.602373
0.281445	1.611069
0.281543	1.619683
0.281641	1.629534
0.281738	1.637943
0.281836	1.647476
0.281934	1.652126
0.282031	1.651935
0.282129	1.646811
0.282227	1.644968
0.282324	1.645871
0.282422	1.640868
0.282520	1.632482
0.282617	1.629985
0.282715	1.630244
0.282812	1.624822
0.282910	1.615529
0.283008	1.610477
0.283105	1.622936
0.283203	1.620559
0.283301	1.611948
0.283398	1.602473
0.283496	1.593858
0.283594	1.591503
0.283691	1.597679
0.283789	1.602706
0.283887	1.610147
0.283984	1.619428
0.284082	1.627706
0.284180	1.634828
0.284277	1.641853
0.284375	1.650090
0.284473	1.658768
0.284570	1.662275
0.284668	1.654923
0.284766	1.650050
0.284863	1.636478
0.284961	1.592399
0.285059	1.612795
0.285156	1.630216
0.285254	1.620557
0.285352	1.617156
0.285449	1.608146
0.285547	1.598599
0.285645	1.600639
0.285742	1.607942
0.285840	1.615908
0.285937	1.625141
0.286035	1.619194
0.286133	1.616643
0.286230	1.620414
0.286328	1.626479
0.286426	1.634149
0.286523	1.640622
0.286621	1.649276
0.286719	1.653436
0.286816	1.647880
0.286914	1.640354
0.287012	1.635392
0.287109	1.629344
0.287207	1.630091
0.287305	1.634085
0.287402	1.628861
0.287500	1.617305
0.287598	1.605676
0.287695	1.600869
0.287793	1.603899
0.287891	1.604235
0.287988	1.602549
0.288086	1.604953
0.288184	1.606623
0.288281	1.606319
0.288379	1.609198
0.288477	1.614530
0.288574	1.620954
0.288672	1.628585
0.288770	1.636907
0.288867	1.645860
0.288965	1.650950
0.289062	1.648052
0.289160	1.638445
0.289258	1.643171
0.289355	1.654550
0.289453	1.657120
0.289551	1.649149
0.289648	1.641910
0.289746	1.631721
0.289844	1.622242
0.289941	1.618099
0.290039	1.612568
0.290137	1.609155
0.290234	1.605222
0.290332	1.601727
0.290430	1.598618
0.290527	1.598041
0.290625	1.599454
0.290723	1.601268
0.290820	1.605076
0.290918	1.611531
0.291016	1.619258
0.291113	1.628829
0.291211	1.639425
0.291309	1.648694
0.291406	1.643653
0.291504	1.646083
0.291602	1.653687
0.291699	1.652561
0.291797	1.643245
0.291895	1.641122
0.291992	1.637810
0.292090	1.634924
0.292187	1.615043
0.292285	1.605619
0.292383	1.618506
0.292480	1.607089
0.292578	1.607396
0.292676	1.603258
0.292773	1.601590
0.292871	1.601962
0.292969	1.606998
0.293066	1.609974
0.293164	1.614859
0.293262	1.618270
0.293359	1.625465
0.293457	1.630057
0.293555	1.639816
0.293652	1.644402
0.293750	1.658514
0.293848	1.649357
0.293945	1.625374
0.294043	1.634571
0.294141	1.645912
0.294238	1.647099
0.294336	1.636170
0.294434	1.636905
0.294531	1.619661
0.294629	1.613173
0.294727	1.620764
0.294824	1.619882
0.294922	1.608815
0.295020	1.607068
0.295117	1.608004
0.295215	1.614661
0.295312	1.606662
0.295410	1.602141
0.295508	1.605598
0.295605	1.611327
0.295703	1.618853
0.295801	1.627319
0.295898	1.635584
0.295996	1.643574
0.296094	1.650377
0.296191	1.654561
0.296289	1.651822
0.296387	1.642682
0.296484	1.632936
0.296582	1.633600
0.296680	1.628311
0.296777	1.606513
0.296875	1.599126
0.296973	1.597559
0.297070	1.600900
0.297168	1.601227
0.297266	1.591914
0.297363	1.589282
0.297461	1.583838
0.297559	1.595418
0.297656	1.604173
0.297754	1.607839
0.297852	1.610264
0.297949	1.614373
0.298047	1.617982
0.298145	1.623928
0.298242	1.628798
0.298340	1.636947
0.298437	1.641373
0.298535	1.652375
0.298633	1.648367
0.298730	1.631566
0.298828	1.622780
0.298926	1.618282
0.299023	1.621355
0.299121	1.627293
0.299219	1.624563
0.299316	1.617309
0.299414	1.615628
0.299512	1.600010
0.299609	1.589729
0.299707	1.576423
0.299805	1.576604
0.299902	1.594585
0.300000	1.604539
0.300098	1.605330
0.300195	1.605424
0.300293	1.606195
0.300391	1.609217
0.300488	1.615146
0.300586	1.621604
0.300684	1.629545
0.300781	1.636816
0.300879	1.644768
0.300977	1.654188
0.301074	1.667268
0.301172	1.661270
0.301270	1.650720
0.301367	1.635896
0.301465	1.636127
0.301562	1.643591
0.301660	1.634471
0.301758	1.633574
0.301855	1.620025
0.301953	1.619058
0.302051	1.618986
0.302148	1.607048
0.302246	1.596993
0.302344	1.588942
0.302441	1.582002
0.302539	1.578968
0.302637	1.587656
0.302734	1.600257
0.302832	1.607459
0.302930	1.617818
0.303027	1.626068
0.303125	1.636297
0.303223	1.643820
0.303320	1.650742
0.303418	1.650200
0.303516	1.651631
0.303613	1.651571
0.303711	1.644381
0.303809	1.637522
0.303906	1.631742
0.304004	1.630082
0.304102	1.627269
0.304199	1.620452
0.304297	1.614970
0.304395	1.609001
0.304492	1.598181
0.304590	1.586926
0.304687	1.578035
0.304785	1.582746
0.304883	1.597403
0.304980	1.606717
0.305078	1.611467
0.305176	1.616976
0.305273	1.622170
0.305371	1.629967
0.305469	1.636639
0.305566	1.646924
0.305664	1.649947
0.305762	1.643373
0.305859	1.639907
0.305957	1.635984
0.306055	1.636569
0.306152	1.638891
0.306250	1.633286
0.306348	1.620795
0.306445	1.619635
0.306543	1.599152
0.306641	1.603720
0.306738	1.605259
0.306836	1.599612
0.306934	1.593127
0.307031	1.583792
0.307129	1.574626
0.307227	1.574856
0.307324	1.583618
0.307422	1.591196
0.307520	1.603643
0.307617	1.614097
0.307715	1.626119
0.307812	1.632191
0.307910	1.638617
0.308008	1.655762
0.308105	1.661890
0.308203	1.652777
0.308301	1.640857
0.308398	1.641544
0.308496	1.638456
0.308594	1.626898
0.308691	1.617039
0.308789	1.614527
0.308887	1.614727
0.308984	1.612687
0.309082	1.609325
0.309180	1.598533
0.309277	1.592909
0.309375	1.593111
0.309473	1.580764
0.309570	1.572777
0.309668	1.572691
0.309766	1.584953
0.309863	1.591768
0.309961	1.601217
0.310059	1.611130
0.310156	1.622795
0.310254	1.635051
0.310352	1.645178
0.310449	1.643690
0.310547	1.649468
0.310645	1.651202
0.310742	1.649275
0.310840	1.648663
0.310937	1.645768
0.311035	1.643927
0.311133	1.639608
0.311230	1.629342
0.311328	1.621725
0.311426	1.617212
0.311523	1.611456
0.311621	1.601842
0.311719	1.597740
0.311816	1.599314
0.311914	1.603900
0.312012	1.604191
0.312109	1.603615
0.312207	1.606706
0.312305	1.612349
0.312402	1.619366
0.312500	1.627358
0.312598	1.636120
0.312695	1.644997
0.312793	1.654559
0.312891	1.660284
0.312988	1.638675
0.313086	1.628598
0.313184	1.630941
0.313281	1.622715
0.313379	1.624377
0.313477	1.603018
0.313574	1.598035
0.313672	1.605900
0.313770	1.607893
0.313867	1.609163
0.313965	1.602875
0.314062	1.597040
0.314160	1.594459
0.314258	1.588639
0.314355	1.579238
0.314453	1.574319
0.314551	1.579083
0.314648	1.591350
0.314746	1.605176
0.314844	1.617762
0.314941	1.631982
0.315039	1.641165
0.315137	1.643248
0.315234	1.647090
0.315332	1.658766
0.315430	1.653762
0.315527	1.645391
0.315625	1.647347
0.315723	1.644799
0.315820	1.642109
0.315918	1.633853
0.316016	1.623990
0.316113	1.611381
0.316211	1.603138
0.316309	1.602651
0.316406	1.600404
0.316504	1.589571
0.316602	1.581690
0.316699	1.576137
0.316797	1.570653
0.316895	1.563077
0.316992	1.568520
0.317090	1.588954
0.317187	1.604819
0.317285	1.617559
0.317383	1.632182
0.317480	1.645653
0.317578	1.650145
0.317676	1.652874
0.317773	1.653465
0.317871	1.643431
0.317969	1.642845
0.318066	1.656532
0.318164	1.630992
0.318262	1.623134
0.318359	1.620045
0.318457	1.625139
0.318555	1.619486
0.318652	1.614647
0.318750	1.608824
0.318848	1.603596
0.318945	1.595487
0.319043	1.589301
0.319141	1.582396
0.319238	1.584620
0.319336	1.593022
0.319434	1.600572
0.319531	1.607331
0.319629	1.616092
0.319727	1.623657
0.319824	1.634994
0.319922	1.642057
0.320020	1.647602
0.320117	1.641477
0.320215	1.642913
0.320312	1.653491
0.320410	1.654804
0.320508	1.647847
0.320605	1.641533
0.320703	1.640093
0.320801	1.635672
0.320898	1.626947
0.320996	1.612996
0.321094	1.597191
0.321191	1.585362
0.321289	1.585675
0.321387	1.579256
0.321484	1.588091
0.321582	1.594388
0.321680	1.592483
0.321777	1.595902
0.321875	1.603292
0.321973	1.610640
0.322070	1.619605
0.322168	1.628037
0.322266	1.637541
0.322363	1.646065
0.322461	1.654921
0.322559	1.652513
0.322656	1.648567
0.322754	1.651211
0.322852	1.638232
0.322949	1.626907
0.323047	1.629989
0.323145	1.625676
0.323242	1.622458
0.323340	1.606097
0.323437	1.586875
0.323535	1.594032
0.323633	1.611730
0.323730	1.606873
0.323828	1.593349
0.323926	1.585340
0.324023	1.575275
0.324121	1.572554
0.324219	1.579595
0.324316	1.590611
0.324414	1.607737
0.324512	1.619729
0.324609	1.632929
0.324707	1.644077
0.324805	1.652825
0.324902	1.654989
0.325000	1.654979
0.325098	1.654243
0.325195	1.649478
0.325293	1.642227
0.325391	1.632139
0.325488	1.623623
0.325586	1.617368
0.325684	1.606940
0.325781	1.603485
0.325879	1.609555
0.325977	1.602319
0.326074	1.592450
0.326172	1.581940
0.326270	1.569624
0.326367	1.575604
0.326465	1.596713
0.326562	1.605916
0.326660	1.614951
0.326758	1.622590
0.326855	1.631379
0.326953	1.638886
0.327051	1.647968
0.327148	1.649195
0.327246	1.636726
0.327344	1.639096
0.327441	1.658802
0.327539	1.656452
0.327637	1.643449
0.327734	1.637108
0.327832	1.630487
0.327930	1.626698
0.328027	1.622927
0.328125	1.617851
0.328223	1.612396
0.328320	1.608682
0.328418	1.604137
0.328516	1.599842
0.328613	1.598760
0.328711	1.600668
0.328809	1.602956
0.328906	1.604199
0.329004	1.607643
0.329102	1.613400
0.329199	1.620626
0.329297	1.629343
0.329395	1.640387
0.329492	1.653853
0.329590	1.653917
0.329687	1.657232
0.329785	1.657317
0.329883	1.654744
0.329980	1.647476
0.330078	1.639894
0.330176	1.637074
0.330273	1.630542
0.330371	1.610417
0.330469	1.591730
0.330566	1.604891
0.330664	1.610334
0.330762	1.607366
0.330859	1.602723
0.330957	1.595473
0.331055	1.583142
0.331152	1.575524
0.331250	1.593012
0.331348	1.605323
0.331445	1.614547
0.331543	1.621982
0.331641	1.630565
0.331738	1.638299
0.331836	1.649093
0.331934	1.653659
0.332031	1.653572
0.332129	1.647246
0.332227	1.659356
0.332324	1.634824
0.332422	1.610391
0.332520	1.613406
0.332617	1.621141
0.332715	1.630571
0.332812	1.629230
0.332910	1.622140
0.333008	1.601077
0.333105	1.602095
0.333203	1.602499
0.333301	1.609273
0.333398	1.608936
0.333496	1.603567
0.333594	1.602494
0.333691	1.602297
0.333789	1.605701
0.333887	1.613256
0.333984	1.622439
0.334082	1.632980
0.334180	1.644326
0.334277	1.655120
0.334375	1.652303
0.334473	1.656022
0.334570	1.646585
0.334668	1.641733
0.334766	1.641072
0.334863	1.642668
0.334961	1.639880
0.335059	1.628972
0.335156	1.620324
0.335254	1.614263
0.335352	1.605779
0.335449	1.599964
0.335547	1.591363
0.335645	1.576279
0.335742	1.577659
0.335840	1.586440
0.335937	1.586235
0.336035	1.592543
0.336133	1.602192
0.336230	1.612562
0.336328	1.623134
0.336426	1.634678
0.336523	1.642832
0.336621	1.644411
0.336719	1.640212
0.336816	1.643755
0.336914	1.655967
0.337012	1.653143
0.337109	1.648365
0.337207	1.643175
0.337305	1.641270
0.337402	1.633767
0.337500	1.629517
0.337598	1.629175
0.337695	1.623909
0.337793	1.614752
0.337891	1.606923
0.337988	1.599690
0.338086	1.591056
0.338184	1.587359
0.338281	1.589346
0.338379	1.594026
0.338477	1.600630
0.338574	1.607282
0.338672	1.615422
0.338770	1.623981
0.338867	1.633318
0.338965	1.641923
0.339062	1.651499
0.339160	1.653652
0.339258	1.645557
0.339355	1.641183
0.339453	1.629891
0.339551	1.632460
0.339648	1.628209
0.339746	1.626935
0.339844	1.625091
0.339941	1.608919
0.340039	1.608506
0.340137	1.610088
0.340234	1.608864
0.340332	1.601421
0.340430	1.589722
0.340527	1.582480
0.340625	1.591178
0.340723	1.602119
0.340820	1.609070
0.340918	1.614688
0.341016	1.620388
0.341113	1.626329
0.341211	1.632870
0.341309	1.640428
0.341406	1.646971
0.341504	1.654294
0.341602	1.659380
0.341699	1.664837
0.341797	1.663343
0.341895	1.657396
0.341992	1.650570
0.342090	1.635555
0.342187	1.625719
0.342285	1.620197
0.342383	1.616685
0.342480	1.607945
0.342578	1.598274
0.342676	1.592054
0.342773	1.598601
0.342871	1.599774
0.342969	1.590571
0.343066	1.579900
0.343164	1.576369
0.343262	1.579934
0.343359	1.585772
0.343457	1.601349
0.343555	1.611776
0.343652	1.624905
0.343750	1.634603
0.343848	1.648025
0.343945	1.652460
0.344043	1.671476
0.344141	1.670770
0.344238	1.651143
0.344336	1.651134
0.344434	1.649647
0.344531	1.644762
0.344629	1.614627
0.344727	1.615693
0.344824	1.622160
0.344922	1.612150
0.345020	1.610367
0.345117	1.599820
0.345215	1.589593
0.345312	1.572633
0.345410	1.544892
0.345508	1.551332
0.345605	1.581826
0.345703	1.600090
0.345801	1.613691
0.345898	1.624737
0.345996	1.637607
0.346094	1.649170
0.346191	1.655632
0.346289	1.661088
0.346387	1.665133
0.346484	1.646418
0.346582	1.633585
0.346680	1.637611
0.346777	1.633254
0.346875	1.630180
0.346973	1.623735
0.347070	1.618943
0.347168	1.613171
0.347266	1.608812
0.347363	1.604436
0.347461	1.604414
0.347559	1.602806
0.347656	1.603159
0.347754	1.605907
0.347852	1.603916
0.347949	1.605359
0.348047	1.611323
0.348145	1.618026
0.348242	1.626503
0.348340	1.634920
0.348437	1.644829
0.348535	1.651691
0.348633	1.659175
0.348730	1.656900
0.348828	1.645242
0.348926	1.644594
0.349023	1.640480
0.349121	1.621881
0.349219	1.614178
0.349316	1.604299
0.349414	1.587278
0.349512	1.595134
0.349609	1.605293
0.349707	1.606490
0.349805	1.609549
0.349902	1.593976
0.350000	1.592100
0.350098	1.606058
0.350195	1.611045
0.350293	1.616163
0.350391	1.619563
0.350488	1.623516
0.350586	1.628272
0.350684	1.633427
0.350781	1.640970
0.350879	1.647980
0.350977	1.655798
0.351074	1.636877
0.351172	1.615539
0.351270	1.625717
0.351367	1.630705
0.351465	1.608479
0.351562	1.606840
0.351660	1.616646
0.351758	1.617201
0.351855	1.619322
0.351953	1.611753
0.352051	1.609480
0.352148	1.604057
0.352246	1.593334
0.352344	1.587079
0.352441	1.585346
0.352539	1.572440
0.352637	1.560065
0.352734	1.574808
0.352832	1.598718
0.352930	1.611182
0.353027	1.623724
0.353125	1.633784
0.353223	1.640741
0.353320	1.653534
0.353418	1.667525
0.353516	1.665368
0.353613	1.639341
0.353711	1.637784
0.353809	1.641562
0.353906	1.639187
0.354004	1.645525
0.354102	1.639631
0.354199	1.628931
0.354297	1.620418
0.354395	1.615180
0.354492	1.610623
0.354590	1.607807
0.354687	1.605647
0.354785	1.603938
0.354883	1.600139
0.354980	1.600688
0.355078	1.604204
0.355176	1.610146
0.355273	1.616291
0.355371	1.623875
0.355469	1.631508
0.355566	1.641276
0.355664	1.652062
0.355762	1.655373
0.355859	1.637936
0.355957	1.643889
0.356055	1.642187
0.356152	1.637705
0.356250	1.631796
0.356348	1.622098
0.356445	1.601648
0.356543	1.600826
0.356641	1.597390
0.356738	1.578807
0.356836	1.582800
0.356934	1.584567
0.357031	1.582043
0.357129	1.582007
0.357227	1.577863
0.357324	1.566333
0.357422	1.581482
0.357520	1.596595
0.357617	1.606362
0.357715	1.613655
0.357812	1.622726
0.357910	1.630747
0.358008	1.641451
0.358105	1.645179
0.358203	1.653256
0.358301	1.650130
0.358398	1.658530
0.358496	1.669524
0.358594	1.659637
0.358691	1.634816
0.358789	1.623986
0.358887	1.626102
0.358984	1.620300
0.359082	1.607247
0.359180	1.596896
0.359277	1.598627
0.359375	1.601158
0.359473	1.604398
0.359570	1.582532
0.359668	1.587746
0.359766	1.597808
0.359863	1.601439
0.359961	1.609737
0.360059	1.616220
0.360156	1.624311
0.360254	1.631351
0.360352	1.640887
0.360449	1.649316
0.360547	1.658842
0.360645	1.656005
0.360742	1.648210
0.360840	1.642245
0.360937	1.639182
0.361035	1.638435
0.361133	1.628796
0.361230	1.633141
0.361328	1.631240
0.361426	1.619448
0.361523	1.612850
0.361621	1.611327
0.361719	1.606436
0.361816	1.598797
0.361914	1.588020
0.362012	1.592819
0.362109	1.598199
0.362207	1.602064
0.362305	1.606924
0.362402	1.612991
0.362500	1.618783
0.362598	1.626171
0.362695	1.632944
0.362793	1.642576
0.362891	1.650977
0.362988	1.662064
0.363086	1.660738
0.363184	1.648746
0.363281	1.622688
0.363379	1.640369
0.363477	1.640965
0.363574	1.619985
0.363672	1.625699
0.363770	1.616288
0.363867	1.614694
0.363965	1.614203
0.364062	1.608148
0.364160	1.597497
0.364258	1.585204
0.364355	1.571845
0.364453	1.577440
0.364551	1.591669
0.364648	1.601558
0.364746	1.609160
0.364844	1.616196
0.364941	1.624022
0.365039	1.631916
0.365137	1.643994
0.365234	1.650205
0.365332	1.650107
0.365430	1.638480
0.365527	1.621329
0.365625	1.633629
0.365723	1.625020
0.365820	1.630226
0.365918	1.620470
0.366016	1.606576
0.366113	1.590681
0.366211	1.599371
0.366309	1.609307
0.366406	1.615197
0.366504	1.615270
0.366602	1.605796
0.366699	1.606591
0.366797	1.599985
0.366895	1.597692
0.366992	1.595176
0.367090	1.601503
0.367187	1.609610
0.367285	1.617604
0.367383	1.624874
0.367480	1.633051
0.367578	1.640928
0.367676	1.651360
0.367773	1.645824
0.367871	1.632332
0.367969	1.631257
0.368066	1.647915
0.368164	1.649439
0.368262	1.644141
0.368359	1.641789
0.368457	1.641557
0.368555	1.638830
0.368652	1.635974
0.368750	1.630653
0.368848	1.624125
0.368945	1.616652
0.369043	1.612839
0.369141	1.612519
0.369238	1.610457
0.369336	1.610431
0.369434	1.611479
0.369531	1.614089
0.369629	1.615395
0.369727	1.617284
0.369824	1.624450
0.369922	1.631628
0.370020	1.639310
0.370117	1.642983
0.370215	1.644914
0.370312	1.641345
0.370410	1.627201
0.370508	1.632723
0.370605	1.640635
0.370703	1.647071
0.370801	1.637876
0.370898	1.631824
0.370996	1.627986
0.371094	1.623561
0.371191	1.619021
0.371289	1.614213
0.371387	1.609300
0.371484	1.605231
0.371582	1.602855
0.371680	1.598544
0.371777	1.591277
0.371875	1.599651
0.371973	1.603610
0.372070	1.607026
0.372168	1.615856
0.372266	1.624198
0.372363	1.633925
0.372461	1.642210
0.372559	1.647397
0.372656	1.656027
0.372754	1.652719
0.372852	1.648866
0.372949	1.646178
0.373047	1.637021
0.373145	1.650719
0.373242	1.640073
0.373340	1.631010
0.373437	1.627400
0.373535	1.624689
0.373633	1.616527
0.373730	1.599520
0.373828	1.611350
0.373926	1.613782
0.374023	1.611640
0.374121	1.610762
0.374219	1.611443
0.374316	1.614467
0.374414	1.620365
0.374512	1.626164
0.374609	1.634639
0.374707	1.642220
0.374805	1.652484
0.374902	1.654160
0.375000	1.645373
0.375098	1.640091
0.375195	1.651849
0.375293	1.626320
0.375391	1.620208
0.375488	1.634681
0.375586	1.628164
0.375684	1.626969
0.375781	1.620977
0.375879	1.619676
0.375977	1.616918
0.376074	1.613948
0.376172	1.610623
0.376270	1.610037
0.376367	1.610654
0.376465	1.612794
0.376562	1.616109
0.376660	1.619639
0.376758	1.624497
0.376855	1.629155
0.376953	1.636398
0.377051	1.642958
0.377148	1.654353
0.377246	1.651173
0.377344	1.663878
0.377441	1.646826
0.377539	1.631536
0.377637	1.636610
0.377734	1.631531
0.377832	1.635893
0.377930	1.625927
0.378027	1.617904
0.378125	1.611758
0.378223	1.612468
0.378320	1.624666
0.378418	1.615314
0.378516	1.599107
0.378613	1.594573
0.378711	1.598451
0.378809	1.602606
0.378906	1.607036
0.379004	1.613259
0.379102	1.620472
0.379199	1.629794
0.379297	1.636232
0.379395	1.638280
0.379492	1.645624
0.379590	1.651247
0.379687	1.648672
0.379785	1.646972
0.379883	1.652511
0.379980	1.646603
0.380078	1.633473
0.380176	1.638025
0.380273	1.636657
0.380371	1.630157
0.380469	1.623501
0.380566	1.618794
0.380664	1.612182
0.380762	1.606158
0.380859	1.597235
0.380957	1.590099
0.381055	1.593540
0.381152	1.598534
0.381250	1.602101
0.381348	1.607865
0.381445	1.613909
0.381543	1.621020
0.381641	1.628704
0.381738	1.637233
0.381836	1.646821
0.381934	1.656564
0.382031	1.660043
0.382129	1.653766
0.382227	1.639390
0.382324	1.631412
0.382422	1.621541
0.382520	1.632331
0.382617	1.639584
0.382715	1.637599
0.382812	1.630172
0.382910	1.621365
0.383008	1.613882
0.383105	1.610172
0.383203	1.611053
0.383301	1.603529
0.383398	1.603658
0.383496	1.604517
0.383594	1.606712
0.383691	1.610392
0.383789	1.614733
0.383887	1.619537
0.383984	1.624914
0.384082	1.631230
0.384180	1.638660
0.384277	1.647775
0.384375	1.657858
0.384473	1.660759
0.384570	1.646618
0.384668	1.638025
0.384766	1.635832
0.384863	1.628371
0.384961	1.626901
0.385059	1.606872
0.385156	1.582542
0.385254	1.596813
0.385352	1.620847
0.385449	1.616351
0.385547	1.610615
0.385645	1.596311
0.385742	1.591929
0.385840	1.580120
0.385937	1.565093
0.386035	1.560021
0.386133	1.557104
0.386230	1.578030
0.386328	1.601209
0.386426	1.614768
0.386523	1.624890
0.386621	1.635459
0.386719	1.644977
0.386816	1.657935
0.386914	1.661445
0.387012	1.646782
0.387109	1.625490
0.387207	1.617538
0.387305	1.601602
0.387402	1.612949
0.387500	1.632286
0.387598	1.625351
0.387695	1.591926
0.387793	1.603537
0.387891	1.619693
0.387988	1.616585
0.388086	1.606829
0.388184	1.591392
0.388281	1.592752
0.388379	1.599031
0.388477	1.601734
0.388574	1.606903
0.388672	1.616219
0.388770	1.624417
0.388867	1.633728
0.388965	1.641961
0.389062	1.651070
0.389160	1.656604
0.389258	1.655302
0.389355	1.658360
0.389453	1.653826
0.389551	1.644714
0.389648	1.627026
0.389746	1.624370
0.389844	1.616242
0.389941	1.608378
0.390039	1.606928
0.390137	1.605820
0.390234	1.599524
0.390332	1.588346
0.390430	1.586785
0.390527	1.593775
0.390625	1.592776
0.390723	1.578974
0.390820	1.593020
0.390918	1.604201
0.391016	1.613420
0.391113	1.621737
0.391211	1.631366
0.391309	1.640120
0.391406	1.649562
0.391504	1.651770
0.391602	1.645290
0.391699	1.647252
0.391797	1.654574
0.391895	1.647374
0.391992	1.649365
0.392090	1.628428
0.392187	1.613179
0.392285	1.607809
0.392383	1.618500
0.392480	1.620120
0.392578	1.607662
0.392676	1.604865
0.392773	1.601630
0.392871	1.595026
0.392969	1.584493
0.393066	1.591392
0.393164	1.598563
0.393262	1.601784
0.393359	1.607949
0.393457	1.616063
0.393555	1.624793
0.393652	1.635332
0.393750	1.644922
0.393848	1.654126
0.393945	1.650349
0.394043	1.654918
0.394141	1.662379
0.394238	1.647483
0.394336	1.646170
0.394434	1.641902
0.394531	1.640761
0.394629	1.629520
0.394727	1.613543
0.394824	1.615112
0.394922	1.616398
0.395020	1.611766
0.395117	1.605722
0.395215	1.598446
0.395312	1.596190
0.395410	1.600848
0.395508	1.602988
0.395605	1.607927
0.395703	1.611055
0.395801	1.616119
0.395898	1.619607
0.395996	1.626775
0.396094	1.631832
0.396191	1.642274
0.396289	1.642643
0.396387	1.640284
0.396484	1.628652
0.396582	1.608518
0.396680	1.616475
0.396777	1.611466
0.396875	1.631581
0.396973	1.637942
0.397070	1.624709
0.397168	1.616612
0.397266	1.611881
0.397363	1.601475
0.397461	1.596460
0.397559	1.592539
0.397656	1.592507
0.397754	1.596725
0.397852	1.601580
0.397949	1.607492
0.398047	1.613395
0.398145	1.620185
0.398242	1.626952
0.398340	1.634645
0.398437	1.641221
0.398535	1.651413
0.398633	1.658340
0.398730	1.655515
0.398828	1.637162
0.398926	1.619120
0.399023	1.612286
0.399121	1.614694
0.399219	1.614034
0.399316	1.609824
0.399414	1.618772
0.399512	1.615298
0.399609	1.614106
0.399707	1.604007
0.399805	1.604547
0.399902	1.601837
0.400000	1.594194
0.400098	1.582329
0.400195	1.569299
0.400293	1.569868
0.400391	1.585221
0.400488	1.598061
0.400586	1.608204
0.400684	1.618386
0.400781	1.628781
0.400879	1.639178
0.400977	1.650187
0.401074	1.653686
0.401172	1.656913
0.401270	1.660867
0.401367	1.653752
0.401465	1.638022
0.401562	1.634229
0.401660	1.634042
0.401758	1.624836
0.401855	1.622087
0.401953	1.619549
0.402051	1.616933
0.402148	1.612532
0.402246	1.606393
0.402344	1.600597
0.402441	1.598404
0.402539	1.599747
0.402637	1.599312
0.402734	1.599851
0.402832	1.602988
0.402930	1.608533
0.403027	1.616670
0.403125	1.626699
0.403223	1.639745
0.403320	1.648112
0.403418	1.653385
0.403516	1.664240
0.403613	1.666233
0.403711	1.652072
0.403809	1.652019
0.403906	1.645752
0.404004	1.629177
0.404102	1.626235
0.404199	1.621527
0.404297	1.614758
0.404395	1.609462
0.404492	1.608373
0.404590	1.606249
0.404687	1.597770
0.404785	1.595960
0.404883	1.601473
0.404980	1.599459
0.405078	1.594733
0.405176	1.596737
0.405273	1.603434
0.405371	1.610936
0.405469	1.620790
0.405566	1.630246
0.405664	1.643200
0.405762	1.652429
0.405859	1.660285
0.405957	1.652281
0.406055	1.651586
0.406152	1.645852
0.406250	1.634747
0.406348	1.637890
0.406445	1.624300
0.406543	1.620639
0.406641	1.611916
0.406738	1.609920
0.406836	1.625014
0.406934	1.626521
0.407031	1.619400
0.407129	1.605633
0.407227	1.585906
0.407324	1.581654
0.407422	1.587777
0.407520	1.599697
0.407617	1.605333
0.407715	1.610433
0.407812	1.614935
0.407910	1.621653
0.408008	1.629887
0.408105	1.639942
0.408203	1.651481
0.408301	1.658577
0.408398	1.646532
0.408496	1.646822
0.408594	1.640316
0.408691	1.650194
0.408789	1.647210
0.408887	1.637297
0.408984	1.628906
0.409082	1.619367
0.409180	1.618392
0.409277	1.612824
0.409375	1.600948
0.409473	1.606169
0.409570	1.601492
0.409668	1.598117
0.409766	1.597157
0.409863	1.597167
0.409961	1.599149
0.410059	1.604084
0.410156	1.611562
0.410254	1.620904
0.410352	1.631921
0.410449	1.644624
0.410547	1.646806
0.410645	1.646546
0.410742	1.660010
0.410840	1.667334
0.410937	1.649545
0.411035	1.649392
0.411133	1.642573
0.411230	1.634376
0.411328	1.623467
0.411426	1.611050
0.411523	1.608189
0.411621	1.615987
0.411719	1.620747
0.411816	1.617348
0.411914	1.611560
0.412012	1.608382
0.412109	1.605390
0.412207	1.603745
0.412305	1.603999
0.412402	1.606757
0.412500	1.610933
0.412598	1.616897
0.412695	1.623563
0.412793	1.631558
0.412891	1.639577
0.412988	1.647171
0.413086	1.651050
0.413184	1.655249
0.413281	1.641376
0.413379	1.624355
0.413477	1.618889
0.413574	1.593966
0.413672	1.602716
0.413770	1.630483
0.413867	1.632241
0.413965	1.622927
0.414062	1.616998
0.414160	1.608999
0.414258	1.606717
0.414355	1.589794
0.414453	1.579029
0.414551	1.584950
0.414648	1.590268
0.414746	1.602203
0.414844	1.611939
0.414941	1.619193
0.415039	1.627119
0.415137	1.634096
0.415234	1.645977
0.415332	1.658149
0.415430	1.694858
0.415527	1.687881
0.415625	1.645452
0.415723	1.638394
0.415820	1.623272
0.415918	1.633466
0.416016	1.624131
0.416113	1.609000
0.416211	1.604725
0.416309	1.611401
0.416406	1.614092
0.416504	1.607158
0.416602	1.597925
0.416699	1.589837
0.416797	1.577738
0.416895	1.583694
0.416992	1.598266
0.417090	1.607851
0.417187	1.615192
0.417285	1.621628
0.417383	1.629058
0.417480	1.637036
0.417578	1.647641
0.417676	1.653210
0.417773	1.656210
0.417871	1.659381
0.417969	1.656332
0.418066	1.632159
0.418164	1.618708
0.418262	1.605624
0.418359	1.613626
0.418457	1.618873
0.418555	1.620875
0.418652	1.624132
0.418750	1.611397
0.418848	1.606452
0.418945	1.603293
0.419043	1.599419
0.419141	1.594272
0.419238	1.584623
0.419336	1.582510
0.419434	1.596104
0.419531	1.604400
0.419629	1.615231
0.419727	1.624762
0.419824	1.636546
0.419922	1.646694
0.420020	1.653793
0.420117	1.645533
0.420215	1.642751
0.420312	1.639157
0.420410	1.636168
0.420508	1.628628
0.420605	1.633095
0.420703	1.613567
0.420801	1.604915
0.420898	1.618360
0.420996	1.611929
0.421094	1.597228
0.421191	1.578308
0.421289	1.590625
0.421387	1.604831
0.421484	1.596888
0.421582	1.586158
0.421680	1.573863
0.421777	1.587125
0.421875	1.601425
0.421973	1.602469
0.422070	1.605527
0.422168	1.615079
0.422266	1.625742
0.422363	1.640171
0.422461	1.649127
0.422559	1.655473
0.422656	1.664152
0.422754	1.662993
0.422852	1.653584
0.422949	1.648456
0.423047	1.633277
0.423145	1.627298
0.423242	1.626431
0.423340	1.624375
0.423437	1.623719
0.423535	1.619339
0.423633	1.617630
0.423730	1.606175
0.423828	1.592258
0.423926	1.587588
0.424023	1.597499
0.424121	1.599377
0.424219	1.596729
0.424316	1.602674
0.424414	1.608838
0.424512	1.615687
0.424609	1.623505
0.424707	1.631202
0.424805	1.639428
0.424902	1.646117
0.425000	1.652882
0.425098	1.653414
0.425195	1.653439
0.425293	1.649411
0.425391	1.645095
0.425488	1.645339
0.425586	1.631345
0.425684	1.629296
0.425781	1.626971
0.425879	1.622301
0.425977	1.615197
0.426074	1.608825
0.426172	1.602136
0.426270	1.596339
0.426367	1.584352
0.426465	1.574770
0.426562	1.591506
0.426660	1.603570
0.426758	1.608980
0.426855	1.616257
0.426953	1.624055
0.427051	1.633130
0.427148	1.642878
0.427246	1.652255
0.427344	1.658384
0.427441	1.643688
0.427539	1.640184
0.427637	1.646969
0.427734	1.642056
0.427832	1.629051
0.427930	1.625769
0.428027	1.623156
0.428125	1.622475
0.428223	1.616982
0.428320	1.611303
0.428418	1.606118
0.428516	1.603514
0.428613	1.596463
0.428711	1.587157
0.428809	1.576039
0.428906	1.573407
0.429004	1.587746
0.429102	1.600854
0.429199	1.610728
0.429297	1.621507
0.429395	1.632703
0.429492	1.647158
0.429590	1.650869
0.429687	1.640123
0.429785	1.643173
0.429883	1.638778
0.429980	1.637718
0.430078	1.651643
0.430176	1.646795
0.430273	1.628877
0.430371	1.624225
0.430469	1.619621
0.430566	1.618967
0.430664	1.614881
0.430762	1.608558
0.430859	1.598978
0.430957	1.591870
0.431055	1.591029
0.431152	1.598400
0.431250	1.604335
0.431348	1.608092
0.431445	1.613149
0.431543	1.617238
0.431641	1.623034
0.431738	1.627926
0.431836	1.635591
0.431934	1.640730
0.432031	1.650556
0.432129	1.650653
0.432227	1.644498
0.432324	1.645763
0.432422	1.628057
0.432520	1.618311
0.432617	1.609579
0.432715	1.636142
0.432812	1.628627
0.432910	1.620172
0.433008	1.605245
0.433105	1.608319
0.433203	1.616113
0.433301	1.609157
0.433398	1.604858
0.433496	1.611351
0.433594	1.612395
0.433691	1.607074
0.433789	1.610115
0.433887	1.613687
0.433984	1.620274
0.434082	1.625429
0.434180	1.633714
0.434277	1.640993
0.434375	1.654749
0.434473	1.655548
0.434570	1.663220
0.434668	1.669930
0.434766	1.664381
0.434863	1.658237
0.434961	1.645802
0.435059	1.641041
0.435156	1.628964
0.435254	1.617485
0.435352	1.612222
0.435449	1.612299
0.435547	1.611922
0.435645	1.615209
0.435742	1.613032
0.435840	1.610117
0.435937	1.607190
0.436035	1.607408
0.436133	1.609177
0.436230	1.610027
0.436328	1.613806
0.436426	1.618019
0.436523	1.624166
0.436621	1.629594
0.436719	1.637408
0.436816	1.645964
0.436914	1.660659
0.437012	1.657298
0.437109	1.661429
0.437207	1.638391
0.437305	1.611429
0.437402	1.600391
0.437500	1.608248
0.437598	1.623868
0.437695	1.625121
0.437793	1.619814
0.437891	1.614143
0.437988	1.611387
0.438086	1.604378
0.438184	1.593620
0.438281	1.584282
0.438379	1.584313
0.438477	1.591043
0.438574	1.603562
0.438672	1.612310
0.438770	1.622600
0.438867	1.633971
0.438965	1.646156
0.439062	1.640705
0.439160	1.636983
0.439258	1.632492
0.439355	1.644425
0.439453	1.634221
0.439551	1.609196
0.439648	1.595628
0.439746	1.603122
0.439844	1.606879
0.439941	1.588709
0.440039	1.600499
0.440137	1.616440
0.440234	1.607680
0.440332	1.601865
0.440430	1.598752
0.440527	1.602677
0.440625	1.601448
0.440723	1.604611
0.440820	1.607639
0.440918	1.611435
0.441016	1.616139
0.441113	1.622400
0.441211	1.627655
0.441309	1.635118
0.441406	1.640738
0.441504	1.651414
0.441602	1.656615
0.441699	1.657556
0.441797	1.641820
0.441895	1.657597
0.441992	1.632733
0.442090	1.623181
0.442187	1.636849
0.442285	1.615408
0.442383	1.621612
0.442480	1.612968
0.442578	1.608767
0.442676	1.600786
0.442773	1.593524
0.442871	1.583643
0.442969	1.578622
0.443066	1.580174
0.443164	1.589848
0.443262	1.602112
0.443359	1.609322
0.443457	1.616178
0.443555	1.622666
0.443652	1.629445
0.443750	1.636956
0.443848	1.646200
0.443945	1.641690
0.444043	1.639886
0.444141	1.649447
0.444238	1.655394
0.444336	1.646664
0.444434	1.629149
0.444531	1.631297
0.444629	1.630614
0.444727	1.625470
0.444824	1.621552
0.444922	1.616855
0.445020	1.614583
0.445117	1.616266
0.445215	1.608597
0.445312	1.608816
0.445410	1.607746
0.445508	1.605524
0.445605	1.600819
0.445703	1.601167
0.445801	1.602832
0.445898	1.610111
0.445996	1.617620
0.446094	1.628946
0.446191	1.640138
0.446289	1.653957
0.446387	1.644238
0.446484	1.649340
0.446582	1.646270
0.446680	1.637809
0.446777	1.637933
0.446875	1.615386
0.446973	1.615122
0.447070	1.608053
0.447168	1.603538
0.447266	1.622742
0.447363	1.625479
0.447461	1.619318
0.447559	1.616409
0.447656	1.614575
0.447754	1.611405
0.447852	1.606363
0.447949	1.604047
0.448047	1.605232
0.448145	1.613708
0.448242	1.613885
0.448340	1.616143
0.448437	1.625089
0.448535	1.635035
0.448633	1.643451
0.448730	1.649754
0.448828	1.657918
0.448926	1.659656
0.449023	1.639246
0.449121	1.615551
0.449219	1.616573
0.449316	1.620569
0.449414	1.621976
0.449512	1.622162
0.449609	1.608473
0.449707	1.600047
0.449805	1.603281
0.449902	1.616975
0.450000	1.612023
0.450098	1.605978
0.450195	1.604539
0.450293	1.603827
0.450391	1.605004
0.450488	1.608315
0.450586	1.613223
0.450684	1.619838
0.450781	1.628400
0.450879	1.641215
0.450977	1.654109
0.451074	1.643516
0.451172	1.646414
0.451270	1.649819
0.451367	1.645676
0.451465	1.643552
0.451562	1.640103
0.451660	1.637641
0.451758	1.632693
0.451855	1.636308
0.451953	1.636134
0.452051	1.623314
0.452148	1.617627
0.452246	1.609801
0.452344	1.601934
0.452441	1.592705
0.452539	1.589372
0.452637	1.594119
0.452734	1.599607
0.452832	1.604074
0.452930	1.610349
0.453027	1.615988
0.453125	1.623081
0.453223	1.628890
0.453320	1.635114
0.453418	1.639161
0.453516	1.643894
0.453613	1.645317
0.453711	1.650551
0.453809	1.636084
0.453906	1.644847
0.454004	1.633611
0.454102	1.616051
0.454199	1.605644
0.454297	1.618782
0.454395	1.611374
0.454492	1.606552
0.454590	1.615020
0.454687	1.609925
0.454785	1.608859
0.454883	1.598897
0.454980	1.591904
0.455078	1.583950
0.455176	1.580436
0.455273	1.589759
0.455371	1.602196
0.455469	1.611739
0.455566	1.623320
0.455664	1.633416
0.455762	1.639933
0.455859	1.641325
0.455957	1.651559
0.456055	1.652726
0.456152	1.643985
0.456250	1.635421
0.456348	1.635888
0.456445	1.612017
0.456543	1.615881
0.456641	1.627179
0.456738	1.619930
0.456836	1.617267
0.456934	1.612169
0.457031	1.615684
0.457129	1.610538
0.457227	1.605542
0.457324	1.604064
0.457422	1.593480
0.457520	1.594416
0.457617	1.603860
0.457715	1.609506
0.457812	1.618104
0.457910	1.624216
0.458008	1.632990
0.458105	1.639266
0.458203	1.647290
0.458301	1.652562
0.458398	1.654302
0.458496	1.651407
0.458594	1.648204
0.458691	1.638612
0.458789	1.623219
0.458887	1.618741
0.458984	1.624092
0.459082	1.612749
0.459180	1.598886
0.459277	1.602328
0.459375	1.603389
0.459473	1.615242
0.459570	1.600590
0.459668	1.593692
0.459766	1.594221
0.459863	1.599079
0.459961	1.604789
0.460059	1.612275
0.460156	1.618261
0.460254	1.628031
0.460352	1.636035
0.460449	1.650939
0.460547	1.643915
0.460645	1.640432
0.460742	1.634210
0.460840	1.640643
0.460937	1.628078
0.461035	1.611344
0.461133	1.611443
0.461230	1.617332
0.461328	1.611750
0.461426	1.611658
0.461523	1.616421
0.461621	1.609333
0.461719	1.604242
0.461816	1.597900
0.461914	1.598004
0.462012	1.596608
0.462109	1.595490
0.462207	1.598012
0.462305	1.599379
0.462402	1.601337
0.462500	1.608514
0.462598	1.615992
0.462695	1.626182
0.462793	1.635083
0.462891	1.645964
0.462988	1.654340
0.463086	1.662151
0.463184	1.647178
0.463281	1.642011
0.463379	1.648592
0.463477	1.640708
0.463574	1.638076
0.463672	1.633514
0.463770	1.624715
0.463867	1.615323
0.463965	1.616623
0.464062	1.610436
0.464160	1.606597
0.464258	1.597998
0.464355	1.590756
0.464453	1.580444
0.464551	1.574602
0.464648	1.567952
0.464746	1.577193
0.464844	1.593380
0.464941	1.606020
0.465039	1.616469
0.465137	1.628369
0.465234	1.638642
0.465332	1.653817
0.465430	1.645311
0.465527	1.644855
0.465625	1.650778
0.465723	1.650395
0.465820	1.637684
0.465918	1.633266
0.466016	1.632244
0.466113	1.622162
0.466211	1.616172
0.466309	1.608405
0.466406	1.605555
0.466504	1.604309
0.466602	1.600287
0.466699	1.594742
0.466797	1.589192
0.466895	1.583492
0.466992	1.578826
0.467090	1.573149
0.467187	1.580279
0.467285	1.595861
0.467383	1.605332
0.467480	1.617387
0.467578	1.627020
0.467676	1.639182
0.467773	1.646960
0.467871	1.657635
0.467969	1.655374
0.468066	1.648732
0.468164	1.643088
0.468262	1.646616
0.468359	1.637015
0.468457	1.622705
0.468555	1.626518
0.468652	1.616140
0.468750	1.615804
0.468848	1.612385
0.468945	1.610447
0.469043	1.605686
0.469141	1.599808
0.469238	1.591483
0.469336	1.584252
0.469434	1.581221
0.469531	1.578630
0.469629	1.584547
0.469727	1.600461
0.469824	1.610534
0.469922	1.620916
0.470020	1.630439
0.470117	1.640310
0.470215	1.648556
0.470312	1.653583
0.470410	1.656798
0.470508	1.652492
0.470605	1.647061
0.470703	1.628457
0.470801	1.611576
0.470898	1.608728
0.470996	1.600910
0.471094	1.599725
0.471191	1.606475
0.471289	1.603814
0.471387	1.589939
0.471484	1.588538
0.471582	1.581667
0.471680	1.591714
0.471777	1.604418
0.471875	1.605385
0.471973	1.609959
0.472070	1.616841
0.472168	1.624294
0.472266	1.633407
0.472363	1.641826
0.472461	1.648375
0.472559	1.652357
0.472656	1.656379
0.472754	1.649308
0.472852	1.643711
0.472949	1.630767
0.473047	1.633711
0.473145	1.634849
0.473242	1.636056
0.473340	1.639162
0.473437	1.630906
0.473535	1.613715
0.473633	1.621310
0.473730	1.622788
0.473828	1.594161
0.473926	1.584739
0.474023	1.579248
0.474121	1.564089
0.474219	1.556198
0.474316	1.553648
0.474414	1.574463
0.474512	1.601730
0.474609	1.611739
0.474707	1.624203
0.474805	1.634058
0.474902	1.644065
0.475000	1.654237
0.475098	1.651753
0.475195	1.640775
0.475293	1.647240
0.475391	1.645049
0.475488	1.640313
0.475586	1.629146
0.475684	1.616945
0.475781	1.589416
0.475879	1.591827
0.475977	1.619944
0.476074	1.617962
0.476172	1.610918
0.476270	1.600747
0.476367	1.595687
0.476465	1.599072
0.476562	1.602225
0.476660	1.604940
0.476758	1.609438
0.476855	1.613771
0.476953	1.621273
0.477051	1.628414
0.477148	1.640464
0.477246	1.649149
0.477344	1.655245
0.477441	1.650907
0.477539	1.646845
0.477637	1.637565
0.477734	1.636862
0.477832	1.658196
0.477930	1.637986
0.478027	1.635294
0.478125	1.627174
0.478223	1.621845
0.478320	1.615571
0.478418	1.612457
0.478516	1.607276
0.478613	1.602786
0.478711	1.597092
0.478809	1.592644
0.478906	1.590630
0.479004	1.595517
0.479102	1.598276
0.479199	1.604995
0.479297	1.611759
0.479395	1.621689
0.479492	1.630059
0.479590	1.640630
0.479687	1.637917
0.479785	1.637537
0.479883	1.645374
0.479980	1.644260
0.480078	1.642354
0.480176	1.632391
0.480273	1.634291
0.480371	1.639574
0.480469	1.640675
0.480566	1.630047
0.480664	1.621078
0.480762	1.614867
0.480859	1.610045
0.480957	1.605355
0.481055	1.601585
0.481152	1.599388
0.481250	1.599030
0.481348	1.601348
0.481445	1.602429
0.481543	1.604519
0.481641	1.609308
0.481738	1.615904
0.481836	1.623225
0.481934	1.631546
0.482031	1.640370
0.482129	1.649706
0.482227	1.654335
0.482324	1.651402
0.482422	1.642217
0.482520	1.638513
0.482617	1.634558
0.482715	1.633181
0.482812	1.640108
0.482910	1.625932
0.483008	1.615904
0.483105	1.615622
0.483203	1.615119
0.483301	1.607273
0.483398	1.586591
0.483496	1.562183
0.483594	1.569616
0.483691	1.571357
0.483789	1.578555
0.483887	1.588264
0.483984	1.598152
0.484082	1.609332
0.484180	1.618658
0.484277	1.627262
0.484375	1.636629
0.484473	1.646492
0.484570	1.656570
0.484668	1.662226
0.484766	1.666652
0.484863	1.662148
0.484961	1.650552
0.485059	1.630410
0.485156	1.622774
0.485254	1.631865
0.485352	1.628568
0.485449	1.618329
0.485547	1.612975
0.485645	1.601016
0.485742	1.598594
0.485840	1.608574
0.485937	1.600004
0.486035	1.600166
0.486133	1.602344
0.486230	1.605093
0.486328	1.608781
0.486426	1.614355
0.486523	1.620238
0.486621	1.627632
0.486719	1.634678
0.486816	1.643237
0.486914	1.652366
0.487012	1.656094
0.487109	1.653881
0.487207	1.643775
0.487305	1.648101
0.487402	1.638239
0.487500	1.636711
0.487598	1.636874
0.487695	1.630738
0.487793	1.624304
0.487891	1.615647
0.487988	1.609093
0.488086	1.613565
0.488184	1.616501
0.488281	1.615793
0.488379	1.614402
0.488477	1.610568
0.488574	1.607909
0.488672	1.607740
0.488770	1.610071
0.488867	1.614566
0.488965	1.620731
0.489062	1.628270
0.489160	1.636168
0.489258	1.643358
0.489355	1.648794
0.489453	1.654944
0.489551	1.653641
0.489648	1.643376
0.489746	1.642462
0.489844	1.641500
0.489941	1.635286
0.490039	1.629961
0.490137	1.625447
0.490234	1.621997
0.490332	1.616547
0.490430	1.613799
0.490527	1.604908
0.490625	1.594969
0.490723	1.593019
0.490820	1.601967
0.490918	1.596385
0.491016	1.595656
0.491113	1.603817
0.491211	1.609161
0.491309	1.617223
0.491406	1.624733
0.491504	1.632424
0.491602	1.639589
0.491699	1.644257
0.491797	1.651883
0.491895	1.651487
0.491992	1.640055
0.492090	1.624170
0.492187	1.617338
0.492285	1.633182
0.492383	1.623979
0.492480	1.618938
0.492578	1.619396
0.492676	1.614434
0.492773	1.600868
0.492871	1.588358
0.492969	1.594243
0.493066	1.599335
0.493164	1.592906
0.493262	1.599788
0.493359	1.603747
0.493457	1.608883
0.493555	1.613262
0.493652	1.620250
0.493750	1.626706
0.493848	1.635279
0.493945	1.642145
0.494043	1.651860
0.494141	1.658842
0.494238	1.670557
0.494336	1.659959
0.494434	1.662784
0.494531	1.660268
0.494629	1.640176
0.494727	1.627592
0.494824	1.614689
0.494922	1.611990
0.495020	1.613852
0.495117	1.614398
0.495215	1.611737
0.495312	1.606142
0.495410	1.598041
0.495508	1.592896
0.495605	1.591151
0.495703	1.595765
0.495801	1.599968
0.495898	1.604456
0.495996	1.610991
0.496094	1.618215
0.496191	1.626500
0.496289	1.635263
0.496387	1.649666
0.496484	1.655415
0.496582	1.655854
0.496680	1.657522
0.496777	1.644606
0.496875	1.639996
0.496973	1.635719
0.497070	1.631514
0.497168	1.629293
0.497266	1.619688
0.497363	1.616807
0.497461	1.611642
0.497559	1.607705
0.497656	1.601438
0.497754	1.595265
0.497852	1.586687
0.497949	1.577292
0.498047	1.565477
0.498145	1.570780
0.498242	1.590893
0.498340	1.606352
0.498437	1.617797
0.498535	1.628059
0.498633	1.636837
0.498730	1.645279
0.498828	1.650015
0.498926	1.641970
0.499023	1.642437
0.499121	1.633740
0.499219	1.627326
0.499316	1.633964
0.499414	1.620718
0.499512	1.613963
0.499609	1.603669
0.499707	1.609905
0.499805	1.614963
0.499902	1.606325
0.500000	1.601741
0.500098	1.594573
0.500195	1.589582
0.500293	1.586109
0.500391	1.591855
0.500488	1.596525
0.500586	1.603701
0.500684	1.610043
0.500781	1.618387
0.500879	1.624878
0.500977	1.634792
0.501074	1.642919
0.501172	1.656178
0.501270	1.653865
0.501367	1.660649
0.501465	1.651090
0.501562	1.617287
0.501660	1.616393
0.501758	1.607839
0.501855	1.616025
0.501953	1.608886
0.502051	1.591663
0.502148	1.592332
0.502246	1.610851
0.502344	1.613667
0.502441	1.607692
0.502539	1.593673
0.502637	1.588101
0.502734	1.593726
0.502832	1.603541
0.502930	1.607973
0.503027	1.614278
0.503125	1.619346
0.503223	1.626277
0.503320	1.632425
0.503418	1.640019
0.503516	1.646969
0.503613	1.653013
0.503711	1.651844
0.503809	1.646713
0.503906	1.642131
0.504004	1.636694
0.504102	1.632760
0.504199	1.630999
0.504297	1.629181
0.504395	1.618065
0.504492	1.626778
0.504590	1.609438
0.504687	1.605255
0.504785	1.613602
0.504883	1.617260
0.504980	1.607487
0.505078	1.608846
0.505176	1.609321
0.505273	1.611136
0.505371	1.612990
0.505469	1.615112
0.505566	1.619537
0.505664	1.626534
0.505762	1.633076
0.505859	1.642956
0.505957	1.650283
0.506055	1.653141
0.506152	1.662973
0.506250	1.655732
0.506348	1.656003
0.506445	1.635149
0.506543	1.616923
0.506641	1.610435
0.506738	1.612964
0.506836	1.607878
0.506934	1.607110
0.507031	1.608669
0.507129	1.611277
0.507227	1.605906
0.507324	1.599318
0.507422	1.593125
0.507520	1.596092
0.507617	1.600075
0.507715	1.603939
0.507812	1.610012
0.507910	1.617794
0.508008	1.626180
0.508105	1.636001
0.508203	1.646097
0.508301	1.654764
0.508398	1.655709
0.508496	1.633775
0.508594	1.648576
0.508691	1.641572
0.508789	1.635554
0.508887	1.623976
0.508984	1.617681
0.509082	1.602453
0.509180	1.585552
0.509277	1.610010
0.509375	1.603761
0.509473	1.601443
0.509570	1.600913
0.509668	1.597964
0.509766	1.563035
0.509863	1.559669
0.509961	1.572217
0.510059	1.586353
0.510156	1.601852
0.510254	1.609435
0.510352	1.618102
0.510449	1.625694
0.510547	1.634210
0.510645	1.645351
0.510742	1.654112
0.510840	1.674282
0.510937	1.655879
0.511035	1.644783
0.511133	1.648397
0.511230	1.647430
0.511328	1.642776
0.511426	1.630280
0.511523	1.624667
0.511621	1.622448
0.511719	1.609669
0.511816	1.601764
0.511914	1.605170
0.512012	1.603687
0.512109	1.604733
0.512207	1.600721
0.512305	1.598830
0.512402	1.600219
0.512500	1.604063
0.512598	1.610680
0.512695	1.619561
0.512793	1.629137
0.512891	1.637797
0.512988	1.648083
0.513086	1.651521
0.513184	1.643092
0.513281	1.642282
0.513379	1.643382
0.513477	1.643186
0.513574	1.632463
0.513672	1.631632
0.513770	1.618779
0.513867	1.612944
0.513965	1.612440
0.514062	1.610535
0.514160	1.607396
0.514258	1.603417
0.514355	1.596913
0.514453	1.590649
0.514551	1.585330
0.514648	1.581529
0.514746	1.586103
0.514844	1.596594
0.514941	1.602917
0.515039	1.611754
0.515137	1.620479
0.515234	1.629364
0.515332	1.637754
0.515430	1.645803
0.515527	1.652866
0.515625	1.655388
0.515723	1.650280
0.515820	1.640067
0.515918	1.629978
0.516016	1.616778
0.516113	1.608371
0.516211	1.620969
0.516309	1.634471
0.516406	1.628674
0.516504	1.620795
0.516602	1.615720
0.516699	1.611504
0.516797	1.611051
0.516895	1.606133
0.516992	1.601107
0.517090	1.599946
0.517187	1.601928
0.517285	1.606317
0.517383	1.612188
0.517480	1.617709
0.517578	1.624209
0.517676	1.630066
0.517773	1.639144
0.517871	1.647773
0.517969	1.660491
0.518066	1.645369
0.518164	1.630911
0.518262	1.640445
0.518359	1.619076
0.518457	1.604974
0.518555	1.622011
0.518652	1.626166
0.518750	1.616466
0.518848	1.620428
0.518945	1.611408
0.519043	1.606486
0.519141	1.600677
0.519238	1.596392
0.519336	1.589641
0.519434	1.594971
0.519531	1.602027
0.519629	1.606430
0.519727	1.606928
0.519824	1.613080
0.519922	1.621002
0.520020	1.630578
0.520117	1.638682
0.520215	1.646840
0.520312	1.647605
0.520410	1.638141
0.520508	1.627316
0.520605	1.629347
0.520703	1.641391
0.520801	1.627530
0.520898	1.627176
0.520996	1.629499
0.521094	1.622868
0.521191	1.616452
0.521289	1.612435
0.521387	1.609491
0.521484	1.607954
0.521582	1.606482
0.521680	1.606312
0.521777	1.605933
0.521875	1.607546
0.521973	1.608877
0.522070	1.611979
0.522168	1.614735
0.522266	1.619635
0.522363	1.624220
0.522461	1.631491
0.522559	1.637170
0.522656	1.645488
0.522754	1.641193
0.522852	1.641232
0.522949	1.645136
0.523047	1.653404
0.523145	1.654331
0.523242	1.641358
0.523340	1.639966
0.523437	1.632292
0.523535	1.628412
0.523633	1.622462
0.523730	1.618802
0.523828	1.613184
0.523926	1.607238
0.524023	1.599133
0.524121	1.598162
0.524219	1.589852
0.524316	1.591295
0.524414	1.594459
0.524512	1.597926
0.524609	1.608150
0.524707	1.615989
0.524805	1.625473
0.524902	1.633261
0.525000	1.640873
0.525098	1.646973
0.525195	1.648300
0.525293	1.652875
0.525391	1.650755
0.525488	1.641300
0.525586	1.625926
0.525684	1.613146
0.525781	1.624476
0.525879	1.617777
0.525977	1.615779
0.526074	1.607909
0.526172	1.612864
0.526270	1.619346
0.526367	1.604650
0.526465	1.596109
0.526562	1.590814
0.526660	1.585028
0.526758	1.579048
0.526855	1.578362
0.526953	1.592682
0.527051	1.601126
0.527148	1.610178
0.527246	1.620273
0.527344	1.630374
0.527441	1.638751
0.527539	1.645191
0.527637	1.648689
0.527734	1.657584
0.527832	1.647597
0.527930	1.646873
0.528027	1.643650
0.528125	1.621606
0.528223	1.614006
0.528320	1.624551
0.528418	1.629926
0.528516	1.624175
0.528613	1.623216
0.528711	1.614306
0.528809	1.604232
0.528906	1.596958
0.529004	1.585343
0.529102	1.565237
0.529199	1.568958
0.529297	1.591160
0.529395	1.605741
0.529492	1.616167
0.529590	1.624804
0.529687	1.633049
0.529785	1.640204
0.529883	1.647290
0.529980	1.649294
0.530078	1.653069
0.530176	1.651437
0.530273	1.634226
0.530371	1.618400
0.530469	1.633347
0.530566	1.635567
0.530664	1.631957
0.530762	1.625144
0.530859	1.615937
0.530957	1.614510
0.531055	1.610740
0.531152	1.607105
0.531250	1.599858
0.531348	1.600799
0.531445	1.602762
0.531543	1.603879
0.531641	1.607962
0.531738	1.613040
0.531836	1.620114
0.531934	1.627326
0.532031	1.636289
0.532129	1.641778
0.532227	1.647048
0.532324	1.642204
0.532422	1.627654
0.532520	1.643653
0.532617	1.642140
0.532715	1.647824
0.532812	1.640578
0.532910	1.626182
0.533008	1.611975
0.533105	1.596211
0.533203	1.598767
0.533301	1.606873
0.533398	1.606290
0.533496	1.610131
0.533594	1.611191
0.533691	1.610216
0.533789	1.609971
0.533887	1.609970
0.533984	1.610683
0.534082	1.614032
0.534180	1.618746
0.534277	1.626375
0.534375	1.636865
0.534473	1.658431
0.534570	1.674437
0.534668	1.666094
0.534766	1.663129
0.534863	1.641731
0.534961	1.634578
0.535059	1.628768
0.535156	1.615993
0.535254	1.609367
0.535352	1.610850
0.535449	1.608086
0.535547	1.606765
0.535645	1.603634
0.535742	1.600581
0.535840	1.594157
0.535937	1.590350
0.536035	1.598153
0.536133	1.598147
0.536230	1.598462
0.536328	1.605835
0.536426	1.611941
0.536523	1.617982
0.536621	1.623274
0.536719	1.630822
0.536816	1.638706
0.536914	1.647193
0.537012	1.653304
0.537109	1.656689
0.537207	1.649846
0.537305	1.640796
0.537402	1.636394
0.537500	1.634400
0.537598	1.629567
0.537695	1.618169
0.537793	1.622094
0.537891	1.625788
0.537988	1.622406
0.538086	1.609998
0.538184	1.610082
0.538281	1.608457
0.538379	1.611555
0.538477	1.611176
0.538574	1.610156
0.538672	1.611262
0.538770	1.617300
0.538867	1.621462
0.538965	1.631195
0.539062	1.640123
0.539160	1.672836
0.539258	1.648409
0.539355	1.652337
0.539453	1.648668
0.539551	1.634463
0.539648	1.639296
0.539746	1.640741
0.539844	1.637798
0.539941	1.615217
0.540039	1.601741
0.540137	1.601489
0.540234	1.595108
0.540332	1.578806
0.540430	1.556260
0.540527	1.559795
0.540625	1.572545
0.540723	1.573434
0.540820	1.579896
0.540918	1.593136
0.541016	1.601324
0.541113	1.606088
0.541211	1.611299
0.541309	1.618502
0.541406	1.623796
0.541504	1.633289
0.541602	1.643712
0.541699	1.674017
0.541797	1.653326
0.541895	1.621968
0.541992	1.637671
0.542090	1.626418
0.542187	1.636438
0.542285	1.630082
0.542383	1.627237
0.542480	1.623342
0.542578	1.617900
0.542676	1.613082
0.542773	1.608979
0.542871	1.602745
0.542969	1.596043
0.543066	1.587370
0.543164	1.579086
0.543262	1.573035
0.543359	1.573887
0.543457	1.584261
0.543555	1.599501
0.543652	1.610627
0.543750	1.622586
0.543848	1.631869
0.543945	1.641791
0.544043	1.647365
0.544141	1.651127
0.544238	1.632314
0.544336	1.622115
0.544434	1.633862
0.544531	1.627296
0.544629	1.623525
0.544727	1.619879
0.544824	1.616121
0.544922	1.617328
0.545020	1.621251
0.545117	1.619917
0.545215	1.618126
0.545312	1.612825
0.545410	1.610815
0.545508	1.611786
0.545605	1.611961
0.545703	1.613833
0.545801	1.615230
0.545898	1.618761
0.545996	1.621136
0.546094	1.627088
0.546191	1.631447
0.546289	1.644921
0.546387	1.646269
0.546484	1.635212
0.546582	1.651216
0.546680	1.654437
0.546777	1.658217
0.546875	1.653087
0.546973	1.654982
0.547070	1.641931
0.547168	1.636930
0.547266	1.625743
0.547363	1.618234
0.547461	1.614164
0.547559	1.611437
0.547656	1.605524
0.547754	1.599870
0.547852	1.590423
0.547949	1.582767
0.548047	1.578062
0.548145	1.578586
0.548242	1.584367
0.548340	1.593394
0.548437	1.602083
0.548535	1.614552
0.548633	1.624685
0.548730	1.640518
0.548828	1.648543
0.548926	1.655781
0.549023	1.665148
0.549121	1.660595
0.549219	1.652183
0.549316	1.644377
0.549414	1.641834
0.549512	1.635198
0.549609	1.629371
0.549707	1.622624
0.549805	1.616203
0.549902	1.608930
0.550000	1.601812
0.550098	1.595359
0.550195	1.590889
0.550293	1.587874
0.550391	1.587897
0.550488	1.595727
0.550586	1.601824
0.550684	1.607612
0.550781	1.615391
0.550879	1.623552
0.550977	1.632425
0.551074	1.641058
0.551172	1.651069
0.551270	1.657791
0.551367	1.656131
0.551465	1.659391
0.551562	1.658214
0.551660	1.643094
0.551758	1.630612
0.551855	1.622087
0.551953	1.621274
0.552051	1.613220
0.552148	1.603701
0.552246	1.609395
0.552344	1.603624
0.552441	1.589220
0.552539	1.590354
0.552637	1.592488
0.552734	1.596690
0.552832	1.602900
0.552930	1.606228
0.553027	1.610561
0.553125	1.616078
0.553223	1.621955
0.553320	1.629833
0.553418	1.636976
0.553516	1.647937
0.553613	1.652033
0.553711	1.652443
0.553809	1.656530
0.553906	1.651394
0.554004	1.625550
0.554102	1.631116
0.554199	1.648325
0.554297	1.642355
0.554395	1.630393
0.554492	1.621177
0.554590	1.615976
0.554687	1.604669
0.554785	1.594374
0.554883	1.597876
0.554980	1.600619
0.555078	1.601905
0.555176	1.601769
0.555273	1.602927
0.555371	1.606098
0.555469	1.610842
0.555566	1.616349
0.555664	1.623309
0.555762	1.631005
0.555859	1.642493
0.555957	1.651935
0.556055	1.670626
0.556152	1.669851
0.556250	1.656539
0.556348	1.653658
0.556445	1.637687
0.556543	1.626120
0.556641	1.610251
0.556738	1.614917
0.556836	1.624730
0.556934	1.618517
0.557031	1.617731
0.557129	1.613294
0.557227	1.608777
0.557324	1.602239
0.557422	1.595755
0.557520	1.584009
0.557617	1.571487
0.557715	1.580476
0.557812	1.590697
0.557910	1.599862
0.558008	1.609494
0.558105	1.619435
0.558203	1.629836
0.558301	1.639966
0.558398	1.649149
0.558496	1.655137
0.558594	1.647534
0.558691	1.652172
0.558789	1.643885
0.558887	1.634980
0.558984	1.626608
0.559082	1.632951
0.559180	1.634490
0.559277	1.620305
0.559375	1.617787
0.559473	1.611773
0.559570	1.604273
0.559668	1.594015
0.559766	1.599004
0.559863	1.599155
0.559961	1.596414
0.560059	1.600035
0.560156	1.605830
0.560254	1.611886
0.560352	1.618797
0.560449	1.625711
0.560547	1.634270
0.560645	1.643281
0.560742	1.656573
0.560840	1.650364
0.560937	1.655194
0.561035	1.652337
0.561133	1.638703
0.561230	1.632896
0.561328	1.633787
0.561426	1.615958
0.561523	1.620269
0.561621	1.611265
0.561719	1.612374
0.561816	1.617198
0.561914	1.615784
0.562012	1.620244
0.562109	1.616332
0.562207	1.615120
0.562305	1.611379
0.562402	1.610659
0.562500	1.610319
0.562598	1.613338
0.562695	1.616214
0.562793	1.622174
0.562891	1.625923
0.562988	1.633394
0.563086	1.637926
0.563184	1.649876
0.563281	1.650557
0.563379	1.655580
0.563477	1.671181
0.563574	1.654579
0.563672	1.641162
0.563770	1.634168
0.563867	1.625709
0.563965	1.621172
0.564062	1.616360
0.564160	1.615346
0.564258	1.618431
0.564355	1.612698
0.564453	1.605940
0.564551	1.604365
0.564648	1.605669
0.564746	1.601953
0.564844	1.603533
0.564941	1.602659
0.565039	1.608897
0.565137	1.613789
0.565234	1.623134
0.565332	1.629680
0.565430	1.639412
0.565527	1.634233
0.565625	1.647387
0.565723	1.653402
0.565820	1.655314
0.565918	1.653946
0.566016	1.644740
0.566113	1.639219
0.566211	1.630509
0.566309	1.626167
0.566406	1.625737
0.566504	1.612500
0.566602	1.587430
0.566699	1.591545
0.566797	1.597301
0.566895	1.602176
0.566992	1.599443
0.567090	1.589241
0.567187	1.587849
0.567285	1.597043
0.567383	1.603016
0.567480	1.611678
0.567578	1.619353
0.567676	1.629236
0.567773	1.638148
0.567871	1.649439
0.567969	1.655867
0.568066	1.656254
0.568164	1.647772
0.568262	1.645942
0.568359	1.638527
0.568457	1.635970
0.568555	1.632673
0.568652	1.629861
0.568750	1.626752
0.568848	1.623032
0.568945	1.617112
0.569043	1.609617
0.569141	1.602620
0.569238	1.590836
0.569336	1.583206
0.569434	1.594121
0.569531	1.599284
0.569629	1.605129
0.569727	1.607491
0.569824	1.614075
0.569922	1.621410
0.570020	1.630700
0.570117	1.639483
0.570215	1.649368
0.570312	1.651089
0.570410	1.651986
0.570508	1.648780
0.570605	1.642778
0.570703	1.644721
0.570801	1.647588
0.570898	1.648440
0.570996	1.632793
0.571094	1.601210
0.571191	1.601432
0.571289	1.618723
0.571387	1.621627
0.571484	1.621482
0.571582	1.617141
0.571680	1.612846
0.571777	1.607826
0.571875	1.605509
0.571973	1.605032
0.572070	1.608078
0.572168	1.612335
0.572266	1.619165
0.572363	1.626085
0.572461	1.635155
0.572559	1.643405
0.572656	1.652593
0.572754	1.658336
0.572852	1.665724
0.572949	1.657276
0.573047	1.653218
0.573145	1.653308
0.573242	1.647965
0.573340	1.642031
0.573437	1.635484
0.573535	1.626065
0.573633	1.614187
0.573730	1.612964
0.573828	1.606450
0.573926	1.600761
0.574023	1.591952
0.574121	1.580830
0.574219	1.570918
0.574316	1.581961
0.574414	1.597641
0.574512	1.603022
0.574609	1.611214
0.574707	1.618540
0.574805	1.629422
0.574902	1.634210
0.575000	1.641441
0.575098	1.646482
0.575195	1.649770
0.575293	1.645220
0.575391	1.648002
0.575488	1.644790
0.575586	1.646180
0.575684	1.626064
0.575781	1.627449
0.575879	1.632643
0.575977	1.617531
0.576074	1.619798
0.576172	1.614969
0.576270	1.614768
0.576367	1.611597
0.576465	1.611869
0.576562	1.607693
0.576660	1.605026
0.576758	1.602378
0.576855	1.605083
0.576953	1.609204
0.577051	1.616034
0.577148	1.623662
0.577246	1.632817
0.577344	1.640537
0.577441	1.642936
0.577539	1.642537
0.577637	1.654795
0.577734	1.657588
0.577832	1.647588
0.577930	1.615633
0.578027	1.592732
0.578125	1.615987
0.578223	1.607195
0.578320	1.604251
0.578418	1.593303
0.578516	1.587500
0.578613	1.595976
0.578711	1.596155
0.578809	1.591526
0.578906	1.581826
0.579004	1.582052
0.579102	1.591885
0.579199	1.601785
0.579297	1.610309
0.579395	1.617863
0.579492	1.623963
0.579590	1.630155
0.579687	1.636275
0.579785	1.644877
0.579883	1.653071
0.579980	1.667984
0.580078	1.677877
0.580176	1.661686
0.580273	1.638808
0.580371	1.622554
0.580469	1.629607
0.580566	1.631434
0.580664	1.623939
0.580762	1.616371
0.580859	1.608012
0.580957	1.605208
0.581055	1.599393
0.581152	1.593075
0.581250	1.587962
0.581348	1.594508
0.581445	1.605958
0.581543	1.612506
0.581641	1.609009
0.581738	1.612231
0.581836	1.618167
0.581934	1.625686
0.582031	1.633449
0.582129	1.644730
0.582227	1.659795
0.582324	1.658621
0.582422	1.648966
0.582520	1.636411
0.582617	1.638773
0.582715	1.640388
0.582812	1.632045
0.582910	1.631035
0.583008	1.630898
0.583105	1.624566
0.583203	1.619669
0.583301	1.613450
0.583398	1.607771
0.583496	1.599709
0.583594	1.590854
0.583691	1.585193
0.583789	1.592363
0.583887	1.599915
0.583984	1.607650
0.584082	1.615256
0.584180	1.622891
0.584277	1.631182
0.584375	1.639260
0.584473	1.648768
0.584570	1.655828
0.584668	1.645916
0.584766	1.634565
0.584863	1.630741
0.584961	1.647164
0.585059	1.649870
0.585156	1.629649
0.585254	1.628157
0.585352	1.626593
0.585449	1.623192
0.585547	1.621464
0.585645	1.612719
0.585742	1.602333
0.585840	1.596621
0.585937	1.598077
0.586035	1.599847
0.586133	1.601546
0.586230	1.603608
0.586328	1.607773
0.586426	1.612518
0.586523	1.620361
0.586621	1.627564
0.586719	1.638580
0.586816	1.646703
0.586914	1.661114
0.587012	1.660744
0.587109	1.650581
0.587207	1.636856
0.587305	1.642329
0.587402	1.632223
0.587500	1.622060
0.587598	1.637436
0.587695	1.630506
0.587793	1.624848
0.587891	1.618549
0.587988	1.614852
0.588086	1.610766
0.588184	1.605695
0.588281	1.594359
0.588379	1.592176
0.588477	1.597466
0.588574	1.602756
0.588672	1.605560
0.588770	1.608991
0.588867	1.615355
0.588965	1.621290
0.589062	1.629676
0.589160	1.635804
0.589258	1.646321
0.589355	1.648810
0.589453	1.643129
0.589551	1.623492
0.589648	1.633588
0.589746	1.650884
0.589844	1.636107
0.589941	1.635328
0.590039	1.625664
0.590137	1.606353
0.590234	1.602211
0.590332	1.598645
0.590430	1.602244
0.590527	1.602872
0.590625	1.600293
0.590723	1.594601
0.590820	1.585880
0.590918	1.579913
0.591016	1.589163
0.591113	1.605129
0.591211	1.611182
0.591309	1.617410
0.591406	1.625648
0.591504	1.636194
0.591602	1.645852
0.591699	1.644890
0.591797	1.641148
0.591895	1.648692
0.591992	1.638260
0.592090	1.637886
0.592187	1.626853
0.592285	1.607441
0.592383	1.593990
0.592480	1.600854
0.592578	1.611873
0.592676	1.618783
0.592773	1.617670
0.592871	1.616157
0.592969	1.618025
0.593066	1.614589
0.593164	1.609152
0.593262	1.602607
0.593359	1.601963
0.593457	1.603546
0.593555	1.606374
0.593652	1.613397
0.593750	1.621237
0.593848	1.630923
0.593945	1.640633
0.594043	1.651817
0.594141	1.654420
0.594238	1.651295
0.594336	1.656704
0.594434	1.652365
0.594531	1.635451
0.594629	1.641800
0.594727	1.639570
0.594824	1.632798
0.594922	1.617786
0.595020	1.602516
0.595117	1.605896
0.595215	1.609417
0.595312	1.602469
0.595410	1.589582
0.595508	1.586489
0.595605	1.583117
0.595703	1.588278
0.595801	1.598703
0.595898	1.606011
0.595996	1.612899
0.596094	1.619337
0.596191	1.626448
0.596289	1.634052
0.596387	1.642392
0.596484	1.651288
0.596582	1.656766
0.596680	1.647083
0.596777	1.651169
0.596875	1.644425
0.596973	1.642142
0.597070	1.624602
0.597168	1.621634
0.597266	1.626443
0.597363	1.622541
0.597461	1.619208
0.597559	1.614579
0.597656	1.609797
0.597754	1.602828
0.597852	1.593704
0.597949	1.587691
0.598047	1.591079
0.598145	1.599568
0.598242	1.601120
0.598340	1.607827
0.598437	1.614040
0.598535	1.624731
0.598633	1.631217
0.598730	1.646317
0.598828	1.653824
0.598926	1.675049
0.599023	1.670215
0.599121	1.661379
0.599219	1.651709
0.599316	1.635046
0.599414	1.642645
0.599512	1.629251
0.599609	1.624899
0.599707	1.617421
0.599805	1.611521
0.599902	1.609151
0.600000	1.595640
0.600098	1.585655
0.600195	1.584663
0.600293	1.574021
0.600391	1.574897
0.600488	1.587502
0.600586	1.595752
0.600684	1.601012
0.600781	1.608724
0.600879	1.618441
0.600977	1.629131
0.601074	1.644724
0.601172	1.654107
0.601270	1.667062
0.601367	1.661603
0.601465	1.658718
0.601562	1.659347
0.601660	1.652584
0.601758	1.642435
0.601855	1.633063
0.601953	1.629243
0.602051	1.624631
0.602148	1.621622
0.602246	1.612972
0.602344	1.611075
0.602441	1.607180
0.602539	1.603768
0.602637	1.598079
0.602734	1.592189
0.602832	1.584858
0.602930	1.580879
0.603027	1.588117
0.603125	1.598130
0.603223	1.607587
0.603320	1.617869
0.603418	1.627347
0.603516	1.636487
0.603613	1.642975
0.603711	1.644562
0.603809	1.648636
0.603906	1.649895
0.604004	1.641277
0.604102	1.640410
0.604199	1.624743
0.604297	1.617330
0.604395	1.619634
0.604492	1.622775
0.604590	1.617548
0.604687	1.611201
0.604785	1.604707
0.604883	1.599371
0.604980	1.596564
0.605078	1.595387
0.605176	1.592013
0.605273	1.593480
0.605371	1.599797
0.605469	1.603703
0.605566	1.609730
0.605664	1.616069
0.605762	1.622962
0.605859	1.629820
0.605957	1.637217
0.606055	1.645046
0.606152	1.648806
0.606250	1.648769
0.606348	1.634850
0.606445	1.634492
0.606543	1.640549
0.606641	1.634365
0.606738	1.627655
0.606836	1.638988
0.606934	1.635198
0.607031	1.631562
0.607129	1.621048
0.607227	1.610692
0.607324	1.603204
0.607422	1.597134
0.607520	1.588651
0.607617	1.580513
0.607715	1.579881
0.607812	1.582193
0.607910	1.576132
0.608008	1.586927
0.608105	1.604335
0.608203	1.618415
0.608301	1.630842
0.608398	1.640532
0.608496	1.647244
0.608594	1.645589
0.608691	1.653149
0.608789	1.647620
0.608887	1.635517
0.608984	1.629975
0.609082	1.632298
0.609180	1.635614
0.609277	1.632852
0.609375	1.631876
0.609473	1.631827
0.609570	1.630995
0.609668	1.625333
0.609766	1.613553
0.609863	1.605203
0.609961	1.603880
0.610059	1.606504
0.610156	1.604489
0.610254	1.606114
0.610352	1.611950
0.610449	1.620114
0.610547	1.629120
0.610645	1.639251
0.610742	1.647023
0.610840	1.651116
0.610937	1.658267
0.611035	1.654949
0.611133	1.637450
0.611230	1.624334
0.611328	1.615192
0.611426	1.621572
0.611523	1.617617
0.611621	1.624225
0.611719	1.627061
0.611816	1.615272
0.611914	1.607724
0.612012	1.589287
0.612109	1.590899
0.612207	1.596829
0.612305	1.598109
0.612402	1.594869
0.612500	1.597504
0.612598	1.601828
0.612695	1.608208
0.612793	1.615233
0.612891	1.623605
0.612988	1.631808
0.613086	1.640000
0.613184	1.647031
0.613281	1.653289
0.613379	1.650784
0.613477	1.644885
0.613574	1.644360
0.613672	1.652252
0.613770	1.645295
0.613867	1.636210
0.613965	1.629997
0.614062	1.622589
0.614160	1.616706
0.614258	1.612908
0.614355	1.608602
0.614453	1.603651
0.614551	1.598153
0.614648	1.592201
0.614746	1.585651
0.614844	1.581471
0.614941	1.584684
0.615039	1.595537
0.615137	1.605777
0.615234	1.615644
0.615332	1.625235
0.615430	1.635374
0.615527	1.644175
0.615625	1.649475
0.615723	1.651250
0.615820	1.636588
0.615918	1.638008
0.616016	1.642897
0.616113	1.638341
0.616211	1.634052
0.616309	1.627946
0.616406	1.622536
0.616504	1.618156
0.616602	1.610766
0.616699	1.616715
0.616797	1.611073
0.616895	1.598812
0.616992	1.589902
0.617090	1.579725
0.617187	1.576389
0.617285	1.585771
0.617383	1.599641
0.617480	1.606285
0.617578	1.613935
0.617676	1.622248
0.617773	1.631190
0.617871	1.643066
0.617969	1.651210
0.618066	1.647177
0.618164	1.636391
0.618262	1.636779
0.618359	1.614460
0.618457	1.607509
0.618555	1.636896
0.618652	1.627613
0.618750	1.626249
0.618848	1.631044
0.618945	1.639025
0.619043	1.631315
0.619141	1.627075
0.619238	1.622727
0.619336	1.616344
0.619434	1.611318
0.619531	1.607534
0.619629	1.607668
0.619727	1.609790
0.619824	1.614179
0.619922	1.618519
0.620020	1.625781
0.620117	1.633068
0.620215	1.647797
0.620312	1.644243
0.620410	1.651483
0.620508	1.666034
0.620605	1.668227
0.620703	1.654766
0.620801	1.640658
0.620898	1.627484
0.620996	1.631484
0.621094	1.627788
0.621191	1.622073
0.621289	1.616429
0.621387	1.609451
0.621484	1.603694
0.621582	1.598382
0.621680	1.594298
0.621777	1.589270
0.621875	1.588851
0.621973	1.593998
0.622070	1.599464
0.622168	1.606693
0.622266	1.615986
0.622363	1.625499
0.622461	1.638045
0.622559	1.650520
0.622656	1.649603
0.622754	1.650765
0.622852	1.648052
0.622949	1.633243
0.623047	1.629914
0.623145	1.616751
0.623242	1.615638
0.623340	1.632655
0.623437	1.618121
0.623535	1.619408
0.623633	1.614536
0.623730	1.614063
0.623828	1.606521
0.623926	1.599476
0.624023	1.590561
0.624121	1.584054
0.624219	1.578686
0.624316	1.582937
0.624414	1.593029
0.624512	1.602138
0.624609	1.611170
0.624707	1.620637
0.624805	1.629199
0.624902	1.638063
0.625000	1.647420
0.625098	1.653506
0.625195	1.641370
0.625293	1.643914
0.625391	1.647031
0.625488	1.635220
0.625586	1.620046
0.625684	1.620427
0.625781	1.624109
0.625879	1.622243
0.625977	1.622846
0.626074	1.618592
0.626172	1.614562
0.626270	1.607783
0.626367	1.602855
0.626465	1.595975
0.626562	1.596754
0.626660	1.602475
0.626758	1.602546
0.626855	1.601249
0.626953	1.604041
0.627051	1.609406
0.627148	1.617109
0.627246	1.625131
0.627344	1.634481
0.627441	1.644412
0.627539	1.653736
0.627637	1.646186
0.627734	1.646998
0.627832	1.650300
0.627930	1.654499
0.628027	1.650729
0.628125	1.641107
0.628223	1.632574
0.628320	1.625439
0.628418	1.618709
0.628516	1.612727
0.628613	1.608327
0.628711	1.603999
0.628809	1.598841
0.628906	1.591837
0.629004	1.587913
0.629102	1.592133
0.629199	1.598004
0.629297	1.603924
0.629395	1.611865
0.629492	1.619686
0.629590	1.628205
0.629687	1.636137
0.629785	1.643730
0.629883	1.648711
0.629980	1.645986
0.630078	1.619043
0.630176	1.615202
0.630273	1.614586
0.630371	1.608340
0.630469	1.619852
0.630566	1.626268
0.630664	1.629079
0.630762	1.631426
0.630859	1.627961
0.630957	1.620947
0.631055	1.617437
0.631152	1.610570
0.631250	1.605629
0.631348	1.603583
0.631445	1.605405
0.631543	1.601802
0.631641	1.601945
0.631738	1.608832
0.631836	1.615980
0.631934	1.624258
0.632031	1.632427
0.632129	1.641436
0.632227	1.649899
0.632324	1.653581
0.632422	1.643297
0.632520	1.634774
0.632617	1.639465
0.632715	1.624569
0.632812	1.617418
0.632910	1.612080
0.633008	1.608467
0.633105	1.607160
0.633203	1.601034
0.633301	1.597651
0.633398	1.585502
0.633496	1.583848
0.633594	1.598648
0.633691	1.583164
0.633789	1.592585
0.633887	1.607174
0.633984	1.609614
0.634082	1.607961
0.634180	1.612298
0.634277	1.619120
0.634375	1.627054
0.634473	1.636364
0.634570	1.650498
0.634668	1.665221
0.634766	1.672336
0.634863	1.659493
0.634961	1.625786
0.635059	1.645369
0.635156	1.641992
0.635254	1.634476
0.635352	1.621899
0.635449	1.609025
0.635547	1.617622
0.635645	1.622146
0.635742	1.617652
0.635840	1.605989
0.635937	1.600324
0.636035	1.592784
0.636133	1.598316
0.636230	1.601769
0.636328	1.599038
0.636426	1.600152
0.636523	1.606890
0.636621	1.613704
0.636719	1.621632
0.636816	1.628878
0.636914	1.638209
0.637012	1.648152
0.637109	1.659572
0.637207	1.667769
0.637305	1.671550
0.637402	1.656495
0.637500	1.632056
0.637598	1.614633
0.637695	1.605603
0.637793	1.593429
0.637891	1.588455
0.637988	1.610800
0.638086	1.611811
0.638184	1.606051
0.638281	1.606034
0.638379	1.603815
0.638477	1.610754
0.638574	1.606276
0.638672	1.613635
0.638770	1.607434
0.638867	1.606713
0.638965	1.614313
0.639062	1.620015
0.639160	1.628064
0.639258	1.635303
0.639355	1.643323
0.639453	1.649646
0.639551	1.656160
0.639648	1.652312
0.639746	1.648576
0.639844	1.641203
0.639941	1.637759
0.640039	1.637186
0.640137	1.626542
0.640234	1.627946
0.640332	1.626499
0.640430	1.618663
0.640527	1.612556
0.640625	1.604443
0.640723	1.594027
0.640820	1.583793
0.640918	1.575976
0.641016	1.583715
0.641113	1.597502
0.641211	1.606803
0.641309	1.614693
0.641406	1.622384
0.641504	1.630252
0.641602	1.638681
0.641699	1.646057
0.641797	1.650698
0.641895	1.652500
0.641992	1.651416
0.642090	1.639888
0.642187	1.642212
0.642285	1.633937
0.642383	1.629034
0.642480	1.633132
0.642578	1.625297
0.642676	1.619154
0.642773	1.613077
0.642871	1.609411
0.642969	1.606945
0.643066	1.604434
0.643164	1.598933
0.643262	1.593388
0.643359	1.597706
0.643457	1.601834
0.643555	1.604685
0.643652	1.608957
0.643750	1.615974
0.643848	1.623498
0.643945	1.634281
0.644043	1.644883
0.644141	1.659648
0.644238	1.667009
0.644336	1.657811
0.644434	1.658302
0.644531	1.649520
0.644629	1.640025
0.644727	1.635589
0.644824	1.637307
0.644922	1.637303
0.645020	1.641691
0.645117	1.636307
0.645215	1.625643
0.645312	1.616263
0.645410	1.609483
0.645508	1.606864
0.645605	1.605719
0.645703	1.607379
0.645801	1.606517
0.645898	1.604128
0.645996	1.604859
0.646094	1.608856
0.646191	1.615000
0.646289	1.622619
0.646387	1.630837
0.646484	1.637895
0.646582	1.643685
0.646680	1.654942
0.646777	1.650692
0.646875	1.636103
0.646973	1.651288
0.647070	1.634152
0.647168	1.625327
0.647266	1.624793
0.647363	1.632763
0.647461	1.634552
0.647559	1.618686
0.647656	1.605549
0.647754	1.601804
0.647852	1.604127
0.647949	1.594936
0.648047	1.589867
0.648145	1.600851
0.648242	1.598891
0.648340	1.600724
0.648437	1.606318
0.648535	1.614190
0.648633	1.622408
0.648730	1.631483
0.648828	1.640218
0.648926	1.649084
0.649023	1.654995
0.649121	1.658698
0.649219	1.653428
0.649316	1.636060
0.649414	1.619480
0.649512	1.617831
0.649609	1.619447
0.649707	1.586201
0.649805	1.575057
0.649902	1.547958
0.650000	1.587638
0.650098	1.611792
0.650195	1.614597
0.650293	1.614719
0.650391	1.604496
0.650488	1.601011
0.650586	1.599388
0.650684	1.603258
0.650781	1.608633
0.650879	1.616244
0.650977	1.624766
0.651074	1.632164
0.651172	1.638349
0.651270	1.643160
0.651367	1.646380
0.651465	1.634122
0.651562	1.638433
0.651660	1.644801
0.651758	1.646757
0.651855	1.647968
0.651953	1.639902
0.652051	1.627863
0.652148	1.617333
0.652246	1.615464
0.652344	1.616384
0.652441	1.620467
0.652539	1.623089
0.652637	1.623399
0.652734	1.620163
0.652832	1.616807
0.652930	1.612802
0.653027	1.610521
0.653125	1.610416
0.653223	1.612479
0.653320	1.616387
0.653418	1.621944
0.653516	1.628988
0.653613	1.636576
0.653711	1.645696
0.653809	1.654916
0.653906	1.662813
0.654004	1.650366
0.654102	1.636020
0.654199	1.625980
0.654297	1.626135
0.654395	1.632726
0.654492	1.611330
0.654590	1.579751
0.654687	1.587826
0.654785	1.607697
0.654883	1.614756
0.654980	1.614153
0.655078	1.606704
0.655176	1.594595
0.655273	1.592110
0.655371	1.599035
0.655469	1.605464
0.655566	1.610563
0.655664	1.616022
0.655762	1.622274
0.655859	1.630074
0.655957	1.638718
0.656055	1.647729
0.656152	1.652118
0.656250	1.649451
0.656348	1.656778
0.656445	1.656232
0.656543	1.638155
0.656641	1.623826
0.656738	1.635797
0.656836	1.638541
0.656934	1.628169
0.657031	1.626458
0.657129	1.617214
0.657227	1.608899
0.657324	1.610472
0.657422	1.607352
0.657520	1.606975
0.657617	1.601716
0.657715	1.597281
0.657812	1.600262
0.657910	1.603356
0.658008	1.609172
0.658105	1.615493
0.658203	1.624131
0.658301	1.632387
0.658398	1.644237
0.658496	1.648883
0.658594	1.644351
0.658691	1.637677
0.658789	1.625678
0.658887	1.636500
0.658984	1.643636
0.659082	1.652381
0.659180	1.644092
0.659277	1.633127
0.659375	1.625064
0.659473	1.619814
0.659570	1.615130
0.659668	1.610944
0.659766	1.605612
0.659863	1.599785
0.659961	1.590679
0.660059	1.585491
0.660156	1.585426
0.660254	1.592413
0.660352	1.603420
0.660449	1.609423
0.660547	1.618945
0.660645	1.628560
0.660742	1.637902
0.660840	1.645044
0.660937	1.651413
0.661035	1.653260
0.661133	1.647601
0.661230	1.652166
0.661328	1.650388
0.661426	1.648473
0.661523	1.639050
0.661621	1.627675
0.661719	1.633502
0.661816	1.628391
0.661914	1.626531
0.662012	1.624193
0.662109	1.622569
0.662207	1.617985
0.662305	1.611949
0.662402	1.606828
0.662500	1.604937
0.662598	1.606192
0.662695	1.609276
0.662793	1.614311
0.662891	1.620221
0.662988	1.627812
0.663086	1.635223
0.663184	1.644801
0.663281	1.641873
0.663379	1.652895
0.663477	1.650264
0.663574	1.642326
0.663672	1.644426
0.663770	1.646220
0.663867	1.641982
0.663965	1.635101
0.664062	1.628640
0.664160	1.618713
0.664258	1.611340
0.664355	1.607418
0.664453	1.607036
0.664551	1.610463
0.664648	1.611018
0.664746	1.608726
0.664844	1.607955
0.664941	1.606326
0.665039	1.608021
0.665137	1.612253
0.665234	1.618144
0.665332	1.625678
0.665430	1.634620
0.665527	1.645304
0.665625	1.654606
0.665723	1.654559
0.665820	1.657713
0.665918	1.651236
0.666016	1.649403
0.666113	1.646860
0.666211	1.633079
0.666309	1.630808
0.666406	1.622396
0.666504	1.614761
0.666602	1.614117
0.666699	1.613775
0.666797	1.609327
0.666895	1.605495
0.666992	1.603216
0.667090	1.597638
0.667187	1.595440
0.667285	1.595797
0.667383	1.596486
0.667480	1.602042
0.667578	1.610558
0.667676	1.620322
0.667773	1.633136
0.667871	1.645938
0.667969	1.640420
0.668066	1.646903
0.668164	1.658592
0.668262	1.658746
0.668359	1.649591
0.668457	1.638557
0.668555	1.640992
0.668652	1.632352
0.668750	1.622002
0.668848	1.618506
0.668945	1.614226
0.669043	1.605808
0.669141	1.593978
0.669238	1.586376
0.669336	1.578909
0.669434	1.569146
0.669531	1.569633
0.669629	1.579693
0.669727	1.589023
0.669824	1.599193
0.669922	1.607705
0.670020	1.617942
0.670117	1.625236
0.670215	1.635060
0.670312	1.642440
0.670410	1.655868
0.670508	1.652117
0.670605	1.649028
0.670703	1.652631
0.670801	1.640347
0.670898	1.633234
0.670996	1.620224
0.671094	1.620466
0.671191	1.621374
0.671289	1.618926
0.671387	1.615030
0.671484	1.610781
0.671582	1.606025
0.671680	1.600732
0.671777	1.594719
0.671875	1.589883
0.671973	1.591512
0.672070	1.596455
0.672168	1.601349
0.672266	1.606161
0.672363	1.614212
0.672461	1.620401
0.672559	1.630186
0.672656	1.636701
0.672754	1.646233
0.672852	1.626461
0.672949	1.638390
0.673047	1.643525
0.673145	1.631890
0.673242	1.644330
0.673340	1.641367
0.673437	1.634157
0.673535	1.631647
0.673633	1.629548
0.673730	1.621913
0.673828	1.617617
0.673926	1.613008
0.674023	1.606034
0.674121	1.598720
0.674219	1.599778
0.674316	1.599848
0.674414	1.601000
0.674512	1.602418
0.674609	1.607100
0.674707	1.612227
0.674805	1.619285
0.674902	1.625839
0.675000	1.634406
0.675098	1.643016
0.675195	1.654028
0.675293	1.661494
0.675391	1.661213
0.675488	1.649252
0.675586	1.639377
0.675684	1.634948
0.675781	1.616737
0.675879	1.608224
0.675977	1.609352
0.676074	1.612667
0.676172	1.615279
0.676270	1.612388
0.676367	1.600491
0.676465	1.597586
0.676562	1.586694
0.676660	1.580274
0.676758	1.571197
0.676855	1.562294
0.676953	1.560719
0.677051	1.583997
0.677148	1.602430
0.677246	1.615037
0.677344	1.626685
0.677441	1.638152
0.677539	1.652856
0.677637	1.663522
0.677734	1.658300
0.677832	1.642579
0.677930	1.623200
0.678027	1.609521
0.678125	1.600775
0.678223	1.599363
0.678320	1.601009
0.678418	1.602673
0.678516	1.609899
0.678613	1.605993
0.678711	1.600162
0.678809	1.594930
0.678906	1.590105
0.679004	1.584000
0.679102	1.578869
0.679199	1.574323
0.679297	1.588566
0.679395	1.596702
0.679492	1.606855
0.679590	1.616005
0.679687	1.631918
0.679785	1.641461
0.679883	1.657219
0.679980	1.666511
0.680078	1.653703
0.680176	1.655095
0.680273	1.643515
0.680371	1.624382
0.680469	1.606948
0.680566	1.604872
0.680664	1.597687
0.680762	1.586658
0.680859	1.583442
0.680957	1.591831
0.681055	1.600049
0.681152	1.609354
0.681250	1.610177
0.681348	1.611574
0.681445	1.613985
0.681543	1.614397
0.681641	1.615166
0.681738	1.616298
0.681836	1.619901
0.681934	1.623751
0.682031	1.630853
0.682129	1.638058
0.682227	1.650806
0.682324	1.655769
0.682422	1.662069
0.682520	1.669184
0.682617	1.659222
0.682715	1.638766
0.682812	1.617427
0.682910	1.614888
0.683008	1.617504
0.683105	1.611493
0.683203	1.606918
0.683301	1.594381
0.683398	1.595556
0.683496	1.600159
0.683594	1.590612
0.683691	1.589802
0.683789	1.581988
0.683887	1.581698
0.683984	1.584742
0.684082	1.598036
0.684180	1.604444
0.684277	1.611333
0.684375	1.620027
0.684473	1.628896
0.684570	1.638736
0.684668	1.644155
0.684766	1.652783
0.684863	1.657299
0.684961	1.633786
0.685059	1.604827
0.685156	1.610417
0.685254	1.632021
0.685352	1.622274
0.685449	1.612889
0.685547	1.619413
0.685645	1.620681
0.685742	1.619685
0.685840	1.611045
0.685937	1.605369
0.686035	1.599609
0.686133	1.590742
0.686230	1.577008
0.686328	1.576999
0.686426	1.590644
0.686523	1.600018
0.686621	1.607139
0.686719	1.615111
0.686816	1.624498
0.686914	1.633717
0.687012	1.640834
0.687109	1.645345
0.687207	1.649463
0.687305	1.657088
0.687402	1.660039
0.687500	1.642443
0.687598	1.631713
0.687695	1.622210
0.687793	1.616857
0.687891	1.617579
0.687988	1.618949
0.688086	1.616139
0.688184	1.612261
0.688281	1.607035
0.688379	1.605184
0.688477	1.608586
0.688574	1.606982
0.688672	1.599063
0.688770	1.602093
0.688867	1.608245
0.688965	1.614300
0.689062	1.620072
0.689160	1.627098
0.689258	1.634452
0.689355	1.644926
0.689453	1.658705
0.689551	1.670708
0.689648	1.644168
0.689746	1.633518
0.689844	1.656724
0.689941	1.657966
0.690039	1.643972
0.690137	1.630040
0.690234	1.635419
0.690332	1.631945
0.690430	1.619540
0.690527	1.615571
0.690625	1.610932
0.690723	1.608010
0.690820	1.604018
0.690918	1.599327
0.691016	1.594828
0.691113	1.587478
0.691211	1.592278
0.691309	1.598228
0.691406	1.605244
0.691504	1.612512
0.691602	1.621141
0.691699	1.629604
0.691797	1.638465
0.691895	1.646525
0.691992	1.655312
0.692090	1.656175
0.692187	1.650941
0.692285	1.630216
0.692383	1.614878
0.692480	1.632253
0.692578	1.633264
0.692676	1.627193
0.692773	1.628361
0.692871	1.627793
0.692969	1.625916
0.693066	1.621799
0.693164	1.616386
0.693262	1.610961
0.693359	1.605832
0.693457	1.602231
0.693555	1.601493
0.693652	1.603901
0.693750	1.607854
0.693848	1.614150
0.693945	1.621093
0.694043	1.630394
0.694141	1.641053
0.694238	1.653464
0.694336	1.654953
0.694434	1.656711
0.694531	1.657685
0.694629	1.654042
0.694727	1.633315
0.694824	1.627377
0.694922	1.623644
0.695020	1.624521
0.695117	1.626658
0.695215	1.614294
0.695312	1.614380
0.695410	1.609107
0.695508	1.602080
0.695605	1.587430
0.695703	1.577261
0.695801	1.588505
0.695898	1.595908
0.695996	1.599844
0.696094	1.605347
0.696191	1.611657
0.696289	1.619310
0.696387	1.628615
0.696484	1.638019
0.696582	1.649737
0.696680	1.658775
0.696777	1.654325
0.696875	1.650275
0.696973	1.647936
0.697070	1.642759
0.697168	1.639600
0.697266	1.633923
0.697363	1.620686
0.697461	1.621735
0.697559	1.617542
0.697656	1.615845
0.697754	1.609220
0.697852	1.599406
0.697949	1.598116
0.698047	1.588608
0.698145	1.586094
0.698242	1.591573
0.698340	1.596364
0.698437	1.599887
0.698535	1.606771
0.698633	1.613288
0.698730	1.623512
0.698828	1.631575
0.698926	1.646581
0.699023	1.650485
0.699121	1.639828
0.699219	1.640009
0.699316	1.633955
0.699414	1.635688
0.699512	1.634332
0.699609	1.627760
0.699707	1.626183
0.699805	1.628218
0.699902	1.621896
0.700000	1.618556
0.700098	1.611449
0.700195	1.604624
0.700293	1.596921
0.700391	1.591212
0.700488	1.585231
0.700586	1.584494
0.700684	1.582099
0.700781	1.586571
0.700879	1.599955
0.700977	1.608994
0.701074	1.618963
0.701172	1.628533
0.701270	1.637610
0.701367	1.645157
0.701465	1.650350
0.701562	1.648007
0.701660	1.645547
0.701758	1.633839
0.701855	1.623042
0.701953	1.628469
0.702051	1.629698
0.702148	1.615168
0.702246	1.611945
0.702344	1.602579
0.702441	1.605334
0.702539	1.601140
0.702637	1.590824
0.702734	1.583701
0.702832	1.577418
0.702930	1.582265
0.703027	1.582957
0.703125	1.594916
0.703223	1.604231
0.703320	1.609965
0.703418	1.615505
0.703516	1.621354
0.703613	1.627758
0.703711	1.635459
0.703809	1.644226
0.703906	1.655660
0.704004	1.668911
0.704102	1.682355
0.704199	1.678907
0.704297	1.661265
0.704395	1.648121
0.704492	1.640750
0.704590	1.632439
0.704687	1.625431
0.704785	1.620639
0.704883	1.615548
0.704980	1.609816
0.705078	1.602757
0.705176	1.593155
0.705273	1.583236
0.705371	1.580946
0.705469	1.587546
0.705566	1.594187
0.705664	1.601311
0.705762	1.607961
0.705859	1.617503
0.705957	1.625855
0.706055	1.640658
0.706152	1.643777
0.706250	1.635104
0.706348	1.644646
0.706445	1.651816
0.706543	1.662707
0.706641	1.653947
0.706738	1.638270
0.706836	1.618749
0.706934	1.633134
0.707031	1.624520
0.707129	1.606144
0.707227	1.600587
0.707324	1.601345
0.707422	1.602354
0.707520	1.598729
0.707617	1.593488
0.707715	1.586450
0.707812	1.579876
0.707910	1.578516
0.708008	1.587516
0.708105	1.601198
0.708203	1.611540
0.708301	1.621125
0.708398	1.629516
0.708496	1.638313
0.708594	1.646718
0.708691	1.653067
0.708789	1.654951
0.708887	1.651681
0.708984	1.628720
0.709082	1.618104
0.709180	1.617860
0.709277	1.615612
0.709375	1.607669
0.709473	1.603836
0.709570	1.620975
0.709668	1.622765
0.709766	1.621254
0.709863	1.609527
0.709961	1.609836
0.710059	1.613824
0.710156	1.616660
0.710254	1.614729
0.710352	1.613723
0.710449	1.614113
0.710547	1.618323
0.710645	1.623204
0.710742	1.630856
0.710840	1.638020
0.710937	1.644584
0.711035	1.641466
0.711133	1.641908
0.711230	1.640486
0.711328	1.641480
0.711426	1.650375
0.711523	1.637958
0.711621	1.631502
0.711719	1.627576
0.711816	1.625841
0.711914	1.618300
0.712012	1.614672
0.712109	1.611927
0.712207	1.610219
0.712305	1.606516
0.712402	1.600080
0.712500	1.597912
0.712598	1.600463
0.712695	1.602245
0.712793	1.606095
0.712891	1.610832
0.712988	1.618962
0.713086	1.627030
0.713184	1.636802
0.713281	1.643775
0.713379	1.651084
0.713477	1.647903
0.713574	1.645537
0.713672	1.641439
0.713770	1.634636
0.713867	1.631651
0.713965	1.618892
0.714062	1.620538
0.714160	1.621271
0.714258	1.620214
0.714355	1.617580
0.714453	1.614268
0.714551	1.607019
0.714648	1.600486
0.714746	1.594180
0.714844	1.588920
0.714941	1.595306
0.715039	1.603033
0.715137	1.608190
0.715234	1.613520
0.715332	1.618779
0.715430	1.624803
0.715527	1.632122
0.715625	1.641715
0.715723	1.653800
0.715820	1.650275
0.715918	1.658092
0.716016	1.660844
0.716113	1.645588
0.716211	1.647863
0.716309	1.639703
0.716406	1.632886
0.716504	1.628177
0.716602	1.623392
0.716699	1.618725
0.716797	1.614328
0.716895	1.608207
0.716992	1.600007
0.717090	1.589968
0.717187	1.591101
0.717285	1.594817
0.717383	1.596771
0.717480	1.601215
0.717578	1.605582
0.717676	1.611575
0.717773	1.617838
0.717871	1.624898
0.717969	1.631817
0.718066	1.638868
0.718164	1.647907
0.718262	1.661309
0.718359	1.649442
0.718457	1.646835
0.718555	1.641381
0.718652	1.637160
0.718750	1.630288
0.718848	1.621487
0.718945	1.622639
0.719043	1.606955
0.719141	1.612371
0.719238	1.609918
0.719336	1.607216
0.719434	1.604558
0.719531	1.597736
0.719629	1.591085
0.719727	1.594171
0.719824	1.598382
0.719922	1.601015
0.720020	1.606011
0.720117	1.611931
0.720215	1.618110
0.720312	1.624978
0.720410	1.631647
0.720508	1.641076
0.720605	1.649179
0.720703	1.654818
0.720801	1.642361
0.720898	1.639274
0.720996	1.656019
0.721094	1.647645
0.721191	1.639140
0.721289	1.627530
0.721387	1.620698
0.721484	1.617736
0.721582	1.614012
0.721680	1.611117
0.721777	1.611319
0.721875	1.605636
0.721973	1.596900
0.722070	1.580573
0.722168	1.580313
0.722266	1.591206
0.722363	1.592219
0.722461	1.603885
0.722559	1.611898
0.722656	1.621507
0.722754	1.629670
0.722852	1.639200
0.722949	1.648760
0.723047	1.656983
0.723145	1.654557
0.723242	1.654325
0.723340	1.654225
0.723437	1.646233
0.723535	1.636904
0.723633	1.622480
0.723730	1.612857
0.723828	1.615580
0.723926	1.608410
0.724023	1.605261
0.724121	1.601471
0.724219	1.597536
0.724316	1.593120
0.724414	1.588140
0.724512	1.582032
0.724609	1.584388
0.724707	1.593324
0.724805	1.598061
0.724902	1.605195
0.725000	1.613833
0.725098	1.622431
0.725195	1.632650
0.725293	1.641943
0.725391	1.654901
0.725488	1.661120
0.725586	1.657759
0.725684	1.654312
0.725781	1.638754
0.725879	1.643733
0.725977	1.633138
0.726074	1.617832
0.726172	1.610248
0.726270	1.609516
0.726367	1.612139
0.726465	1.606810
0.726562	1.606900
0.726660	1.603747
0.726758	1.598312
0.726855	1.589628
0.726953	1.584647
0.727051	1.584277
0.727148	1.586365
0.727246	1.594485
0.727344	1.603263
0.727441	1.614328
0.727539	1.623536
0.727637	1.631907
0.727734	1.637762
0.727832	1.644634
0.727930	1.648977
0.728027	1.655264
0.728125	1.648673
0.728223	1.654708
0.728320	1.642509
0.728418	1.622446
0.728516	1.639205
0.728613	1.640479
0.728711	1.629961
0.728809	1.620380
0.728906	1.611529
0.729004	1.605554
0.729102	1.603472
0.729199	1.595702
0.729297	1.594658
0.729395	1.596012
0.729492	1.597458
0.729590	1.603002
0.729687	1.609406
0.729785	1.618577
0.729883	1.627530
0.729980	1.642965
0.730078	1.651578
0.730176	1.634780
0.730273	1.634187
0.730371	1.626325
0.730469	1.654696
0.730566	1.645537
0.730664	1.633858
0.730762	1.631430
0.730859	1.631556
0.730957	1.623978
0.731055	1.611023
0.731152	1.611310
0.731250	1.613460
0.731348	1.607837
0.731445	1.600620
0.731543	1.601391
0.731641	1.605943
0.731738	1.602457
0.731836	1.605016
0.731934	1.608988
0.732031	1.614320
0.732129	1.620303
0.732227	1.627029
0.732324	1.634994
0.732422	1.642721
0.732520	1.651473
0.732617	1.649858
0.732715	1.639871
0.732812	1.636624
0.732910	1.621172
0.733008	1.625415
0.733105	1.633481
0.733203	1.611844
0.733301	1.615091
0.733398	1.619632
0.733496	1.614405
0.733594	1.607913
0.733691	1.620849
0.733789	1.617783
0.733887	1.617259
0.733984	1.610472
0.734082	1.606773
0.734180	1.607133
0.734277	1.608093
0.734375	1.611396
0.734473	1.616113
0.734570	1.622123
0.734668	1.628303
0.734766	1.635032
0.734863	1.642116
0.734961	1.648462
0.735059	1.648957
0.735156	1.652403
0.735254	1.636834
0.735352	1.598263
0.735449	1.606860
0.735547	1.625900
0.735645	1.613669
0.735742	1.622076
0.735840	1.621149
0.735937	1.620023
0.736035	1.615052
0.736133	1.610001
0.736230	1.601809
0.736328	1.595185
0.736426	1.594612
0.736523	1.598417
0.736621	1.603265
0.736719	1.608555
0.736816	1.613595
0.736914	1.619405
0.737012	1.625355
0.737109	1.632994
0.737207	1.639958
0.737305	1.647284
0.737402	1.653300
0.737500	1.651296
0.737598	1.634067
0.737695	1.612762
0.737793	1.597951
0.737891	1.601380
0.737988	1.593120
0.738086	1.591177
0.738184	1.622017
0.738281	1.606037
0.738379	1.596940
0.738477	1.597621
0.738574	1.585991
0.738672	1.585007
0.738770	1.595485
0.738867	1.605636
0.738965	1.605508
0.739062	1.608561
0.739160	1.612929
0.739258	1.617602
0.739355	1.622592
0.739453	1.628702
0.739551	1.635166
0.739648	1.643053
0.739746	1.651174
0.739844	1.659164
0.739941	1.659042
0.740039	1.654967
0.740137	1.648749
0.740234	1.637948
0.740332	1.626913
0.740430	1.617796
0.740527	1.621418
0.740625	1.619297
0.740723	1.602609
0.740820	1.599629
0.740918	1.603191
0.741016	1.598050
0.741113	1.597864
0.741211	1.599821
0.741309	1.602430
0.741406	1.606009
0.741504	1.610654
0.741602	1.616627
0.741699	1.622664
0.741797	1.630762
0.741895	1.639296
0.741992	1.655720
0.742090	1.665741
0.742187	1.652787
0.742285	1.648546
0.742383	1.628808
0.742480	1.628900
0.742578	1.626615
0.742676	1.611735
0.742773	1.595644
0.742871	1.603927
0.742969	1.611817
0.743066	1.609945
0.743164	1.602427
0.743262	1.593812
0.743359	1.586174
0.743457	1.568417
0.743555	1.586333
0.743652	1.604660
0.743750	1.612031
0.743848	1.618455
0.743945	1.625171
0.744043	1.631394
0.744141	1.639265
0.744238	1.645986
0.744336	1.653964
0.744434	1.643566
0.744531	1.657126
0.744629	1.650882
0.744727	1.651204
0.744824	1.654030
0.744922	1.639274
0.745020	1.636923
0.745117	1.624583
0.745215	1.600156
0.745312	1.587775
0.745410	1.593662
0.745508	1.589654
0.745605	1.587648
0.745703	1.567753
0.745801	1.572701
0.745898	1.586705
0.745996	1.589569
0.746094	1.598525
0.746191	1.603216
0.746289	1.610954
0.746387	1.619025
0.746484	1.629174
0.746582	1.639914
0.746680	1.650611
0.746777	1.659490
0.746875	1.666151
0.746973	1.661190
0.747070	1.646762
0.747168	1.635394
0.747266	1.626320
0.747363	1.628986
0.747461	1.631924
0.747559	1.638102
0.747656	1.622909
0.747754	1.611287
0.747852	1.613359
0.747949	1.607439
0.748047	1.600095
0.748145	1.595944
0.748242	1.598963
0.748340	1.601093
0.748437	1.600121
0.748535	1.602134
0.748633	1.606727
0.748730	1.612930
0.748828	1.621097
0.748926	1.629302
0.749023	1.638129
0.749121	1.642142
0.749219	1.647460
0.749316	1.650627
0.749414	1.627487
0.749512	1.608494
0.749609	1.629485
0.749707	1.629003
0.749805	1.626417
0.749902	1.627067
0.750000	1.622564
0.750098	1.618123
0.750195	1.608248
0.750293	1.605450
0.750391	1.604062
0.750488	1.606192
0.750586	1.609968
0.750684	1.601859
0.750781	1.603840
0.750879	1.609998
0.750977	1.611873
0.751074	1.616423
0.751172	1.619590
0.751270	1.629077
0.751367	1.634726
0.751465	1.649956
0.751562	1.651503
0.751660	1.664718
0.751758	1.651081
0.751855	1.659128
0.751953	1.659579
0.752051	1.643077
0.752148	1.644454
0.752246	1.631926
0.752344	1.627921
0.752441	1.619236
0.752539	1.616840
0.752637	1.610762
0.752734	1.607712
0.752832	1.600296
0.752930	1.596227
0.753027	1.594038
0.753125	1.596245
0.753223	1.597359
0.753320	1.603396
0.753418	1.609192
0.753516	1.618090
0.753613	1.625260
0.753711	1.635756
0.753809	1.643855
0.753906	1.656802
0.754004	1.654284
0.754102	1.652566
0.754199	1.657666
0.754297	1.647869
0.754395	1.639368
0.754492	1.629605
0.754590	1.622995
0.754687	1.615714
0.754785	1.603342
0.754883	1.594985
0.754980	1.603737
0.755078	1.595525
0.755176	1.584134
0.755273	1.587009
0.755371	1.596814
0.755469	1.600923
0.755566	1.603266
0.755664	1.604497
0.755762	1.608407
0.755859	1.613504
0.755957	1.621025
0.756055	1.628300
0.756152	1.638547
0.756250	1.645646
0.756348	1.655103
0.756445	1.662549
0.756543	1.654726
0.756641	1.645585
0.756738	1.646200
0.756836	1.641181
0.756934	1.624759
0.757031	1.619270
0.757129	1.610956
0.757227	1.610843
0.757324	1.613163
0.757422	1.606911
0.757520	1.602601
0.757617	1.597090
0.757715	1.592958
0.757812	1.592160
0.757910	1.595064
0.758008	1.599942
0.758105	1.606972
0.758203	1.612396
0.758301	1.618174
0.758398	1.623114
0.758496	1.629629
0.758594	1.636394
0.758691	1.645743
0.758789	1.650323
0.758887	1.653123
0.758984	1.643903
0.759082	1.650025
0.759180	1.645953
0.759277	1.634184
0.759375	1.633414
0.759473	1.626035
0.759570	1.623285
0.759668	1.619541
0.759766	1.610562
0.759863	1.608710
0.759961	1.610857
0.760059	1.606858
0.760156	1.603538
0.760254	1.600492
0.760352	1.604174
0.760449	1.607534
0.760547	1.613701
0.760645	1.619167
0.760742	1.627023
0.760840	1.633374
0.760937	1.643215
0.761035	1.646399
0.761133	1.634909
0.761230	1.639878
0.761328	1.647221
0.761426	1.650181
0.761523	1.646834
0.761621	1.637662
0.761719	1.632778
0.761816	1.620114
0.761914	1.603375
0.762012	1.614816
0.762109	1.611633
0.762207	1.608043
0.762305	1.600828
0.762402	1.594963
0.762500	1.600001
0.762598	1.603191
0.762695	1.602728
0.762793	1.605841
0.762891	1.609494
0.762988	1.615299
0.763086	1.621764
0.763184	1.630471
0.763281	1.637818
0.763379	1.646280
0.763477	1.652760
0.763574	1.648982
0.763672	1.640255
0.763770	1.643554
0.763867	1.648465
0.763965	1.638926
0.764062	1.628878
0.764160	1.607168
0.764258	1.605009
0.764355	1.611346
0.764453	1.611272
0.764551	1.608219
0.764648	1.608471
0.764746	1.602271
0.764844	1.597274
0.764941	1.599213
0.765039	1.605515
0.765137	1.604464
0.765234	1.606105
0.765332	1.610613
0.765430	1.616751
0.765527	1.623800
0.765625	1.631815
0.765723	1.642164
0.765820	1.653069
0.765918	1.640463
0.766016	1.643692
0.766113	1.646729
0.766211	1.654688
0.766309	1.650637
0.766406	1.643067
0.766504	1.633307
0.766602	1.624180
0.766699	1.624675
0.766797	1.622780
0.766895	1.616923
0.766992	1.613960
0.767090	1.608682
0.767187	1.605268
0.767285	1.593151
0.767383	1.592499
0.767480	1.601510
0.767578	1.597824
0.767676	1.603737
0.767773	1.611809
0.767871	1.620890
0.767969	1.629371
0.768066	1.638654
0.768164	1.647603
0.768262	1.652172
0.768359	1.656730
0.768457	1.657300
0.768555	1.656683
0.768652	1.655756
0.768750	1.639254
0.768848	1.625418
0.768945	1.611019
0.769043	1.585666
0.769141	1.601096
0.769238	1.612453
0.769336	1.609329
0.769434	1.595298
0.769531	1.586094
0.769629	1.589676
0.769727	1.597944
0.769824	1.606160
0.769922	1.605607
0.770020	1.610502
0.770117	1.614908
0.770215	1.622189
0.770312	1.628199
0.770410	1.636135
0.770508	1.641585
0.770605	1.646599
0.770703	1.648301
0.770801	1.651014
0.770898	1.641679
0.770996	1.631018
0.771094	1.597197
0.771191	1.589284
0.771289	1.611304
0.771387	1.604876
0.771484	1.612535
0.771582	1.602762
0.771680	1.600340
0.771777	1.602473
0.771875	1.591716
0.771973	1.577960
0.772070	1.563078
0.772168	1.568549
0.772266	1.581869
0.772363	1.589989
0.772461	1.600495
0.772559	1.610043
0.772656	1.618913
0.772754	1.626774
0.772852	1.634124
0.772949	1.641183
0.773047	1.647605
0.773145	1.655128
0.773242	1.658813
0.773340	1.661320
0.773437	1.652294
0.773535	1.642954
0.773633	1.643269
0.773730	1.632741
0.773828	1.621429
0.773926	1.616853
0.774023	1.613781
0.774121	1.609708
0.774219	1.607122
0.774316	1.606830
0.774414	1.606904
0.774512	1.604268
0.774609	1.604598
0.774707	1.605658
0.774805	1.607419
0.774902	1.610724
0.775000	1.617780
0.775098	1.625481
0.775195	1.633994
0.775293	1.641312
0.775391	1.651802
0.775488	1.651698
0.775586	1.656625
0.775684	1.651135
0.775781	1.646136
0.775879	1.647787
0.775977	1.641012
0.776074	1.634180
0.776172	1.629841
0.776270	1.626646
0.776367	1.623549
0.776465	1.620565
0.776562	1.612716
0.776660	1.606892
0.776758	1.604135
0.776855	1.600048
0.776953	1.597706
0.777051	1.601386
0.777148	1.606008
0.777246	1.611118
0.777344	1.617620
0.777441	1.625684
0.777539	1.634343
0.777637	1.643502
0.777734	1.652006
0.777832	1.656410
0.777930	1.649115
0.778027	1.641020
0.778125	1.632872
0.778223	1.625043
0.778320	1.629808
0.778418	1.627242
0.778516	1.625255
0.778613	1.622882
0.778711	1.622811
0.778809	1.614352
0.778906	1.610135
0.779004	1.605471
0.779102	1.599244
0.779199	1.589082
0.779297	1.576128
0.779395	1.573219
0.779492	1.585873
0.779590	1.605920
0.779687	1.612263
0.779785	1.621076
0.779883	1.630212
0.779980	1.639703
0.780078	1.649460
0.780176	1.654683
0.780273	1.655186
0.780371	1.653660
0.780469	1.645283
0.780566	1.644977
0.780664	1.638178
0.780762	1.635876
0.780859	1.634900
0.780957	1.630038
0.781055	1.625493
0.781152	1.618631
0.781250	1.609674
0.781348	1.602771
0.781445	1.600693
0.781543	1.602335
0.781641	1.602054
0.781738	1.602540
0.781836	1.605043
0.781934	1.608932
0.782031	1.615212
0.782129	1.621876
0.782227	1.631287
0.782324	1.639988
0.782422	1.650879
0.782520	1.655607
0.782617	1.661295
0.782715	1.658514
0.782812	1.649516
0.782910	1.627023
0.783008	1.632829
0.783105	1.633671
0.783203	1.636035
0.783301	1.630000
0.783398	1.618760
0.783496	1.621599
0.783594	1.616922
0.783691	1.607592
0.783789	1.595190
0.783887	1.582144
0.783984	1.570214
0.784082	1.570685
0.784180	1.571991
0.784277	1.578823
0.784375	1.598598
0.784473	1.609216
0.784570	1.617282
0.784668	1.626156
0.784766	1.633155
0.784863	1.641933
0.784961	1.648403
0.785059	1.650723
0.785156	1.653254
0.785254	1.639517
0.785352	1.640885
0.785449	1.640497
0.785547	1.626357
0.785645	1.636226
0.785742	1.638678
0.785840	1.627531
0.785937	1.622679
0.786035	1.616435
0.786133	1.611229
0.786230	1.605086
0.786328	1.600408
0.786426	1.599318
0.786523	1.600822
0.786621	1.604661
0.786719	1.610051
0.786816	1.616570
0.786914	1.622716
0.787012	1.630199
0.787109	1.636239
0.787207	1.644881
0.787305	1.641171
0.787402	1.637888
0.787500	1.657440
0.787598	1.658331
0.787695	1.662357
0.787793	1.644128
0.787891	1.637468
0.787988	1.636063
0.788086	1.619396
0.788184	1.598862
0.788281	1.602356
0.788379	1.603404
0.788477	1.597805
0.788574	1.592883
0.788672	1.579545
0.788770	1.570474
0.788867	1.565636
0.788965	1.561879
0.789062	1.571988
0.789160	1.595019
0.789258	1.606201
0.789355	1.616913
0.789453	1.627744
0.789551	1.638415
0.789648	1.656926
0.789746	1.653110
0.789844	1.650445
0.789941	1.673808
0.790039	1.654940
0.790137	1.642219
0.790234	1.637548
0.790332	1.633574
0.790430	1.629466
0.790527	1.624112
0.790625	1.618539
0.790723	1.613125
0.790820	1.606862
0.790918	1.600142
0.791016	1.589938
0.791113	1.582480
0.791211	1.582398
0.791309	1.587399
0.791406	1.596042
0.791504	1.603431
0.791602	1.611328
0.791699	1.619923
0.791797	1.628352
0.791895	1.637189
0.791992	1.643188
0.792090	1.650228
0.792187	1.645269
0.792285	1.632485
0.792383	1.629704
0.792480	1.641721
0.792578	1.646186
0.792676	1.630140
0.792773	1.631462
0.792871	1.627889
0.792969	1.615167
0.793066	1.612239
0.793164	1.607519
0.793262	1.604550
0.793359	1.598962
0.793457	1.592713
0.793555	1.583744
0.793652	1.583087
0.793750	1.591665
0.793848	1.599053
0.793945	1.606238
0.794043	1.614528
0.794141	1.621839
0.794238	1.630497
0.794336	1.638257
0.794434	1.650947
0.794531	1.651191
0.794629	1.645323
0.794727	1.662523
0.794824	1.657735
0.794922	1.645272
0.795020	1.641375
0.795117	1.638374
0.795215	1.629180
0.795312	1.617771
0.795410	1.618441
0.795508	1.616545
0.795605	1.608374
0.795703	1.596880
0.795801	1.584083
0.795898	1.582871
0.795996	1.595611
0.796094	1.602950
0.796191	1.607347
0.796289	1.612221
0.796387	1.616416
0.796484	1.622356
0.796582	1.628053
0.796680	1.636542
0.796777	1.643983
0.796875	1.654982
0.796973	1.659282
0.797070	1.664634
0.797168	1.642386
0.797266	1.645743
0.797363	1.651642
0.797461	1.641428
0.797559	1.643347
0.797656	1.633803
0.797754	1.623071
0.797852	1.621431
0.797949	1.622374
0.798047	1.614050
0.798145	1.604541
0.798242	1.601079
0.798340	1.599236
0.798437	1.588709
0.798535	1.584349
0.798633	1.592873
0.798730	1.601333
0.798828	1.607559
0.798926	1.616583
0.799023	1.624346
0.799121	1.635258
0.799219	1.645298
0.799316	1.655678
0.799414	1.641292
0.799512	1.642450
0.799609	1.658592
0.799707	1.655685
0.799805	1.628313
0.799902	1.614821
0.800000	1.618268
0.800098	1.615248
0.800195	1.622224
0.800293	1.612512
0.800391	1.607122
0.800488	1.604323
0.800586	1.600901
0.800684	1.595497
0.800781	1.596377
0.800879	1.598107
0.800977	1.600228
0.801074	1.603374
0.801172	1.611059
0.801270	1.617237
0.801367	1.626568
0.801465	1.632931
0.801562	1.644852
0.801660	1.647218
0.801758	1.645968
0.801855	1.647285
0.801953	1.651305
0.802051	1.644088
0.802148	1.624589
0.802246	1.620630
0.802344	1.614090
0.802441	1.619223
0.802539	1.617117
0.802637	1.613807
0.802734	1.609429
0.802832	1.606233
0.802930	1.600684
0.803027	1.594251
0.803125	1.588228
0.803223	1.584801
0.803320	1.583744
0.803418	1.594748
0.803516	1.603628
0.803613	1.612872
0.803711	1.622877
0.803809	1.633169
0.803906	1.643501
0.804004	1.652871
0.804102	1.649357
0.804199	1.644386
0.804297	1.638844
0.804395	1.640918
0.804492	1.631879
0.804590	1.618078
0.804687	1.611300
0.804785	1.606209
0.804883	1.625282
0.804980	1.628886
0.805078	1.623227
0.805176	1.624449
0.805273	1.620252
0.805371	1.607626
0.805469	1.597831
0.805566	1.592082
0.805664	1.593553
0.805762	1.596480
0.805859	1.600904
0.805957	1.607739
0.806055	1.616097
0.806152	1.624426
0.806250	1.633098
0.806348	1.641361
0.806445	1.652078
0.806543	1.660722
0.806641	1.653129
0.806738	1.647127
0.806836	1.640574
0.806934	1.647046
0.807031	1.638507
0.807129	1.627375
0.807227	1.621700
0.807324	1.620644
0.807422	1.614137
0.807520	1.607333
0.807617	1.602096
0.807715	1.594732
0.807812	1.587973
0.807910	1.580308
0.808008	1.577982
0.808105	1.579733
0.808203	1.589905
0.808301	1.601337
0.808398	1.614377
0.808496	1.624486
0.808594	1.637962
0.808691	1.645247
0.808789	1.657985
0.808887	1.644647
0.808984	1.630443
0.809082	1.663912
0.809180	1.643260
0.809277	1.624317
0.809375	1.613254
0.809473	1.614439
0.809570	1.616463
0.809668	1.619135
0.809766	1.618929
0.809863	1.614197
0.809961	1.611809
0.810059	1.609752
0.810156	1.597151
0.810254	1.594180
0.810352	1.600311
0.810449	1.604549
0.810547	1.610348
0.810645	1.616551
0.810742	1.623976
0.810840	1.632184
0.810937	1.640876
0.811035	1.650933
0.811133	1.646197
0.811230	1.644595
0.811328	1.643154
0.811426	1.642303
0.811523	1.643058
0.811621	1.639899
0.811719	1.637670
0.811816	1.633615
0.811914	1.628910
0.812012	1.622775
0.812109	1.615897
0.812207	1.608234
0.812305	1.600530
0.812402	1.595313
0.812500	1.595976
0.812598	1.599247
0.812695	1.600969
0.812793	1.590160
0.812891	1.591671
0.812988	1.601754
0.813086	1.609950
0.813184	1.618096
0.813281	1.626071
0.813379	1.635308
0.813477	1.648962
0.813574	1.661034
0.813672	1.672266
0.813770	1.681416
0.813867	1.657897
0.813965	1.638216
0.814062	1.633471
0.814160	1.633178
0.814258	1.602735
0.814355	1.601756
0.814453	1.625909
0.814551	1.623615
0.814648	1.627408
0.814746	1.612445
0.814844	1.601069
0.814941	1.594684
0.815039	1.587896
0.815137	1.590021
0.815234	1.597317
0.815332	1.599816
0.815430	1.602883
0.815527	1.612570
0.815625	1.622483
0.815723	1.638141
0.815820	1.637393
0.815918	1.628338
0.816016	1.651476
0.816113	1.650649
0.816211	1.641710
0.816309	1.633256
0.816406	1.624728
0.816504	1.622427
0.816602	1.640333
0.816699	1.632585
0.816797	1.622311
0.816895	1.616244
0.816992	1.606961
0.817090	1.600721
0.817187	1.601340
0.817285	1.599739
0.817383	1.601930
0.817480	1.600882
0.817578	1.602275
0.817676	1.605647
0.817773	1.611058
0.817871	1.617063
0.817969	1.624249
0.818066	1.632207
0.818164	1.640854
0.818262	1.648783
0.818359	1.653938
0.818457	1.651186
0.818555	1.636777
0.818652	1.640356
0.818750	1.636625
0.818848	1.622067
0.818945	1.595722
0.819043	1.619054
0.819141	1.625412
0.819238	1.616167
0.819336	1.629961
0.819434	1.627011
0.819531	1.619731
0.819629	1.613330
0.819727	1.610258
0.819824	1.605913
0.819922	1.605881
0.820020	1.607159
0.820117	1.611110
0.820215	1.615184
0.820312	1.621223
0.820410	1.627056
0.820508	1.634445
0.820605	1.640378
0.820703	1.646604
0.820801	1.639681
0.820898	1.631317
0.820996	1.636542
0.821094	1.638189
0.821191	1.635948
0.821289	1.614771
0.821387	1.616650
0.821484	1.629741
0.821582	1.632651
0.821680	1.632361
0.821777	1.625454
0.821875	1.624437
0.821973	1.620707
0.822070	1.617190
0.822168	1.612426
0.822266	1.608161
0.822363	1.604802
0.822461	1.604431
0.822559	1.606919
0.822656	1.612037
0.822754	1.619255
0.822852	1.627398
0.822949	1.637554
0.823047	1.647552
0.823145	1.650870
0.823242	1.653005
0.823340	1.661872
0.823437	1.654370
0.823535	1.650810
0.823633	1.654743
0.823730	1.641386
0.823828	1.632771
0.823926	1.627955
0.824023	1.625746
0.824121	1.618788
0.824219	1.610376
0.824316	1.601799
0.824414	1.598062
0.824512	1.590858
0.824609	1.585003
0.824707	1.593656
0.824805	1.599794
0.824902	1.601695
0.825000	1.609638
0.825098	1.617062
0.825195	1.628538
0.825293	1.638075
0.825391	1.652134
0.825488	1.655951
0.825586	1.665496
0.825684	1.664383
0.825781	1.655345
0.825879	1.654644
0.825977	1.653633
0.826074	1.646590
0.826172	1.625889
0.826270	1.625233
0.826367	1.612680
0.826465	1.614323
0.826562	1.605362
0.826660	1.605255
0.826758	1.604420
0.826855	1.604593
0.826953	1.613728
0.827051	1.607192
0.827148	1.605277
0.827246	1.606599
0.827344	1.610773
0.827441	1.616132
0.827539	1.622586
0.827637	1.629579
0.827734	1.637065
0.827832	1.645241
0.827930	1.648852
0.828027	1.652873
0.828125	1.655716
0.828223	1.652141
0.828320	1.650091
0.828418	1.646385
0.828516	1.639944
0.828613	1.635395
0.828711	1.630569
0.828809	1.622304
0.828906	1.615368
0.829004	1.610621
0.829102	1.605167
0.829199	1.598151
0.829297	1.592588
0.829395	1.586966
0.829492	1.580773
0.829590	1.573273
0.829687	1.566942
0.829785	1.588320
0.829883	1.605302
0.829980	1.616911
0.830078	1.627824
0.830176	1.639792
0.830273	1.646661
0.830371	1.648282
0.830469	1.656477
0.830566	1.631397
0.830664	1.636926
0.830762	1.637591
0.830859	1.634982
0.830957	1.631856
0.831055	1.625360
0.831152	1.623064
0.831250	1.623721
0.831348	1.612131
0.831445	1.609638
0.831543	1.601443
0.831641	1.595990
0.831738	1.588234
0.831836	1.582678
0.831934	1.579109
0.832031	1.589963
0.832129	1.598465
0.832227	1.609738
0.832324	1.618632
0.832422	1.632801
0.832520	1.642180
0.832617	1.664986
0.832715	1.651183
0.832812	1.630276
0.832910	1.648426
0.833008	1.635193
0.833105	1.635945
0.833203	1.633151
0.833301	1.633870
0.833398	1.625333
0.833496	1.624278
0.833594	1.624036
0.833691	1.625994
0.833789	1.619394
0.833887	1.613681
0.833984	1.609041
0.834082	1.607122
0.834180	1.606662
0.834277	1.609414
0.834375	1.612301
0.834473	1.617821
0.834570	1.622309
0.834668	1.629927
0.834766	1.635635
0.834863	1.645121
0.834961	1.639279
0.835059	1.642695
0.835156	1.670976
0.835254	1.653048
0.835352	1.648267
0.835449	1.647052
0.835547	1.643136
0.835645	1.637911
0.835742	1.637701
0.835840	1.625678
0.835937	1.608169
0.836035	1.600641
0.836133	1.609118
0.836230	1.618672
0.836328	1.614219
0.836426	1.614017
0.836523	1.611773
0.836621	1.612394
0.836719	1.612017
0.836816	1.615060
0.836914	1.617921
0.837012	1.624289
0.837109	1.630946
0.837207	1.642573
0.837305	1.647184
0.837402	1.663239
0.837500	1.663369
0.837598	1.648624
0.837695	1.643651
0.837793	1.637397
0.837891	1.634412
0.837988	1.616067
0.838086	1.587278
0.838184	1.594542
0.838281	1.596649
0.838379	1.581619
0.838477	1.596093
0.838574	1.597108
0.838672	1.591543
0.838770	1.581988
0.838867	1.571315
0.838965	1.563123
0.839062	1.562352
0.839160	1.570070
0.839258	1.586873
0.839355	1.602623
0.839453	1.615132
0.839551	1.625922
0.839648	1.635520
0.839746	1.645124
0.839844	1.636514
0.839941	1.627201
0.840039	1.638916
0.840137	1.642909
0.840234	1.639800
0.840332	1.646735
0.840430	1.637458
0.840527	1.633944
0.840625	1.628135
0.840723	1.624489
0.840820	1.617596
0.840918	1.605496
0.841016	1.592139
0.841113	1.592674
0.841211	1.595246
0.841309	1.600974
0.841406	1.606029
0.841504	1.608930
0.841602	1.612262
0.841699	1.616935
0.841797	1.623258
0.841895	1.631171
0.841992	1.641207
0.842090	1.652954
0.842187	1.652588
0.842285	1.644263
0.842383	1.629966
0.842480	1.632072
0.842578	1.642347
0.842676	1.629392
0.842773	1.634680
0.842871	1.627617
0.842969	1.618843
0.843066	1.610926
0.843164	1.602399
0.843262	1.599192
0.843359	1.598034
0.843457	1.605251
0.843555	1.606464
0.843652	1.606928
0.843750	1.604664
0.843848	1.606180
0.843945	1.609014
0.844043	1.614607
0.844141	1.618419
0.844238	1.625229
0.844336	1.629626
0.844434	1.639262
0.844531	1.645463
0.844629	1.664656
0.844727	1.660762
0.844824	1.643227
0.844922	1.654773
0.845020	1.656523
0.845117	1.646022
0.845215	1.631212
0.845312	1.612846
0.845410	1.617263
0.845508	1.619799
0.845605	1.615704
0.845703	1.614233
0.845801	1.609210
0.845898	1.603660
0.845996	1.595013
0.846094	1.588930
0.846191	1.588598
0.846289	1.596526
0.846387	1.606384
0.846484	1.610270
0.846582	1.612504
0.846680	1.620023
0.846777	1.627034
0.846875	1.636678
0.846973	1.645914
0.847070	1.654059
0.847168	1.644564
0.847266	1.647619
0.847363	1.646619
0.847461	1.632705
0.847559	1.636426
0.847656	1.636579
0.847754	1.625894
0.847852	1.621579
0.847949	1.619270
0.848047	1.610657
0.848145	1.607870
0.848242	1.602878
0.848340	1.596967
0.848437	1.590022
0.848535	1.584350
0.848633	1.575956
0.848730	1.584825
0.848828	1.600529
0.848926	1.609269
0.849023	1.617538
0.849121	1.625326
0.849219	1.633969
0.849316	1.643216
0.849414	1.652193
0.849512	1.657217
0.849609	1.650605
0.849707	1.648894
0.849805	1.630211
0.849902	1.634047
0.850000	1.642746
0.850098	1.620760
0.850195	1.610754
0.850293	1.600878
0.850391	1.611024
0.850488	1.622245
0.850586	1.611809
0.850684	1.600286
0.850781	1.585252
0.850879	1.581738
0.850977	1.595932
0.851074	1.603192
0.851172	1.611801
0.851270	1.618574
0.851367	1.626487
0.851465	1.634864
0.851562	1.643980
0.851660	1.653470
0.851758	1.656335
0.851855	1.656938
0.851953	1.648430
0.852051	1.626987
0.852148	1.613102
0.852246	1.609268
0.852344	1.610903
0.852441	1.614950
0.852539	1.600631
0.852637	1.596488
0.852734	1.602982
0.852832	1.604107
0.852930	1.605645
0.853027	1.602902
0.853125	1.592454
0.853223	1.582360
0.853320	1.584169
0.853418	1.596851
0.853516	1.605487
0.853613	1.613154
0.853711	1.620876
0.853809	1.629446
0.853906	1.638315
0.854004	1.647623
0.854102	1.653597
0.854199	1.651418
0.854297	1.639409
0.854395	1.635711
0.854492	1.639623
0.854590	1.641295
0.854687	1.638719
0.854785	1.629531
0.854883	1.619345
0.854980	1.614862
0.855078	1.609937
0.855176	1.610125
0.855273	1.610158
0.855371	1.606573
0.855469	1.605431
0.855566	1.603706
0.855664	1.601991
0.855762	1.602480
0.855859	1.606056
0.855957	1.610835
0.856055	1.617794
0.856152	1.625141
0.856250	1.635049
0.856348	1.646224
0.856445	1.651488
0.856543	1.656784
0.856641	1.641275
0.856738	1.631490
0.856836	1.638226
0.856934	1.647094
0.857031	1.623702
0.857129	1.630082
0.857227	1.627024
0.857324	1.612654
0.857422	1.602402
0.857520	1.603492
0.857617	1.592136
0.857715	1.588318
0.857812	1.585493
0.857910	1.582618
0.858008	1.580019
0.858105	1.582192
0.858203	1.588712
0.858301	1.592327
0.858398	1.605782
0.858496	1.617513
0.858594	1.631836
0.858691	1.646060
0.858789	1.654425
0.858887	1.660149
0.858984	1.665531
0.859082	1.655303
0.859180	1.646815
0.859277	1.647401
0.859375	1.640523
0.859473	1.633426
0.859570	1.622431
0.859668	1.622714
0.859766	1.619061
0.859863	1.614499
0.859961	1.611394
0.860059	1.604806
0.860156	1.596246
0.860254	1.586310
0.860352	1.590464
0.860449	1.601419
0.860547	1.605862
0.860645	1.610399
0.860742	1.615935
0.860840	1.621694
0.860937	1.629900
0.861035	1.638100
0.861133	1.653869
0.861230	1.655865
0.861328	1.649801
0.861426	1.646900
0.861523	1.640398
0.861621	1.611617
0.861719	1.617624
0.861816	1.629774
0.861914	1.607448
0.862012	1.605341
0.862109	1.613431
0.862207	1.621056
0.862305	1.603574
0.862402	1.587366
0.862500	1.593470
0.862598	1.593703
0.862695	1.579046
0.862793	1.578040
0.862891	1.593733
0.862988	1.604620
0.863086	1.612885
0.863184	1.622257
0.863281	1.631505
0.863379	1.642042
0.863477	1.652640
0.863574	1.666315
0.863672	1.663860
0.863770	1.649914
0.863867	1.630922
0.863965	1.643618
0.864062	1.643874
0.864160	1.633703
0.864258	1.630245
0.864355	1.612710
0.864453	1.608290
0.864551	1.598241
0.864648	1.570059
0.864746	1.553583
0.864844	1.539876
0.864941	1.576478
0.865039	1.598878
0.865137	1.605959
0.865234	1.610996
0.865332	1.609436
0.865430	1.615428
0.865527	1.622671
0.865625	1.630764
0.865723	1.638784
0.865820	1.646425
0.865918	1.653001
0.866016	1.659659
0.866113	1.654943
0.866211	1.629175
0.866309	1.629190
0.866406	1.631462
0.866504	1.626173
0.866602	1.628197
0.866699	1.623079
0.866797	1.621025
0.866895	1.616171
0.866992	1.612315
0.867090	1.606482
0.867187	1.600874
0.867285	1.594169
0.867383	1.594687
0.867480	1.596883
0.867578	1.600254
0.867676	1.603039
0.867773	1.609447
0.867871	1.616180
0.867969	1.625673
0.868066	1.633380
0.868164	1.643549
0.868262	1.648583
0.868359	1.657578
0.868457	1.645416
0.868555	1.639251
0.868652	1.648493
0.868750	1.624389
0.868848	1.628702
0.868945	1.622521
0.869043	1.618128
0.869141	1.615061
0.869238	1.617478
0.869336	1.613235
0.869434	1.597844
0.869531	1.592054
0.869629	1.587501
0.869727	1.586568
0.869824	1.584767
0.869922	1.587953
0.870020	1.597507
0.870117	1.604865
0.870215	1.613667
0.870312	1.622075
0.870410	1.632288
0.870508	1.641327
0.870605	1.650289
0.870703	1.640863
0.870801	1.647289
0.870898	1.658114
0.870996	1.639880
0.871094	1.637844
0.871191	1.627915
0.871289	1.614686
0.871387	1.618995
0.871484	1.614862
0.871582	1.615728
0.871680	1.618948
0.871777	1.617199
0.871875	1.615481
0.871973	1.610275
0.872070	1.606123
0.872168	1.605456
0.872266	1.608401
0.872363	1.611186
0.872461	1.615402
0.872559	1.618877
0.872656	1.624295
0.872754	1.628990
0.872852	1.636707
0.872949	1.643537
0.873047	1.653134
0.873145	1.651052
0.873242	1.655279
0.873340	1.664399
0.873437	1.641737
0.873535	1.649541
0.873633	1.648999
0.873730	1.626662
0.873828	1.623080
0.873926	1.600160
0.874023	1.577837
0.874121	1.588644
0.874219	1.608313
0.874316	1.617835
0.874414	1.617141
0.874512	1.608094
0.874609	1.605119
0.874707	1.605607
0.874805	1.607675
0.874902	1.611004
0.875000	1.615833
0.875098	1.621853
0.875195	1.629402
0.875293	1.638504
0.875391	1.647706
0.875488	1.654242
0.875586	1.657856
0.875684	1.644537
0.875781	1.631595
0.875879	1.633818
0.875977	1.644239
0.876074	1.635560
0.876172	1.632723
0.876270	1.625139
0.876367	1.619253
0.876465	1.618568
0.876562	1.613811
0.876660	1.609422
0.876758	1.604520
0.876855	1.599900
0.876953	1.594297
0.877051	1.588707
0.877148	1.590534
0.877246	1.595943
0.877344	1.602011
0.877441	1.610259
0.877539	1.618664
0.877637	1.628740
0.877734	1.638924
0.877832	1.652208
0.877930	1.654729
0.878027	1.645026
0.878125	1.648706
0.878223	1.642048
0.878320	1.646028
0.878418	1.646003
0.878516	1.644301
0.878613	1.636268
0.878711	1.623719
0.878809	1.617955
0.878906	1.614308
0.879004	1.612491
0.879102	1.606665
0.879199	1.600359
0.879297	1.595038
0.879395	1.596293
0.879492	1.601589
0.879590	1.606706
0.879687	1.612130
0.879785	1.617627
0.879883	1.623843
0.879980	1.630258
0.880078	1.637483
0.880176	1.643978
0.880273	1.649802
0.880371	1.653703
0.880469	1.658157
0.880566	1.648270
0.880664	1.643069
0.880762	1.627525
0.880859	1.608705
0.880957	1.623562
0.881055	1.624748
0.881152	1.620368
0.881250	1.611797
0.881348	1.600141
0.881445	1.602058
0.881543	1.606438
0.881641	1.603308
0.881738	1.603680
0.881836	1.605722
0.881934	1.608276
0.882031	1.612165
0.882129	1.616552
0.882227	1.622033
0.882324	1.627119
0.882422	1.633911
0.882520	1.640373
0.882617	1.653274
0.882715	1.661540
0.882812	1.667367
0.882910	1.653482
0.883008	1.648728
0.883105	1.649077
0.883203	1.638456
0.883301	1.621667
0.883398	1.621091
0.883496	1.622444
0.883594	1.615734
0.883691	1.615588
0.883789	1.606692
0.883887	1.600090
0.883984	1.592851
0.884082	1.588765
0.884180	1.594920
0.884277	1.600815
0.884375	1.605847
0.884473	1.611150
0.884570	1.617509
0.884668	1.623253
0.884766	1.631326
0.884863	1.637292
0.884961	1.649324
0.885059	1.651300
0.885156	1.656919
0.885254	1.659159
0.885352	1.648515
0.885449	1.639482
0.885547	1.624367
0.885645	1.619158
0.885742	1.616625
0.885840	1.616825
0.885937	1.614708
0.886035	1.611664
0.886133	1.607678
0.886230	1.603388
0.886328	1.599077
0.886426	1.596516
0.886523	1.597364
0.886621	1.597949
0.886719	1.599608
0.886816	1.603642
0.886914	1.610302
0.887012	1.617830
0.887109	1.627254
0.887207	1.636362
0.887305	1.648596
0.887402	1.651300
0.887500	1.649528
0.887598	1.642249
0.887695	1.644544
0.887793	1.646834
0.887891	1.639572
0.887988	1.631195
0.888086	1.622624
0.888184	1.615991
0.888281	1.616221
0.888379	1.611635
0.888477	1.601615
0.888574	1.590611
0.888672	1.587335
0.888770	1.596654
0.888867	1.603381
0.888965	1.607169
0.889062	1.610876
0.889160	1.614905
0.889258	1.619735
0.889355	1.625066
0.889453	1.631613
0.889551	1.638781
0.889648	1.648797
0.889746	1.654135
0.889844	1.643774
0.889941	1.636788
0.890039	1.624143
0.890137	1.631193
0.890234	1.632861
0.890332	1.637550
0.890430	1.641784
0.890527	1.635387
0.890625	1.631417
0.890723	1.623801
0.890820	1.613723
0.890918	1.601034
0.891016	1.591650
0.891113	1.591242
0.891211	1.595811
0.891309	1.598883
0.891406	1.600845
0.891504	1.604188
0.891602	1.608701
0.891699	1.613282
0.891797	1.618213
0.891895	1.623133
0.891992	1.629354
0.892090	1.636176
0.892187	1.647804
0.892285	1.658794
0.892383	1.674733
0.892480	1.691824
0.892578	1.650204
0.892676	1.628541
0.892773	1.640533
0.892871	1.647928
0.892969	1.629801
0.893066	1.610590
0.893164	1.610860
0.893262	1.610190
0.893359	1.602372
0.893457	1.593746
0.893555	1.586012
0.893652	1.580694
0.893750	1.582111
0.893848	1.583677
0.893945	1.588726
0.894043	1.599868
0.894141	1.609310
0.894238	1.618674
0.894336	1.627679
0.894434	1.637377
0.894531	1.646137
0.894629	1.652475
0.894727	1.653062
0.894824	1.654042
0.894922	1.648134
0.895020	1.652516
0.895117	1.654104
0.895215	1.640933
0.895312	1.631682
0.895410	1.624379
0.895508	1.619565
0.895605	1.613909
0.895703	1.605851
0.895801	1.597879
0.895898	1.598815
0.895996	1.600359
0.896094	1.602975
0.896191	1.607756
0.896289	1.612492
0.896387	1.617553
0.896484	1.622476
0.896582	1.628359
0.896680	1.634811
0.896777	1.643933
0.896875	1.653907
0.896973	1.658801
0.897070	1.666032
0.897168	1.667678
0.897266	1.653202
0.897363	1.639199
0.897461	1.632366
0.897559	1.629639
0.897656	1.633740
0.897754	1.634845
0.897852	1.630617
0.897949	1.622154
0.898047	1.623115
0.898145	1.618960
0.898242	1.612700
0.898340	1.607984
0.898437	1.606125
0.898535	1.606919
0.898633	1.608999
0.898730	1.613196
0.898828	1.618447
0.898926	1.624851
0.899023	1.631213
0.899121	1.638560
0.899219	1.644876
0.899316	1.650777
0.899414	1.644201
0.899512	1.640523
0.899609	1.638166
0.899707	1.627121
0.899805	1.625988
0.899902	1.640216
0.900000	1.634044
0.900098	1.630758
0.900195	1.628591
0.900293	1.619521
0.900391	1.616006
0.900488	1.611554
0.900586	1.605906
0.900684	1.600725
0.900781	1.595616
0.900879	1.590189
0.900977	1.588106
0.901074	1.595336
0.901172	1.603160
0.901270	1.612861
0.901367	1.623422
0.901465	1.635575
0.901562	1.648667
0.901660	1.648414
0.901758	1.639104
0.901855	1.640223
0.901953	1.632277
0.902051	1.631552
0.902148	1.648323
0.902246	1.647037
0.902344	1.643848
0.902441	1.638825
0.902539	1.646712
0.902637	1.631314
0.902734	1.622774
0.902832	1.621980
0.902930	1.622473
0.903027	1.616057
0.903125	1.609888
0.903223	1.610488
0.903320	1.609853
0.903418	1.611579
0.903516	1.613595
0.903613	1.618326
0.903711	1.623943
0.903809	1.632115
0.903906	1.639414
0.904004	1.643038
0.904102	1.654226
0.904199	1.659884
0.904297	1.655325
0.904395	1.652359
0.904492	1.645610
0.904590	1.625656
0.904687	1.623794
0.904785	1.617283
0.904883	1.616955
0.904980	1.614760
0.905078	1.608043
0.905176	1.601896
0.905273	1.598332
0.905371	1.599576
0.905469	1.594300
0.905566	1.592471
0.905664	1.596023
0.905762	1.599071
0.905859	1.605111
0.905957	1.612158
0.906055	1.622136
0.906152	1.632848
0.906250	1.646087
0.906348	1.653141
0.906445	1.651778
0.906543	1.648021
0.906641	1.643351
0.906738	1.646482
0.906836	1.647759
0.906934	1.634124
0.907031	1.619412
0.907129	1.625613
0.907227	1.620430
0.907324	1.616650
0.907422	1.610460
0.907520	1.607495
0.907617	1.599157
0.907715	1.598756
0.907812	1.596024
0.907910	1.579129
0.908008	1.579252
0.908105	1.590064
0.908203	1.601946
0.908301	1.605978
0.908398	1.610966
0.908496	1.620235
0.908594	1.629201
0.908691	1.640984
0.908789	1.652678
0.908887	1.648073
0.908984	1.647414
0.909082	1.645135
0.909180	1.631670
0.909277	1.622324
0.909375	1.635166
0.909473	1.636430
0.909570	1.626324
0.909668	1.616488
0.909766	1.608697
0.909863	1.606334
0.909961	1.603001
0.910059	1.594106
0.910156	1.599425
0.910254	1.599776
0.910352	1.595945
0.910449	1.597962
0.910547	1.603689
0.910645	1.612392
0.910742	1.621287
0.910840	1.632039
0.910937	1.641290
0.911035	1.648733
0.911133	1.652910
0.911230	1.656010
0.911328	1.646955
0.911426	1.631093
0.911523	1.615547
0.911621	1.623373
0.911719	1.639128
0.911816	1.631157
0.911914	1.630273
0.912012	1.625034
0.912109	1.620008
0.912207	1.615074
0.912305	1.608287
0.912402	1.598202
0.912500	1.592438
0.912598	1.586037
0.912695	1.587551
0.912793	1.591308
0.912891	1.592910
0.912988	1.598708
0.913086	1.605990
0.913184	1.615521
0.913281	1.624992
0.913379	1.635561
0.913477	1.644861
0.913574	1.652750
0.913672	1.649769
0.913770	1.648922
0.913867	1.639172
0.913965	1.628789
0.914062	1.632207
0.914160	1.621783
0.914258	1.620846
0.914355	1.622503
0.914453	1.620252
0.914551	1.615122
0.914648	1.605037
0.914746	1.597970
0.914844	1.594082
0.914941	1.590891
0.915039	1.595421
0.915137	1.597219
0.915234	1.599594
0.915332	1.604138
0.915430	1.610120
0.915527	1.616578
0.915625	1.624142
0.915723	1.631968
0.915820	1.641030
0.915918	1.648561
0.916016	1.655700
0.916113	1.659571
0.916211	1.650659
0.916309	1.635557
0.916406	1.647294
0.916504	1.647066
0.916602	1.632800
0.916699	1.610095
0.916797	1.601278
0.916895	1.606076
0.916992	1.604052
0.917090	1.611533
0.917187	1.607442
0.917285	1.598109
0.917383	1.588167
0.917480	1.583894
0.917578	1.578203
0.917676	1.566790
0.917773	1.582690
0.917871	1.601660
0.917969	1.608698
0.918066	1.619663
0.918164	1.628178
0.918262	1.639495
0.918359	1.647654
0.918457	1.649573
0.918555	1.663766
0.918652	1.658718
0.918750	1.658089
0.918848	1.659832
0.918945	1.643601
0.919043	1.635796
0.919141	1.625280
0.919238	1.622647
0.919336	1.619705
0.919434	1.612750
0.919531	1.602171
0.919629	1.603435
0.919727	1.603146
0.919824	1.600934
0.919922	1.603394
0.920020	1.602942
0.920117	1.605420
0.920215	1.609392
0.920312	1.614910
0.920410	1.621314
0.920508	1.628452
0.920605	1.635813
0.920703	1.643472
0.920801	1.650239
0.920898	1.658200
0.920996	1.656714
0.921094	1.654832
0.921191	1.650862
0.921289	1.643667
0.921387	1.634794
0.921484	1.626990
0.921582	1.621144
0.921680	1.618190
0.921777	1.614934
0.921875	1.611047
0.921973	1.606625
0.922070	1.601583
0.922168	1.596414
0.922266	1.593460
0.922363	1.588964
0.922461	1.594581
0.922559	1.604260
0.922656	1.610879
0.922754	1.619643
0.922852	1.626229
0.922949	1.636052
0.923047	1.642462
0.923145	1.649505
0.923242	1.632601
0.923340	1.638843
0.923437	1.652158
0.923535	1.638771
0.923633	1.628918
0.923730	1.632844
0.923828	1.629681
0.923926	1.613772
0.924023	1.608207
0.924121	1.594435
0.924219	1.586885
0.924316	1.585162
0.924414	1.581573
0.924512	1.550139
0.924609	1.541194
0.924707	1.561358
0.924805	1.583309
0.924902	1.595302
0.925000	1.606665
0.925098	1.615002
0.925195	1.624798
0.925293	1.632797
0.925391	1.641911
0.925488	1.647136
0.925586	1.649411
0.925684	1.649820
0.925781	1.645821
0.925879	1.643425
0.925977	1.648204
0.926074	1.641128
0.926172	1.630298
0.926270	1.627165
0.926367	1.622204
0.926465	1.618165
0.926562	1.610856
0.926660	1.603499
0.926758	1.593371
0.926855	1.583809
0.926953	1.576284
0.927051	1.574950
0.927148	1.581765
0.927246	1.593699
0.927344	1.600132
0.927441	1.607110
0.927539	1.616234
0.927637	1.625811
0.927734	1.639278
0.927832	1.648423
0.927930	1.647427
0.928027	1.640680
0.928125	1.623858
0.928223	1.631599
0.928320	1.642662
0.928418	1.642030
0.928516	1.638598
0.928613	1.634056
0.928711	1.622434
0.928809	1.614715
0.928906	1.609642
0.929004	1.602477
0.929102	1.592713
0.929199	1.587106
0.929297	1.588128
0.929395	1.592391
0.929492	1.596993
0.929590	1.603808
0.929687	1.610753
0.929785	1.618502
0.929883	1.626020
0.929980	1.635213
0.930078	1.644144
0.930176	1.654211
0.930273	1.659922
0.930371	1.661417
0.930469	1.648751
0.930566	1.643072
0.930664	1.619093
0.930762	1.616926
0.930859	1.637817
0.930957	1.634955
0.931055	1.633945
0.931152	1.622765
0.931250	1.620355
0.931348	1.617823
0.931445	1.611847
0.931543	1.604210
0.931641	1.603960
0.931738	1.605189
0.931836	1.602988
0.931934	1.601823
0.932031	1.606123
0.932129	1.611490
0.932227	1.619654
0.932324	1.627206
0.932422	1.637437
0.932520	1.648071
0.932617	1.661693
0.932715	1.657091
0.932812	1.654237
0.932910	1.640507
0.933008	1.629155
0.933105	1.626215
0.933203	1.621061
0.933301	1.618082
0.933398	1.607365
0.933496	1.604157
0.933594	1.595597
0.933691	1.600671
0.933789	1.599489
0.933887	1.596336
0.933984	1.590074
0.934082	1.581505
0.934180	1.574713
0.934277	1.577015
0.934375	1.591599
0.934473	1.600687
0.934570	1.609857
0.934668	1.618584
0.934766	1.627681
0.934863	1.635964
0.934961	1.645145
0.935059	1.648322
0.935156	1.646503
0.935254	1.642056
0.935352	1.647255
0.935449	1.641502
0.935547	1.644764
0.935645	1.646025
0.935742	1.637693
0.935840	1.632909
0.935937	1.625038
0.936035	1.619274
0.936133	1.612469
0.936230	1.606133
0.936328	1.597025
0.936426	1.596957
0.936523	1.602456
0.936621	1.601970
0.936719	1.605939
0.936816	1.609627
0.936914	1.614732
0.937012	1.619687
0.937109	1.624912
0.937207	1.631730
0.937305	1.640009
0.937402	1.651197
0.937500	1.662811
0.937598	1.659294
0.937695	1.645306
0.937793	1.646933
0.937891	1.641288
0.937988	1.635879
0.938086	1.635534
0.938184	1.631213
0.938281	1.626122
0.938379	1.616875
0.938477	1.611393
0.938574	1.605899
0.938672	1.605382
0.938770	1.605644
0.938867	1.604534
0.938965	1.604599
0.939062	1.607510
0.939160	1.610263
0.939258	1.614982
0.939355	1.618813
0.939453	1.625124
0.939551	1.629967
0.939648	1.639072
0.939746	1.647321
0.939844	1.658142
0.939941	1.646078
0.940039	1.631685
0.940137	1.652977
0.940234	1.648732
0.940332	1.645159
0.940430	1.642667
0.940527	1.651397
0.940625	1.640608
0.940723	1.625752
0.940820	1.618672
0.940918	1.613556
0.941016	1.605254
0.941113	1.594111
0.941211	1.592127
0.941309	1.596773
0.941406	1.594192
0.941504	1.598026
0.941602	1.601421
0.941699	1.609508
0.941797	1.616957
0.941895	1.629405
0.941992	1.640565
0.942090	1.652242
0.942187	1.644766
0.942285	1.646646
0.942383	1.658287
0.942480	1.653429
0.942578	1.649522
0.942676	1.640796
0.942773	1.638448
0.942871	1.627929
0.942969	1.618777
0.943066	1.613613
0.943164	1.612112
0.943262	1.611314
0.943359	1.607064
0.943457	1.601107
0.943555	1.591034
0.943652	1.574035
0.943750	1.570759
0.943848	1.586700
0.943945	1.598500
0.944043	1.605998
0.944141	1.613819
0.944238	1.622177
0.944336	1.631819
0.944434	1.642781
0.944531	1.652550
0.944629	1.651758
0.944727	1.654363
0.944824	1.650085
0.944922	1.637356
0.945020	1.635433
0.945117	1.629266
0.945215	1.612359
0.945312	1.607546
0.945410	1.609710
0.945508	1.613678
0.945605	1.624131
0.945703	1.619125
0.945801	1.618747
0.945898	1.615767
0.945996	1.612597
0.946094	1.610478
0.946191	1.610647
0.946289	1.612193
0.946387	1.614973
0.946484	1.619037
0.946582	1.624389
0.946680	1.630238
0.946777	1.638526
0.946875	1.642087
0.946973	1.651222
0.947070	1.688832
0.947168	1.664964
0.947266	1.642811
0.947363	1.665658
0.947461	1.645478
0.947559	1.639227
0.947656	1.642837
0.947754	1.639866
0.947852	1.626825
0.947949	1.615279
0.948047	1.614887
0.948145	1.604168
0.948242	1.599044
0.948340	1.603232
0.948437	1.602397
0.948535	1.604577
0.948633	1.607524
0.948730	1.612081
0.948828	1.617828
0.948926	1.626186
0.949023	1.635666
0.949121	1.647703
0.949219	1.655021
0.949316	1.660302
0.949414	1.665058
0.949512	1.663910
0.949609	1.652676
0.949707	1.636629
0.949805	1.622838
0.949902	1.624219
0.950000	1.621511
0.950098	1.625285
0.950195	1.629396
0.950293	1.627693
0.950391	1.620471
0.950488	1.617612
0.950586	1.616778
0.950684	1.611503
0.950781	1.611764
0.950879	1.612401
0.950977	1.614401
0.951074	1.615065
0.951172	1.617960
0.951270	1.621508
0.951367	1.628319
0.951465	1.635818
0.951562	1.648246
0.951660	1.653786
0.951758	1.650171
0.951855	1.659713
0.951953	1.654679
0.952051	1.643482
0.952148	1.645558
0.952246	1.634576
0.952344	1.631179
0.952441	1.628361
0.952539	1.621810
0.952637	1.613880
0.952734	1.606552
0.952832	1.602139
0.952930	1.594841
0.953027	1.592596
0.953125	1.597814
0.953223	1.600165
0.953320	1.599483
0.953418	1.601997
0.953516	1.608315
0.953613	1.616780
0.953711	1.625839
0.953809	1.636137
0.953906	1.644686
0.954004	1.649461
0.954102	1.651354
0.954199	1.645033
0.954297	1.655807
0.954395	1.647920
0.954492	1.641133
0.954590	1.635367
0.954687	1.631338
0.954785	1.629069
0.954883	1.621316
0.954980	1.607744
0.955078	1.598733
0.955176	1.602679
0.955273	1.603919
0.955371	1.597544
0.955469	1.590514
0.955566	1.597940
0.955664	1.603395
0.955762	1.601704
0.955859	1.604838
0.955957	1.611697
0.956055	1.619175
0.956152	1.628717
0.956250	1.636306
0.956348	1.644888
0.956445	1.642128
0.956543	1.648048
0.956641	1.652911
0.956738	1.650570
0.956836	1.646074
0.956934	1.647974
0.957031	1.637105
0.957129	1.634444
0.957227	1.618389
0.957324	1.621716
0.957422	1.622732
0.957520	1.613287
0.957617	1.608683
0.957715	1.601298
0.957812	1.597009
0.957910	1.592287
0.958008	1.591605
0.958105	1.592876
0.958203	1.597090
0.958301	1.603552
0.958398	1.608988
0.958496	1.619456
0.958594	1.629799
0.958691	1.643399
0.958789	1.657546
0.958887	1.667431
0.958984	1.647134
0.959082	1.660724
0.959180	1.661226
0.959277	1.650587
0.959375	1.633937
0.959473	1.620514
0.959570	1.622294
0.959668	1.616841
0.959766	1.617199
0.959863	1.612052
0.959961	1.608680
0.960059	1.599567
0.960156	1.590732
0.960254	1.581456
0.960352	1.583788
0.960449	1.591996
0.960547	1.597964
0.960645	1.605094
0.960742	1.613232
0.960840	1.621274
0.960937	1.629612
0.961035	1.637424
0.961133	1.645595
0.961230	1.652740
0.961328	1.652911
0.961426	1.643327
0.961523	1.641015
0.961621	1.644172
0.961719	1.620562
0.961816	1.607579
0.961914	1.598886
0.962012	1.591641
0.962109	1.597126
0.962207	1.607947
0.962305	1.606671
0.962402	1.598274
0.962500	1.594144
0.962598	1.600929
0.962695	1.603910
0.962793	1.607426
0.962891	1.610389
0.962988	1.613707
0.963086	1.617193
0.963184	1.621700
0.963281	1.626730
0.963379	1.632915
0.963477	1.641886
0.963574	1.661039
0.963672	1.639320
0.963770	1.636696
0.963867	1.654312
0.963965	1.645270
0.964062	1.627966
0.964160	1.633760
0.964258	1.628418
0.964355	1.627190
0.964453	1.624559
0.964551	1.620121
0.964648	1.625232
0.964746	1.622774
0.964844	1.613048
0.964941	1.608108
0.965039	1.596791
0.965137	1.594230
0.965234	1.598451
0.965332	1.602361
0.965430	1.610139
0.965527	1.617365
0.965625	1.626227
0.965723	1.635107
0.965820	1.645769
0.965918	1.652615
0.966016	1.644625
0.966113	1.647583
0.966211	1.653460
0.966309	1.644550
0.966406	1.655694
0.966504	1.658603
0.966602	1.649605
0.966699	1.635465
0.966797	1.622780
0.966895	1.618410
0.966992	1.611319
0.967090	1.606258
0.967187	1.601584
0.967285	1.598662
0.967383	1.595968
0.967480	1.597585
0.967578	1.602806
0.967676	1.604803
0.967773	1.605539
0.967871	1.608795
0.967969	1.616589
0.968066	1.625787
0.968164	1.642185
0.968262	1.657138
0.968359	1.679141
0.968457	1.686505
0.968555	1.676505
0.968652	1.668539
0.968750	1.651126
0.968848	1.647471
0.968945	1.640030
0.969043	1.620041
0.969141	1.618125
0.969238	1.617680
0.969336	1.615228
0.969434	1.611330
0.969531	1.608213
0.969629	1.602235
0.969727	1.594370
0.969824	1.586365
0.969922	1.587907
0.970020	1.594531
0.970117	1.601273
0.970215	1.608711
0.970312	1.617359
0.970410	1.626390
0.970508	1.637292
0.970605	1.647279
0.970703	1.655234
0.970801	1.647770
0.970898	1.638188
0.970996	1.614082
0.971094	1.611091
0.971191	1.638434
0.971289	1.628737
0.971387	1.623077
0.971484	1.623661
0.971582	1.627200
0.971680	1.627673
0.971777	1.627693
0.971875	1.624644
0.971973	1.620730
0.972070	1.616232
0.972168	1.612918
0.972266	1.611158
0.972363	1.611558
0.972461	1.613553
0.972559	1.617137
0.972656	1.621907
0.972754	1.627727
0.972852	1.635087
0.972949	1.643744
0.973047	1.651858
0.973145	1.650266
0.973242	1.654337
0.973340	1.651016
0.973437	1.642794
0.973535	1.633994
0.973633	1.626271
0.973730	1.628709
0.973828	1.626265
0.973926	1.623325
0.974023	1.618969
0.974121	1.604593
0.974219	1.601945
0.974316	1.588465
0.974414	1.602040
0.974512	1.605673
0.974609	1.601557
0.974707	1.601579
0.974805	1.602822
0.974902	1.608876
0.975000	1.614930
0.975098	1.623520
0.975195	1.631886
0.975293	1.642320
0.975391	1.651278
0.975488	1.657063
0.975586	1.644722
0.975684	1.636477
0.975781	1.636801
0.975879	1.642290
0.975977	1.630932
0.976074	1.622798
0.976172	1.614750
0.976270	1.621329
0.976367	1.618085
0.976465	1.613610

