LabVIEW Measurement	
Writer_Version	2
Reader_Version	2
Separator	Tab
Decimal_Separator	.
Multi_Headings	Yes
X_Columns	One
Time_Pref	Absolute
Operator	W-Tunnel
Date	1904/01/01
Time	01:00:00
***End_of_Header***	
	
Channels	1	
Samples	10000	
Date	2024/05/17	
Time	18:20:55.2337836562498913514	
Y_Unit_Label	Volts	
X_Dimension	Time	
X0	0.0000000000000000E+0	
Delta_X	9.765625E-5	
***End_of_Header***		
X_Value	Voltage	Comment
0.000000	1.628543
9.765625E-5	1.628691
0.000195	1.629072
0.000293	1.629604
0.000391	1.630361
0.000488	1.630999
0.000586	1.631834
0.000684	1.632637
0.000781	1.633363
0.000879	1.634003
0.000977	1.634470
0.001074	1.634795
0.001172	1.635044
0.001270	1.634985
0.001367	1.634767
0.001465	1.634355
0.001562	1.633814
0.001660	1.633158
0.001758	1.632322
0.001855	1.631561
0.001953	1.630738
0.002051	1.629897
0.002148	1.629252
0.002246	1.628720
0.002344	1.628529
0.002441	1.628395
0.002539	1.628470
0.002637	1.628791
0.002734	1.629154
0.002832	1.629985
0.002930	1.630684
0.003027	1.631411
0.003125	1.632151
0.003223	1.632740
0.003320	1.633227
0.003418	1.633458
0.003516	1.633661
0.003613	1.633605
0.003711	1.633455
0.003809	1.633058
0.003906	1.632483
0.004004	1.631945
0.004102	1.631283
0.004199	1.630558
0.004297	1.629916
0.004395	1.629401
0.004492	1.628876
0.004590	1.628621
0.004687	1.628509
0.004785	1.628511
0.004883	1.628679
0.004980	1.629216
0.005078	1.629728
0.005176	1.630433
0.005273	1.631215
0.005371	1.632023
0.005469	1.632955
0.005566	1.633706
0.005664	1.634366
0.005762	1.634869
0.005859	1.635149
0.005957	1.635128
0.006055	1.634882
0.006152	1.634444
0.006250	1.633804
0.006348	1.633108
0.006445	1.632356
0.006543	1.631484
0.006641	1.630648
0.006738	1.629921
0.006836	1.629244
0.006934	1.628660
0.007031	1.628308
0.007129	1.628104
0.007227	1.628184
0.007324	1.628416
0.007422	1.628937
0.007520	1.629584
0.007617	1.630424
0.007715	1.631244
0.007812	1.632118
0.007910	1.633025
0.008008	1.633706
0.008105	1.634341
0.008203	1.634721
0.008301	1.634851
0.008398	1.634813
0.008496	1.634413
0.008594	1.634015
0.008691	1.633385
0.008789	1.632846
0.008887	1.632042
0.008984	1.631370
0.009082	1.630652
0.009180	1.630005
0.009277	1.629391
0.009375	1.628911
0.009473	1.628617
0.009570	1.628583
0.009668	1.628630
0.009766	1.628935
0.009863	1.629402
0.009961	1.630005
0.010059	1.630723
0.010156	1.631553
0.010254	1.632297
0.010352	1.632926
0.010449	1.633489
0.010547	1.633861
0.010645	1.634044
0.010742	1.633980
0.010840	1.633734
0.010937	1.633421
0.011035	1.632937
0.011133	1.632361
0.011230	1.631713
0.011328	1.631093
0.011426	1.630374
0.011523	1.629665
0.011621	1.629079
0.011719	1.628651
0.011816	1.628241
0.011914	1.628067
0.012012	1.628102
0.012109	1.628236
0.012207	1.628624
0.012305	1.629208
0.012402	1.629922
0.012500	1.630573
0.012598	1.631351
0.012695	1.631886
0.012793	1.632602
0.012891	1.633020
0.012988	1.633319
0.013086	1.633455
0.013184	1.633235
0.013281	1.632981
0.013379	1.632678
0.013477	1.632109
0.013574	1.631608
0.013672	1.630901
0.013770	1.630321
0.013867	1.629758
0.013965	1.629234
0.014062	1.628885
0.014160	1.628553
0.014258	1.628553
0.014355	1.628544
0.014453	1.628708
0.014551	1.629142
0.014648	1.629672
0.014746	1.630423
0.014844	1.631217
0.014941	1.631987
0.015039	1.632762
0.015137	1.633513
0.015234	1.634176
0.015332	1.634587
0.015430	1.634825
0.015527	1.634917
0.015625	1.634747
0.015723	1.634235
0.015820	1.633692
0.015918	1.632926
0.016016	1.632001
0.016113	1.630966
0.016211	1.629880
0.016309	1.628994
0.016406	1.628064
0.016504	1.627391
0.016602	1.626936
0.016699	1.626764
0.016797	1.626835
0.016895	1.627189
0.016992	1.627743
0.017090	1.628489
0.017187	1.629431
0.017285	1.630292
0.017383	1.631171
0.017480	1.631968
0.017578	1.632654
0.017676	1.633206
0.017773	1.633591
0.017871	1.633781
0.017969	1.633681
0.018066	1.633590
0.018164	1.633226
0.018262	1.632713
0.018359	1.632252
0.018457	1.631472
0.018555	1.630863
0.018652	1.630273
0.018750	1.629659
0.018848	1.629059
0.018945	1.628766
0.019043	1.628418
0.019141	1.628454
0.019238	1.628538
0.019336	1.628826
0.019434	1.629264
0.019531	1.629983
0.019629	1.630653
0.019727	1.631460
0.019824	1.632193
0.019922	1.632890
0.020020	1.633468
0.020117	1.633887
0.020215	1.634127
0.020312	1.634260
0.020410	1.634041
0.020508	1.633650
0.020605	1.633117
0.020703	1.632281
0.020801	1.631595
0.020898	1.630671
0.020996	1.629833
0.021094	1.629125
0.021191	1.628517
0.021289	1.628033
0.021387	1.627796
0.021484	1.627829
0.021582	1.627940
0.021680	1.628316
0.021777	1.628753
0.021875	1.629474
0.021973	1.630066
0.022070	1.630853
0.022168	1.631600
0.022266	1.632344
0.022363	1.633022
0.022461	1.633425
0.022559	1.633809
0.022656	1.633750
0.022754	1.633518
0.022852	1.633351
0.022949	1.632771
0.023047	1.632123
0.023145	1.631353
0.023242	1.630486
0.023340	1.629722
0.023437	1.628929
0.023535	1.628356
0.023633	1.627813
0.023730	1.627506
0.023828	1.627398
0.023926	1.627480
0.024023	1.627796
0.024121	1.628388
0.024219	1.628975
0.024316	1.629842
0.024414	1.630746
0.024512	1.631684
0.024609	1.632587
0.024707	1.633471
0.024805	1.634148
0.024902	1.634692
0.025000	1.635022
0.025098	1.635094
0.025195	1.634999
0.025293	1.634612
0.025391	1.634013
0.025488	1.633242
0.025586	1.632386
0.025684	1.631412
0.025781	1.630564
0.025879	1.629776
0.025977	1.628939
0.026074	1.628396
0.026172	1.627976
0.026270	1.627707
0.026367	1.627752
0.026465	1.627933
0.026562	1.628272
0.026660	1.628869
0.026758	1.629479
0.026855	1.630155
0.026953	1.630778
0.027051	1.631430
0.027148	1.632031
0.027246	1.632387
0.027344	1.632717
0.027441	1.632884
0.027539	1.632803
0.027637	1.632591
0.027734	1.632292
0.027832	1.631846
0.027930	1.631267
0.028027	1.630696
0.028125	1.630071
0.028223	1.629390
0.028320	1.628762
0.028418	1.628366
0.028516	1.628080
0.028613	1.627875
0.028711	1.627835
0.028809	1.628093
0.028906	1.628518
0.029004	1.629166
0.029102	1.629825
0.029199	1.630664
0.029297	1.631548
0.029395	1.632388
0.029492	1.633360
0.029590	1.633991
0.029687	1.634622
0.029785	1.634962
0.029883	1.635002
0.029980	1.634720
0.030078	1.634232
0.030176	1.633635
0.030273	1.632851
0.030371	1.631962
0.030469	1.631010
0.030566	1.630118
0.030664	1.629225
0.030762	1.628526
0.030859	1.627985
0.030957	1.627680
0.031055	1.627511
0.031152	1.627612
0.031250	1.627876
0.031348	1.628432
0.031445	1.629002
0.031543	1.629681
0.031641	1.630483
0.031738	1.631181
0.031836	1.631890
0.031934	1.632363
0.032031	1.632818
0.032129	1.633041
0.032227	1.633225
0.032324	1.633111
0.032422	1.633005
0.032520	1.632583
0.032617	1.632217
0.032715	1.631494
0.032812	1.630949
0.032910	1.630428
0.033008	1.629867
0.033105	1.629324
0.033203	1.628890
0.033301	1.628693
0.033398	1.628555
0.033496	1.628728
0.033594	1.628942
0.033691	1.629362
0.033789	1.629905
0.033887	1.630650
0.033984	1.631388
0.034082	1.632056
0.034180	1.632781
0.034277	1.633385
0.034375	1.633748
0.034473	1.634028
0.034570	1.634130
0.034668	1.634044
0.034766	1.633706
0.034863	1.633336
0.034961	1.632701
0.035059	1.632012
0.035156	1.631280
0.035254	1.630401
0.035352	1.629693
0.035449	1.628948
0.035547	1.628311
0.035645	1.627981
0.035742	1.627727
0.035840	1.627769
0.035937	1.628020
0.036035	1.628391
0.036133	1.628942
0.036230	1.629640
0.036328	1.630406
0.036426	1.631104
0.036523	1.631824
0.036621	1.632398
0.036719	1.632898
0.036816	1.633149
0.036914	1.633408
0.037012	1.633393
0.037109	1.633183
0.037207	1.632972
0.037305	1.632541
0.037402	1.632013
0.037500	1.631382
0.037598	1.630701
0.037695	1.630090
0.037793	1.629389
0.037891	1.628948
0.037988	1.628604
0.038086	1.628444
0.038184	1.628353
0.038281	1.628476
0.038379	1.628797
0.038477	1.629335
0.038574	1.629911
0.038672	1.630650
0.038770	1.631534
0.038867	1.632239
0.038965	1.633061
0.039062	1.633619
0.039160	1.634150
0.039258	1.634391
0.039355	1.634529
0.039453	1.634302
0.039551	1.633940
0.039648	1.633357
0.039746	1.632783
0.039844	1.631880
0.039941	1.631192
0.040039	1.630363
0.040137	1.629646
0.040234	1.629055
0.040332	1.628593
0.040430	1.628206
0.040527	1.628119
0.040625	1.628098
0.040723	1.628203
0.040820	1.628709
0.040918	1.629188
0.041016	1.629947
0.041113	1.630656
0.041211	1.631493
0.041309	1.632281
0.041406	1.632890
0.041504	1.633432
0.041602	1.633892
0.041699	1.634057
0.041797	1.634114
0.041895	1.633972
0.041992	1.633715
0.042090	1.633185
0.042187	1.632666
0.042285	1.631936
0.042383	1.631298
0.042480	1.630498
0.042578	1.629883
0.042676	1.629015
0.042773	1.628591
0.042871	1.628343
0.042969	1.628136
0.043066	1.628184
0.043164	1.628379
0.043262	1.628802
0.043359	1.629347
0.043457	1.630075
0.043555	1.630868
0.043652	1.631513
0.043750	1.632294
0.043848	1.632815
0.043945	1.633286
0.044043	1.633532
0.044141	1.633535
0.044238	1.633406
0.044336	1.633144
0.044434	1.632607
0.044531	1.631979
0.044629	1.631330
0.044727	1.630559
0.044824	1.629856
0.044922	1.629086
0.045020	1.628568
0.045117	1.628086
0.045215	1.627883
0.045312	1.627797
0.045410	1.627890
0.045508	1.628299
0.045605	1.628829
0.045703	1.629468
0.045801	1.630334
0.045898	1.631084
0.045996	1.631943
0.046094	1.632644
0.046191	1.633221
0.046289	1.633639
0.046387	1.634050
0.046484	1.634022
0.046582	1.633877
0.046680	1.633609
0.046777	1.633088
0.046875	1.632404
0.046973	1.631502
0.047070	1.630846
0.047168	1.629956
0.047266	1.629199
0.047363	1.628468
0.047461	1.628062
0.047559	1.627822
0.047656	1.627693
0.047754	1.627780
0.047852	1.628027
0.047949	1.628510
0.048047	1.629156
0.048145	1.629867
0.048242	1.630610
0.048340	1.631469
0.048437	1.632308
0.048535	1.632988
0.048633	1.633590
0.048730	1.634001
0.048828	1.634185
0.048926	1.634210
0.049023	1.634166
0.049121	1.633763
0.049219	1.633222
0.049316	1.632517
0.049414	1.631805
0.049512	1.631040
0.049609	1.630329
0.049707	1.629619
0.049805	1.628949
0.049902	1.628569
0.050000	1.628226
0.050098	1.628092
0.050195	1.628226
0.050293	1.628628
0.050391	1.629172
0.050488	1.629870
0.050586	1.630504
0.050684	1.631217
0.050781	1.631989
0.050879	1.632662
0.050977	1.633369
0.051074	1.633845
0.051172	1.634051
0.051270	1.634181
0.051367	1.634219
0.051465	1.633848
0.051562	1.633481
0.051660	1.632947
0.051758	1.632333
0.051855	1.631617
0.051953	1.630803
0.052051	1.630102
0.052148	1.629346
0.052246	1.628786
0.052344	1.628319
0.052441	1.627984
0.052539	1.627846
0.052637	1.628009
0.052734	1.628227
0.052832	1.628806
0.052930	1.629473
0.053027	1.630390
0.053125	1.631179
0.053223	1.631921
0.053320	1.632779
0.053418	1.633485
0.053516	1.633979
0.053613	1.634265
0.053711	1.634331
0.053809	1.634153
0.053906	1.633851
0.054004	1.633325
0.054102	1.632497
0.054199	1.631796
0.054297	1.630970
0.054395	1.630095
0.054492	1.629409
0.054590	1.628736
0.054687	1.628254
0.054785	1.628091
0.054883	1.627909
0.054980	1.628127
0.055078	1.628444
0.055176	1.628886
0.055273	1.629598
0.055371	1.630345
0.055469	1.631121
0.055566	1.631894
0.055664	1.632737
0.055762	1.633354
0.055859	1.633854
0.055957	1.634193
0.056055	1.634468
0.056152	1.634432
0.056250	1.634303
0.056348	1.633917
0.056445	1.633423
0.056543	1.632802
0.056641	1.631959
0.056738	1.631019
0.056836	1.630240
0.056934	1.629380
0.057031	1.628701
0.057129	1.628272
0.057227	1.627901
0.057324	1.627798
0.057422	1.627990
0.057520	1.628508
0.057617	1.629005
0.057715	1.629860
0.057812	1.630648
0.057910	1.631523
0.058008	1.632298
0.058105	1.633294
0.058203	1.633817
0.058301	1.634415
0.058398	1.634667
0.058496	1.634701
0.058594	1.634498
0.058691	1.634174
0.058789	1.633660
0.058887	1.633022
0.058984	1.632373
0.059082	1.631511
0.059180	1.630910
0.059277	1.630088
0.059375	1.629504
0.059473	1.629094
0.059570	1.628756
0.059668	1.628688
0.059766	1.628646
0.059863	1.628923
0.059961	1.629317
0.060059	1.629820
0.060156	1.630656
0.060254	1.631345
0.060352	1.632128
0.060449	1.632917
0.060547	1.633391
0.060645	1.633840
0.060742	1.634024
0.060840	1.633968
0.060937	1.633801
0.061035	1.633531
0.061133	1.633030
0.061230	1.632684
0.061328	1.632134
0.061426	1.631635
0.061523	1.631077
0.061621	1.630554
0.061719	1.630050
0.061816	1.629671
0.061914	1.629335
0.062012	1.629083
0.062109	1.629130
0.062207	1.629300
0.062305	1.629540
0.062402	1.629947
0.062500	1.630555
0.062598	1.631216
0.062695	1.631834
0.062793	1.632591
0.062891	1.633216
0.062988	1.633695
0.063086	1.634071
0.063184	1.634171
0.063281	1.634208
0.063379	1.634020
0.063477	1.633689
0.063574	1.633267
0.063672	1.632677
0.063770	1.631919
0.063867	1.631184
0.063965	1.630343
0.064062	1.629643
0.064160	1.628943
0.064258	1.628648
0.064355	1.628394
0.064453	1.628328
0.064551	1.628552
0.064648	1.628871
0.064746	1.629569
0.064844	1.630176
0.064941	1.630997
0.065039	1.631848
0.065137	1.632690
0.065234	1.633407
0.065332	1.634037
0.065430	1.634418
0.065527	1.634689
0.065625	1.634653
0.065723	1.634312
0.065820	1.633892
0.065918	1.633147
0.066016	1.632403
0.066113	1.631501
0.066211	1.630675
0.066309	1.629828
0.066406	1.629147
0.066504	1.628547
0.066602	1.628170
0.066699	1.627904
0.066797	1.627913
0.066895	1.628236
0.066992	1.628496
0.067090	1.629136
0.067187	1.629781
0.067285	1.630529
0.067383	1.631401
0.067480	1.632253
0.067578	1.633009
0.067676	1.633812
0.067773	1.634308
0.067871	1.634645
0.067969	1.634891
0.068066	1.634858
0.068164	1.634586
0.068262	1.634027
0.068359	1.633326
0.068457	1.632417
0.068555	1.631592
0.068652	1.630672
0.068750	1.629870
0.068848	1.629048
0.068945	1.628450
0.069043	1.628014
0.069141	1.627729
0.069238	1.627751
0.069336	1.627964
0.069434	1.628434
0.069531	1.629092
0.069629	1.629875
0.069727	1.630749
0.069824	1.631599
0.069922	1.632408
0.070020	1.633155
0.070117	1.633802
0.070215	1.634285
0.070312	1.634546
0.070410	1.634607
0.070508	1.634492
0.070605	1.634011
0.070703	1.633534
0.070801	1.632778
0.070898	1.631970
0.070996	1.631116
0.071094	1.630252
0.071191	1.629484
0.071289	1.628734
0.071387	1.628115
0.071484	1.627763
0.071582	1.627577
0.071680	1.627582
0.071777	1.627818
0.071875	1.628317
0.071973	1.628885
0.072070	1.629630
0.072168	1.630370
0.072266	1.631345
0.072363	1.632009
0.072461	1.632673
0.072559	1.633289
0.072656	1.633609
0.072754	1.633860
0.072852	1.634084
0.072949	1.633962
0.073047	1.633789
0.073145	1.633491
0.073242	1.632957
0.073340	1.632419
0.073437	1.631851
0.073535	1.631173
0.073633	1.630528
0.073730	1.629916
0.073828	1.629430
0.073926	1.629043
0.074023	1.628881
0.074121	1.628798
0.074219	1.629055
0.074316	1.629302
0.074414	1.629926
0.074512	1.630603
0.074609	1.631314
0.074707	1.632047
0.074805	1.632759
0.074902	1.633439
0.075000	1.633873
0.075098	1.634313
0.075195	1.634508
0.075293	1.634598
0.075391	1.634391
0.075488	1.634121
0.075586	1.633656
0.075684	1.633015
0.075781	1.632240
0.075879	1.631422
0.075977	1.630626
0.076074	1.629894
0.076172	1.629246
0.076270	1.628854
0.076367	1.628543
0.076465	1.628458
0.076562	1.628596
0.076660	1.628938
0.076758	1.629444
0.076855	1.630088
0.076953	1.630896
0.077051	1.631627
0.077148	1.632414
0.077246	1.633153
0.077344	1.633732
0.077441	1.634163
0.077539	1.634472
0.077637	1.634501
0.077734	1.634398
0.077832	1.634067
0.077930	1.633550
0.078027	1.632868
0.078125	1.632150
0.078223	1.631301
0.078320	1.630418
0.078418	1.629687
0.078516	1.629032
0.078613	1.628559
0.078711	1.628184
0.078809	1.628137
0.078906	1.628088
0.079004	1.628400
0.079102	1.628917
0.079199	1.629546
0.079297	1.630346
0.079395	1.631205
0.079492	1.632007
0.079590	1.632933
0.079687	1.633556
0.079785	1.634064
0.079883	1.634337
0.079980	1.634490
0.080078	1.634434
0.080176	1.634184
0.080273	1.633800
0.080371	1.633291
0.080469	1.632561
0.080566	1.631868
0.080664	1.631157
0.080762	1.630441
0.080859	1.629886
0.080957	1.629417
0.081055	1.629077
0.081152	1.628822
0.081250	1.628759
0.081348	1.628894
0.081445	1.629062
0.081543	1.629446
0.081641	1.630028
0.081738	1.630697
0.081836	1.631290
0.081934	1.631931
0.082031	1.632483
0.082129	1.633171
0.082227	1.633448
0.082324	1.633715
0.082422	1.633765
0.082520	1.633509
0.082617	1.633197
0.082715	1.632562
0.082812	1.631988
0.082910	1.631370
0.083008	1.630648
0.083105	1.629936
0.083203	1.629340
0.083301	1.628911
0.083398	1.628529
0.083496	1.628391
0.083594	1.628477
0.083691	1.628734
0.083789	1.629067
0.083887	1.629659
0.083984	1.630331
0.084082	1.631077
0.084180	1.631864
0.084277	1.632592
0.084375	1.633244
0.084473	1.633818
0.084570	1.634229
0.084668	1.634525
0.084766	1.634606
0.084863	1.634588
0.084961	1.634245
0.085059	1.633897
0.085156	1.633335
0.085254	1.632724
0.085352	1.631915
0.085449	1.631107
0.085547	1.630338
0.085645	1.629639
0.085742	1.629088
0.085840	1.628714
0.085937	1.628471
0.086035	1.628462
0.086133	1.628699
0.086230	1.629092
0.086328	1.629664
0.086426	1.630441
0.086523	1.631151
0.086621	1.631935
0.086719	1.632723
0.086816	1.633407
0.086914	1.633930
0.087012	1.634161
0.087109	1.634388
0.087207	1.634311
0.087305	1.634111
0.087402	1.633622
0.087500	1.633144
0.087598	1.632467
0.087695	1.631606
0.087793	1.630690
0.087891	1.629776
0.087988	1.629007
0.088086	1.628382
0.088184	1.627863
0.088281	1.627636
0.088379	1.627557
0.088477	1.627787
0.088574	1.628201
0.088672	1.628792
0.088770	1.629540
0.088867	1.630430
0.088965	1.631233
0.089062	1.632078
0.089160	1.632881
0.089258	1.633491
0.089355	1.634078
0.089453	1.634409
0.089551	1.634658
0.089648	1.634699
0.089746	1.634457
0.089844	1.634143
0.089941	1.633672
0.090039	1.632866
0.090137	1.632217
0.090234	1.631538
0.090332	1.630777
0.090430	1.630053
0.090527	1.629534
0.090625	1.629125
0.090723	1.628807
0.090820	1.628818
0.090918	1.628908
0.091016	1.629254
0.091113	1.629870
0.091211	1.630451
0.091309	1.631162
0.091406	1.631968
0.091504	1.632756
0.091602	1.633432
0.091699	1.633950
0.091797	1.634349
0.091895	1.634622
0.091992	1.634585
0.092090	1.634423
0.092187	1.634053
0.092285	1.633519
0.092383	1.632814
0.092480	1.631910
0.092578	1.630987
0.092676	1.630082
0.092773	1.629083
0.092871	1.628558
0.092969	1.627989
0.093066	1.627707
0.093164	1.627633
0.093262	1.627730
0.093359	1.628092
0.093457	1.628619
0.093555	1.629441
0.093652	1.630253
0.093750	1.631155
0.093848	1.632053
0.093945	1.632904
0.094043	1.633542
0.094141	1.634102
0.094238	1.634293
0.094336	1.634293
0.094434	1.634210
0.094531	1.633700
0.094629	1.633067
0.094727	1.632224
0.094824	1.631339
0.094922	1.630376
0.095020	1.629580
0.095117	1.628765
0.095215	1.628100
0.095312	1.627771
0.095410	1.627510
0.095508	1.627508
0.095605	1.627733
0.095703	1.628114
0.095801	1.628687
0.095898	1.629363
0.095996	1.630142
0.096094	1.631002
0.096191	1.631981
0.096289	1.632795
0.096387	1.633516
0.096484	1.634078
0.096582	1.634575
0.096680	1.634734
0.096777	1.634781
0.096875	1.634581
0.096973	1.634171
0.097070	1.633502
0.097168	1.632784
0.097266	1.631940
0.097363	1.631110
0.097461	1.630357
0.097559	1.629597
0.097656	1.629022
0.097754	1.628662
0.097852	1.628435
0.097949	1.628290
0.098047	1.628452
0.098145	1.628778
0.098242	1.629192
0.098340	1.629798
0.098437	1.630525
0.098535	1.631260
0.098633	1.632150
0.098730	1.632928
0.098828	1.633517
0.098926	1.634062
0.099023	1.634414
0.099121	1.634526
0.099219	1.634564
0.099316	1.634252
0.099414	1.633789
0.099512	1.633282
0.099609	1.632555
0.099707	1.631835
0.099805	1.630874
0.099902	1.630183
0.100000	1.629501
0.100098	1.628916
0.100195	1.628578
0.100293	1.628459
0.100391	1.628485
0.100488	1.628741
0.100586	1.629085
0.100684	1.629711
0.100781	1.630413
0.100879	1.631152
0.100977	1.631979
0.101074	1.632668
0.101172	1.633343
0.101270	1.633854
0.101367	1.633995
0.101465	1.634078
0.101562	1.633768
0.101660	1.633472
0.101758	1.633040
0.101855	1.632372
0.101953	1.631657
0.102051	1.630960
0.102148	1.630267
0.102246	1.629590
0.102344	1.629025
0.102441	1.628448
0.102539	1.628195
0.102637	1.627890
0.102734	1.627962
0.102832	1.628210
0.102930	1.628687
0.103027	1.629192
0.103125	1.629992
0.103223	1.630705
0.103320	1.631536
0.103418	1.632281
0.103516	1.633033
0.103613	1.633675
0.103711	1.634063
0.103809	1.634279
0.103906	1.634433
0.104004	1.634204
0.104102	1.633925
0.104199	1.633330
0.104297	1.632592
0.104395	1.631775
0.104492	1.630891
0.104590	1.629976
0.104687	1.629271
0.104785	1.628535
0.104883	1.627979
0.104980	1.627656
0.105078	1.627527
0.105176	1.627622
0.105273	1.628038
0.105371	1.628521
0.105469	1.629185
0.105566	1.629935
0.105664	1.630708
0.105762	1.631509
0.105859	1.632046
0.105957	1.632754
0.106055	1.633063
0.106152	1.633347
0.106250	1.633369
0.106348	1.633127
0.106445	1.632714
0.106543	1.632225
0.106641	1.631553
0.106738	1.630827
0.106836	1.630028
0.106934	1.629357
0.107031	1.628575
0.107129	1.627939
0.107227	1.627557
0.107324	1.627198
0.107422	1.627211
0.107520	1.627351
0.107617	1.627561
0.107715	1.628141
0.107812	1.628765
0.107910	1.629502
0.108008	1.630422
0.108105	1.631273
0.108203	1.631981
0.108301	1.632726
0.108398	1.633297
0.108496	1.633682
0.108594	1.633949
0.108691	1.633944
0.108789	1.633890
0.108887	1.633650
0.108984	1.633255
0.109082	1.632655
0.109180	1.631950
0.109277	1.631157
0.109375	1.630351
0.109473	1.629605
0.109570	1.628881
0.109668	1.628349
0.109766	1.628000
0.109863	1.627716
0.109961	1.627817
0.110059	1.628108
0.110156	1.628506
0.110254	1.629230
0.110352	1.629990
0.110449	1.630864
0.110547	1.631630
0.110645	1.632353
0.110742	1.632905
0.110840	1.633435
0.110937	1.633661
0.111035	1.633759
0.111133	1.633651
0.111230	1.633347
0.111328	1.632947
0.111426	1.632282
0.111523	1.631525
0.111621	1.630783
0.111719	1.629960
0.111816	1.629308
0.111914	1.628587
0.112012	1.628137
0.112109	1.627833
0.112207	1.627569
0.112305	1.627616
0.112402	1.627841
0.112500	1.628210
0.112598	1.628765
0.112695	1.629340
0.112793	1.630199
0.112891	1.631041
0.112988	1.631769
0.113086	1.632511
0.113184	1.632951
0.113281	1.633242
0.113379	1.633360
0.113477	1.633222
0.113574	1.633082
0.113672	1.632570
0.113770	1.632098
0.113867	1.631495
0.113965	1.630941
0.114062	1.630322
0.114160	1.629710
0.114258	1.629222
0.114355	1.628750
0.114453	1.628500
0.114551	1.628313
0.114648	1.628353
0.114746	1.628602
0.114844	1.628847
0.114941	1.629449
0.115039	1.630102
0.115137	1.630809
0.115234	1.631552
0.115332	1.632334
0.115430	1.632919
0.115527	1.633660
0.115625	1.634044
0.115723	1.634283
0.115820	1.634312
0.115918	1.634151
0.116016	1.633782
0.116113	1.633368
0.116211	1.632734
0.116309	1.632025
0.116406	1.631251
0.116504	1.630479
0.116602	1.629615
0.116699	1.628948
0.116797	1.628438
0.116895	1.628087
0.116992	1.627882
0.117090	1.627932
0.117187	1.628197
0.117285	1.628554
0.117383	1.629138
0.117480	1.629850
0.117578	1.630625
0.117676	1.631429
0.117773	1.632244
0.117871	1.632993
0.117969	1.633507
0.118066	1.633998
0.118164	1.634198
0.118262	1.634290
0.118359	1.634191
0.118457	1.633917
0.118555	1.633418
0.118652	1.632874
0.118750	1.632178
0.118848	1.631470
0.118945	1.630780
0.119043	1.630107
0.119141	1.629513
0.119238	1.629095
0.119336	1.628674
0.119434	1.628581
0.119531	1.628621
0.119629	1.628803
0.119727	1.629177
0.119824	1.629618
0.119922	1.630268
0.120020	1.630914
0.120117	1.631556
0.120215	1.632274
0.120312	1.632849
0.120410	1.633249
0.120508	1.633556
0.120605	1.633602
0.120703	1.633573
0.120801	1.633354
0.120898	1.633035
0.120996	1.632589
0.121094	1.632093
0.121191	1.631515
0.121289	1.630882
0.121387	1.630312
0.121484	1.629750
0.121582	1.629309
0.121680	1.628928
0.121777	1.628702
0.121875	1.628695
0.121973	1.628790
0.122070	1.629115
0.122168	1.629472
0.122266	1.630100
0.122363	1.630871
0.122461	1.631516
0.122559	1.632245
0.122656	1.632738
0.122754	1.633287
0.122852	1.633656
0.122949	1.634000
0.123047	1.634080
0.123145	1.633889
0.123242	1.633585
0.123340	1.633017
0.123437	1.632437
0.123535	1.631750
0.123633	1.630997
0.123730	1.630199
0.123828	1.629460
0.123926	1.628872
0.124023	1.628353
0.124121	1.628061
0.124219	1.627931
0.124316	1.628142
0.124414	1.628422
0.124512	1.628879
0.124609	1.629563
0.124707	1.630311
0.124805	1.631128
0.124902	1.632105
0.125000	1.632713
0.125098	1.633432
0.125195	1.633865
0.125293	1.634129
0.125391	1.634151
0.125488	1.633914
0.125586	1.633585
0.125684	1.633121
0.125781	1.632512
0.125879	1.631833
0.125977	1.631042
0.126074	1.630313
0.126172	1.629611
0.126270	1.628928
0.126367	1.628535
0.126465	1.628140
0.126562	1.628015
0.126660	1.628108
0.126758	1.628446
0.126855	1.628903
0.126953	1.629477
0.127051	1.630235
0.127148	1.630933
0.127246	1.631761
0.127344	1.632565
0.127441	1.633179
0.127539	1.633689
0.127637	1.634122
0.127734	1.634362
0.127832	1.634367
0.127930	1.634296
0.128027	1.633980
0.128125	1.633681
0.128223	1.633076
0.128320	1.632422
0.128418	1.631699
0.128516	1.630968
0.128613	1.630170
0.128711	1.629477
0.128809	1.628906
0.128906	1.628403
0.129004	1.628078
0.129102	1.628091
0.129199	1.628201
0.129297	1.628577
0.129395	1.629248
0.129492	1.629955
0.129590	1.630808
0.129687	1.631734
0.129785	1.632558
0.129883	1.633299
0.129980	1.633973
0.130078	1.634433
0.130176	1.634781
0.130273	1.634861
0.130371	1.634739
0.130469	1.634378
0.130566	1.633798
0.130664	1.633168
0.130762	1.632245
0.130859	1.631350
0.130957	1.630605
0.131055	1.629789
0.131152	1.629032
0.131250	1.628527
0.131348	1.628164
0.131445	1.628133
0.131543	1.628231
0.131641	1.628597
0.131738	1.629035
0.131836	1.629718
0.131934	1.630477
0.132031	1.631259
0.132129	1.632021
0.132227	1.632854
0.132324	1.633491
0.132422	1.633957
0.132520	1.634293
0.132617	1.634305
0.132715	1.634169
0.132812	1.634015
0.132910	1.633794
0.133008	1.633250
0.133105	1.632568
0.133203	1.631965
0.133301	1.631217
0.133398	1.630568
0.133496	1.629828
0.133594	1.629369
0.133691	1.628996
0.133789	1.628842
0.133887	1.628856
0.133984	1.629062
0.134082	1.629465
0.134180	1.630055
0.134277	1.630772
0.134375	1.631586
0.134473	1.632401
0.134570	1.633299
0.134668	1.634146
0.134766	1.634715
0.134863	1.635215
0.134961	1.635464
0.135059	1.635419
0.135156	1.635245
0.135254	1.634771
0.135352	1.634155
0.135449	1.633341
0.135547	1.632370
0.135645	1.631437
0.135742	1.630507
0.135840	1.629689
0.135937	1.628969
0.136035	1.628517
0.136133	1.628153
0.136230	1.628197
0.136328	1.628360
0.136426	1.628741
0.136523	1.629173
0.136621	1.629875
0.136719	1.630629
0.136816	1.631387
0.136914	1.632148
0.137012	1.632701
0.137109	1.633310
0.137207	1.633603
0.137305	1.633903
0.137402	1.633829
0.137500	1.633706
0.137598	1.633401
0.137695	1.632982
0.137793	1.632452
0.137891	1.631882
0.137988	1.631217
0.138086	1.630579
0.138184	1.629987
0.138281	1.629449
0.138379	1.629103
0.138477	1.628625
0.138574	1.628564
0.138672	1.628694
0.138770	1.628982
0.138867	1.629533
0.138965	1.630094
0.139062	1.630915
0.139160	1.631767
0.139258	1.632621
0.139355	1.633352
0.139453	1.634044
0.139551	1.634687
0.139648	1.634955
0.139746	1.635148
0.139844	1.634962
0.139941	1.634728
0.140039	1.634233
0.140137	1.633620
0.140234	1.632921
0.140332	1.632170
0.140430	1.631484
0.140527	1.630661
0.140625	1.630002
0.140723	1.629462
0.140820	1.629050
0.140918	1.628853
0.141016	1.628872
0.141113	1.628973
0.141211	1.629417
0.141309	1.629868
0.141406	1.630684
0.141504	1.631389
0.141602	1.632143
0.141699	1.632799
0.141797	1.633468
0.141895	1.633885
0.141992	1.634239
0.142090	1.634266
0.142187	1.634181
0.142285	1.633745
0.142383	1.633264
0.142480	1.632635
0.142578	1.631757
0.142676	1.630959
0.142773	1.630127
0.142871	1.629571
0.142969	1.628926
0.143066	1.628519
0.143164	1.628209
0.143262	1.628121
0.143359	1.628284
0.143457	1.628559
0.143555	1.628987
0.143652	1.629599
0.143750	1.630282
0.143848	1.631019
0.143945	1.631888
0.144043	1.632561
0.144141	1.633208
0.144238	1.633699
0.144336	1.634108
0.144434	1.634354
0.144531	1.634301
0.144629	1.634230
0.144727	1.633871
0.144824	1.633436
0.144922	1.632857
0.145020	1.632272
0.145117	1.631568
0.145215	1.630988
0.145312	1.630356
0.145410	1.629827
0.145508	1.629417
0.145605	1.629026
0.145703	1.628932
0.145801	1.629000
0.145898	1.629210
0.145996	1.629553
0.146094	1.630115
0.146191	1.630830
0.146289	1.631672
0.146387	1.632420
0.146484	1.633292
0.146582	1.633964
0.146680	1.634642
0.146777	1.635105
0.146875	1.635376
0.146973	1.635295
0.147070	1.635175
0.147168	1.634770
0.147266	1.634119
0.147363	1.633385
0.147461	1.632569
0.147559	1.631647
0.147656	1.630769
0.147754	1.629988
0.147852	1.629244
0.147949	1.628745
0.148047	1.628451
0.148145	1.628313
0.148242	1.628392
0.148340	1.628654
0.148437	1.629248
0.148535	1.629866
0.148633	1.630694
0.148730	1.631405
0.148828	1.632258
0.148926	1.633048
0.149023	1.633795
0.149121	1.634313
0.149219	1.634647
0.149316	1.634901
0.149414	1.634777
0.149512	1.634505
0.149609	1.634081
0.149707	1.633379
0.149805	1.632598
0.149902	1.631635
0.150000	1.630851
0.150098	1.630049
0.150195	1.629344
0.150293	1.628843
0.150391	1.628451
0.150488	1.628464
0.150586	1.628403
0.150684	1.628753
0.150781	1.629188
0.150879	1.629762
0.150977	1.630535
0.151074	1.631256
0.151172	1.631988
0.151270	1.632752
0.151367	1.633451
0.151465	1.633884
0.151562	1.634219
0.151660	1.634342
0.151758	1.634357
0.151855	1.634113
0.151953	1.633784
0.152051	1.633294
0.152148	1.632641
0.152246	1.631967
0.152344	1.631185
0.152441	1.630402
0.152539	1.629624
0.152637	1.628973
0.152734	1.628557
0.152832	1.628269
0.152930	1.628355
0.153027	1.628544
0.153125	1.628878
0.153223	1.629381
0.153320	1.630141
0.153418	1.630882
0.153516	1.631630
0.153613	1.632414
0.153711	1.633124
0.153809	1.633759
0.153906	1.634205
0.154004	1.634445
0.154102	1.634471
0.154199	1.634275
0.154297	1.633829
0.154395	1.633374
0.154492	1.632727
0.154590	1.632007
0.154687	1.631219
0.154785	1.630550
0.154883	1.629822
0.154980	1.629241
0.155078	1.628901
0.155176	1.628661
0.155273	1.628693
0.155371	1.628885
0.155469	1.629412
0.155566	1.629977
0.155664	1.630854
0.155762	1.631696
0.155859	1.632548
0.155957	1.633602
0.156055	1.634416
0.156152	1.635031
0.156250	1.635513
0.156348	1.635547
0.156445	1.635343
0.156543	1.634941
0.156641	1.634399
0.156738	1.633778
0.156836	1.633014
0.156934	1.632250
0.157031	1.631552
0.157129	1.630934
0.157227	1.630310
0.157324	1.629790
0.157422	1.629313
0.157520	1.629052
0.157617	1.628814
0.157715	1.628893
0.157812	1.628995
0.157910	1.629213
0.158008	1.629658
0.158105	1.630318
0.158203	1.630980
0.158301	1.631672
0.158398	1.632345
0.158496	1.632976
0.158594	1.633380
0.158691	1.633902
0.158789	1.634085
0.158887	1.634204
0.158984	1.634014
0.159082	1.633836
0.159180	1.633413
0.159277	1.632863
0.159375	1.632161
0.159473	1.631576
0.159570	1.630861
0.159668	1.630262
0.159766	1.629688
0.159863	1.629219
0.159961	1.629004
0.160059	1.628834
0.160156	1.628918
0.160254	1.629289
0.160352	1.629836
0.160449	1.630534
0.160547	1.631310
0.160645	1.632136
0.160742	1.632988
0.160840	1.633660
0.160937	1.634398
0.161035	1.634889
0.161133	1.635241
0.161230	1.635387
0.161328	1.635256
0.161426	1.634991
0.161523	1.634507
0.161621	1.633869
0.161719	1.633062
0.161816	1.632275
0.161914	1.631583
0.162012	1.630772
0.162109	1.630182
0.162207	1.629545
0.162305	1.629188
0.162402	1.628943
0.162500	1.628819
0.162598	1.628962
0.162695	1.629125
0.162793	1.629537
0.162891	1.630227
0.162988	1.630852
0.163086	1.631519
0.163184	1.632126
0.163281	1.632806
0.163379	1.633349
0.163477	1.633782
0.163574	1.634027
0.163672	1.634078
0.163770	1.633878
0.163867	1.633527
0.163965	1.632956
0.164062	1.632224
0.164160	1.631403
0.164258	1.630695
0.164355	1.629763
0.164453	1.629089
0.164551	1.628356
0.164648	1.628000
0.164746	1.627660
0.164844	1.627632
0.164941	1.627774
0.165039	1.628081
0.165137	1.628512
0.165234	1.629234
0.165332	1.629950
0.165430	1.630647
0.165527	1.631550
0.165625	1.632259
0.165723	1.632976
0.165820	1.633462
0.165918	1.633925
0.166016	1.634089
0.166113	1.634201
0.166211	1.634089
0.166309	1.633847
0.166406	1.633466
0.166504	1.632878
0.166602	1.632122
0.166699	1.631469
0.166797	1.630795
0.166895	1.630089
0.166992	1.629517
0.167090	1.629153
0.167187	1.628875
0.167285	1.628844
0.167383	1.628982
0.167480	1.629310
0.167578	1.629853
0.167676	1.630522
0.167773	1.631271
0.167871	1.631946
0.167969	1.632723
0.168066	1.633324
0.168164	1.633764
0.168262	1.634102
0.168359	1.634233
0.168457	1.634097
0.168555	1.633849
0.168652	1.633485
0.168750	1.632812
0.168848	1.632148
0.168945	1.631354
0.169043	1.630650
0.169141	1.629933
0.169238	1.629267
0.169336	1.628780
0.169434	1.628522
0.169531	1.628272
0.169629	1.628350
0.169727	1.628451
0.169824	1.628920
0.169922	1.629461
0.170020	1.630119
0.170117	1.630738
0.170215	1.631558
0.170312	1.632338
0.170410	1.632948
0.170508	1.633559
0.170605	1.633947
0.170703	1.634200
0.170801	1.634262
0.170898	1.634170
0.170996	1.633978
0.171094	1.633559
0.171191	1.633022
0.171289	1.632362
0.171387	1.631675
0.171484	1.630964
0.171582	1.630272
0.171680	1.629706
0.171777	1.629252
0.171875	1.628960
0.171973	1.628840
0.172070	1.628873
0.172168	1.629280
0.172266	1.629688
0.172363	1.630295
0.172461	1.631050
0.172559	1.631759
0.172656	1.632449
0.172754	1.633042
0.172852	1.633667
0.172949	1.634122
0.173047	1.634260
0.173145	1.634246
0.173242	1.633999
0.173340	1.633576
0.173437	1.633036
0.173535	1.632382
0.173633	1.631713
0.173730	1.630958
0.173828	1.630169
0.173926	1.629575
0.174023	1.628887
0.174121	1.628397
0.174219	1.628025
0.174316	1.627911
0.174414	1.627973
0.174512	1.628369
0.174609	1.628823
0.174707	1.629528
0.174805	1.630360
0.174902	1.631160
0.175000	1.631912
0.175098	1.632678
0.175195	1.633337
0.175293	1.633759
0.175391	1.634069
0.175488	1.633968
0.175586	1.633832
0.175684	1.633470
0.175781	1.632998
0.175879	1.632327
0.175977	1.631692
0.176074	1.630879
0.176172	1.630122
0.176270	1.629320
0.176367	1.628719
0.176465	1.628112
0.176562	1.627719
0.176660	1.627380
0.176758	1.627350
0.176855	1.627409
0.176953	1.627816
0.177051	1.628427
0.177148	1.629084
0.177246	1.629870
0.177344	1.630744
0.177441	1.631543
0.177539	1.632371
0.177637	1.632994
0.177734	1.633513
0.177832	1.633830
0.177930	1.634002
0.178027	1.633999
0.178125	1.633768
0.178223	1.633405
0.178320	1.632909
0.178418	1.632244
0.178516	1.631547
0.178613	1.630886
0.178711	1.630295
0.178809	1.629588
0.178906	1.629151
0.179004	1.628717
0.179102	1.628494
0.179199	1.628374
0.179297	1.628510
0.179395	1.628835
0.179492	1.629265
0.179590	1.629840
0.179687	1.630587
0.179785	1.631173
0.179883	1.631923
0.179980	1.632527
0.180078	1.632951
0.180176	1.633286
0.180273	1.633471
0.180371	1.633435
0.180469	1.633218
0.180566	1.632759
0.180664	1.632225
0.180762	1.631553
0.180859	1.630981
0.180957	1.630423
0.181055	1.629721
0.181152	1.629203
0.181250	1.628749
0.181348	1.628398
0.181445	1.628181
0.181543	1.628142
0.181641	1.628278
0.181738	1.628623
0.181836	1.628995
0.181934	1.629674
0.182031	1.630337
0.182129	1.631128
0.182227	1.631893
0.182324	1.632719
0.182422	1.633382
0.182520	1.633936
0.182617	1.634294
0.182715	1.634234
0.182812	1.634269
0.182910	1.633974
0.183008	1.633465
0.183105	1.632719
0.183203	1.631886
0.183301	1.631052
0.183398	1.630208
0.183496	1.629431
0.183594	1.628720
0.183691	1.628146
0.183789	1.627803
0.183887	1.627556
0.183984	1.627625
0.184082	1.627719
0.184180	1.628283
0.184277	1.628788
0.184375	1.629495
0.184473	1.630183
0.184570	1.631069
0.184668	1.631804
0.184766	1.632426
0.184863	1.633001
0.184961	1.633483
0.185059	1.633686
0.185156	1.633693
0.185254	1.633584
0.185352	1.633294
0.185449	1.632876
0.185547	1.632189
0.185645	1.631579
0.185742	1.630941
0.185840	1.630141
0.185937	1.629557
0.186035	1.628898
0.186133	1.628407
0.186230	1.628120
0.186328	1.627823
0.186426	1.627892
0.186523	1.628091
0.186621	1.628592
0.186719	1.629120
0.186816	1.629851
0.186914	1.630607
0.187012	1.631418
0.187109	1.632159
0.187207	1.632797
0.187305	1.633408
0.187402	1.633798
0.187500	1.634086
0.187598	1.634121
0.187695	1.633947
0.187793	1.633638
0.187891	1.633166
0.187988	1.632601
0.188086	1.631960
0.188184	1.631170
0.188281	1.630449
0.188379	1.629713
0.188477	1.629067
0.188574	1.628521
0.188672	1.628058
0.188770	1.627926
0.188867	1.627867
0.188965	1.628148
0.189062	1.628511
0.189160	1.629078
0.189258	1.629756
0.189355	1.630509
0.189453	1.631384
0.189551	1.632066
0.189648	1.632690
0.189746	1.633266
0.189844	1.633543
0.189941	1.633723
0.190039	1.633579
0.190137	1.633332
0.190234	1.632977
0.190332	1.632350
0.190430	1.631668
0.190527	1.630896
0.190625	1.630046
0.190723	1.629350
0.190820	1.628630
0.190918	1.628070
0.191016	1.627743
0.191113	1.627594
0.191211	1.627582
0.191309	1.627802
0.191406	1.628184
0.191504	1.628804
0.191602	1.629446
0.191699	1.630318
0.191797	1.631109
0.191895	1.631901
0.191992	1.632666
0.192090	1.633129
0.192187	1.633549
0.192285	1.633739
0.192383	1.633727
0.192480	1.633569
0.192578	1.633151
0.192676	1.632579
0.192773	1.632049
0.192871	1.631482
0.192969	1.630727
0.193066	1.630027
0.193164	1.629413
0.193262	1.628884
0.193359	1.628501
0.193457	1.628145
0.193555	1.628176
0.193652	1.628186
0.193750	1.628531
0.193848	1.628909
0.193945	1.629468
0.194043	1.630232
0.194141	1.630967
0.194238	1.631839
0.194336	1.632566
0.194434	1.633208
0.194531	1.633707
0.194629	1.634019
0.194727	1.634242
0.194824	1.634235
0.194922	1.634143
0.195020	1.633733
0.195117	1.633338
0.195215	1.632667
0.195312	1.632009
0.195410	1.631223
0.195508	1.630492
0.195605	1.629781
0.195703	1.629195
0.195801	1.628800
0.195898	1.628592
0.195996	1.628522
0.196094	1.628699
0.196191	1.628995
0.196289	1.629532
0.196387	1.630142
0.196484	1.630864
0.196582	1.631689
0.196680	1.632430
0.196777	1.633073
0.196875	1.633652
0.196973	1.633967
0.197070	1.634183
0.197168	1.634293
0.197266	1.634138
0.197363	1.633666
0.197461	1.633135
0.197559	1.632414
0.197656	1.631605
0.197754	1.630717
0.197852	1.629883
0.197949	1.629025
0.198047	1.628443
0.198145	1.627827
0.198242	1.627556
0.198340	1.627502
0.198437	1.627588
0.198535	1.627798
0.198633	1.628330
0.198730	1.629077
0.198828	1.629867
0.198926	1.630636
0.199023	1.631467
0.199121	1.632253
0.199219	1.632965
0.199316	1.633429
0.199414	1.633887
0.199512	1.634080
0.199609	1.634088
0.199707	1.633862
0.199805	1.633447
0.199902	1.632860
0.200000	1.632222
0.200098	1.631436
0.200195	1.630662
0.200293	1.629899
0.200391	1.629325
0.200488	1.628695
0.200586	1.628311
0.200684	1.628023
0.200781	1.627922
0.200879	1.628178
0.200977	1.628519
0.201074	1.629078
0.201172	1.629692
0.201270	1.630565
0.201367	1.631213
0.201465	1.632022
0.201562	1.632552
0.201660	1.633152
0.201758	1.633402
0.201855	1.633558
0.201953	1.633444
0.202051	1.633182
0.202148	1.632702
0.202246	1.632109
0.202344	1.631494
0.202441	1.630747
0.202539	1.630100
0.202637	1.629384
0.202734	1.628693
0.202832	1.628272
0.202930	1.628068
0.203027	1.627860
0.203125	1.627948
0.203223	1.628087
0.203320	1.628518
0.203418	1.628967
0.203516	1.629543
0.203613	1.630288
0.203711	1.631010
0.203809	1.631737
0.203906	1.632367
0.204004	1.632998
0.204102	1.633292
0.204199	1.633444
0.204297	1.633469
0.204395	1.633222
0.204492	1.632872
0.204590	1.632488
0.204687	1.631994
0.204785	1.631364
0.204883	1.630827
0.204980	1.630279
0.205078	1.629805
0.205176	1.629340
0.205273	1.629033
0.205371	1.628865
0.205469	1.628770
0.205566	1.628969
0.205664	1.629098
0.205762	1.629567
0.205859	1.630202
0.205957	1.630841
0.206055	1.631606
0.206152	1.632458
0.206250	1.633291
0.206348	1.633925
0.206445	1.634461
0.206543	1.634806
0.206641	1.634979
0.206738	1.634965
0.206836	1.634661
0.206934	1.634227
0.207031	1.633568
0.207129	1.632932
0.207227	1.632053
0.207324	1.631145
0.207422	1.630207
0.207520	1.629390
0.207617	1.628626
0.207715	1.628093
0.207812	1.627765
0.207910	1.627521
0.208008	1.627624
0.208105	1.628068
0.208203	1.628468
0.208301	1.629191
0.208398	1.630135
0.208496	1.630883
0.208594	1.631834
0.208691	1.632707
0.208789	1.633383
0.208887	1.633914
0.208984	1.634198
0.209082	1.634369
0.209180	1.634241
0.209277	1.633889
0.209375	1.633309
0.209473	1.632663
0.209570	1.631818
0.209668	1.631033
0.209766	1.630166
0.209863	1.629376
0.209961	1.628719
0.210059	1.628228
0.210156	1.627932
0.210254	1.627923
0.210352	1.628039
0.210449	1.628487
0.210547	1.628913
0.210645	1.629608
0.210742	1.630338
0.210840	1.631159
0.210937	1.632050
0.211035	1.632685
0.211133	1.633472
0.211230	1.633915
0.211328	1.634158
0.211426	1.634253
0.211523	1.634145
0.211621	1.633693
0.211719	1.633211
0.211816	1.632565
0.211914	1.631869
0.212012	1.631056
0.212109	1.630321
0.212207	1.629606
0.212305	1.629070
0.212402	1.628581
0.212500	1.628275
0.212598	1.628165
0.212695	1.628187
0.212793	1.628477
0.212891	1.628936
0.212988	1.629546
0.213086	1.630215
0.213184	1.630911
0.213281	1.631719
0.213379	1.632484
0.213477	1.633282
0.213574	1.633774
0.213672	1.634226
0.213770	1.634450
0.213867	1.634606
0.213965	1.634393
0.214062	1.634156
0.214160	1.633574
0.214258	1.632888
0.214355	1.632125
0.214453	1.631186
0.214551	1.630385
0.214648	1.629540
0.214746	1.628918
0.214844	1.628267
0.214941	1.627942
0.215039	1.627727
0.215137	1.627752
0.215234	1.627934
0.215332	1.628405
0.215430	1.629069
0.215527	1.629790
0.215625	1.630651
0.215723	1.631534
0.215820	1.632458
0.215918	1.633146
0.216016	1.633762
0.216113	1.634313
0.216211	1.634529
0.216309	1.634566
0.216406	1.634362
0.216504	1.634016
0.216602	1.633435
0.216699	1.632774
0.216797	1.631998
0.216895	1.631147
0.216992	1.630367
0.217090	1.629598
0.217187	1.628943
0.217285	1.628372
0.217383	1.628050
0.217480	1.627848
0.217578	1.627971
0.217676	1.628141
0.217773	1.628653
0.217871	1.629256
0.217969	1.629884
0.218066	1.630720
0.218164	1.631447
0.218262	1.632225
0.218359	1.632716
0.218457	1.633274
0.218555	1.633642
0.218652	1.633844
0.218750	1.633908
0.218848	1.633809
0.218945	1.633684
0.219043	1.633294
0.219141	1.632771
0.219238	1.632181
0.219336	1.631454
0.219434	1.630709
0.219531	1.630091
0.219629	1.629463
0.219727	1.629084
0.219824	1.628764
0.219922	1.628660
0.220020	1.628700
0.220117	1.628911
0.220215	1.629438
0.220312	1.629964
0.220410	1.630704
0.220508	1.631357
0.220605	1.632156
0.220703	1.632756
0.220801	1.633563
0.220898	1.633989
0.220996	1.634283
0.221094	1.634604
0.221191	1.634525
0.221289	1.634290
0.221387	1.633807
0.221484	1.633213
0.221582	1.632471
0.221680	1.631643
0.221777	1.630848
0.221875	1.630017
0.221973	1.629343
0.222070	1.628777
0.222168	1.628389
0.222266	1.628316
0.222363	1.628392
0.222461	1.628654
0.222559	1.629072
0.222656	1.629525
0.222754	1.630224
0.222852	1.631018
0.222949	1.631771
0.223047	1.632531
0.223145	1.633048
0.223242	1.633494
0.223340	1.633681
0.223437	1.633866
0.223535	1.633727
0.223633	1.633437
0.223730	1.633124
0.223828	1.632475
0.223926	1.631974
0.224023	1.631197
0.224121	1.630596
0.224219	1.629876
0.224316	1.629270
0.224414	1.628835
0.224512	1.628480
0.224609	1.628263
0.224707	1.628307
0.224805	1.628518
0.224902	1.628963
0.225000	1.629413
0.225098	1.630000
0.225195	1.630683
0.225293	1.631434
0.225391	1.632098
0.225488	1.632702
0.225586	1.633339
0.225684	1.633746
0.225781	1.633988
0.225879	1.634072
0.225977	1.633973
0.226074	1.633635
0.226172	1.633260
0.226270	1.632654
0.226367	1.632181
0.226465	1.631443
0.226562	1.630886
0.226660	1.630346
0.226758	1.629841
0.226855	1.629483
0.226953	1.629197
0.227051	1.629181
0.227148	1.629238
0.227246	1.629550
0.227344	1.629924
0.227441	1.630554
0.227539	1.631206
0.227637	1.631934
0.227734	1.632724
0.227832	1.633359
0.227930	1.634168
0.228027	1.634610
0.228125	1.635021
0.228223	1.635236
0.228320	1.635093
0.228418	1.634933
0.228516	1.634487
0.228613	1.633908
0.228711	1.633156
0.228809	1.632312
0.228906	1.631456
0.229004	1.630587
0.229102	1.629833
0.229199	1.629216
0.229297	1.628717
0.229395	1.628349
0.229492	1.628241
0.229590	1.628433
0.229687	1.628731
0.229785	1.629252
0.229883	1.629765
0.229980	1.630594
0.230078	1.631325
0.230176	1.632176
0.230273	1.633045
0.230371	1.633634
0.230469	1.634186
0.230566	1.634485
0.230664	1.634598
0.230762	1.634416
0.230859	1.634175
0.230957	1.633701
0.231055	1.633198
0.231152	1.632480
0.231250	1.631702
0.231348	1.631013
0.231445	1.630210
0.231543	1.629626
0.231641	1.629142
0.231738	1.628678
0.231836	1.628713
0.231934	1.628835
0.232031	1.629080
0.232129	1.629614
0.232227	1.630144
0.232324	1.630929
0.232422	1.631679
0.232520	1.632333
0.232617	1.632995
0.232715	1.633438
0.232812	1.633974
0.232910	1.634241
0.233008	1.634258
0.233105	1.634218
0.233203	1.633841
0.233301	1.633479
0.233398	1.632974
0.233496	1.632378
0.233594	1.631707
0.233691	1.631088
0.233789	1.630419
0.233887	1.629933
0.233984	1.629502
0.234082	1.629269
0.234180	1.629165
0.234277	1.629304
0.234375	1.629627
0.234473	1.630046
0.234570	1.630745
0.234668	1.631474
0.234766	1.632273
0.234863	1.633019
0.234961	1.633642
0.235059	1.634260
0.235156	1.634614
0.235254	1.634806
0.235352	1.634692
0.235449	1.634512
0.235547	1.634110
0.235645	1.633574
0.235742	1.632865
0.235840	1.632112
0.235937	1.631254
0.236035	1.630524
0.236133	1.629794
0.236230	1.629130
0.236328	1.628584
0.236426	1.628346
0.236523	1.628237
0.236621	1.628345
0.236719	1.628706
0.236816	1.629194
0.236914	1.629869
0.237012	1.630558
0.237109	1.631361
0.237207	1.632228
0.237305	1.632814
0.237402	1.633509
0.237500	1.633919
0.237598	1.634178
0.237695	1.634213
0.237793	1.634130
0.237891	1.633813
0.237988	1.633260
0.238086	1.632609
0.238184	1.631964
0.238281	1.631216
0.238379	1.630405
0.238477	1.629725
0.238574	1.629228
0.238672	1.628728
0.238770	1.628346
0.238867	1.628198
0.238965	1.628148
0.239062	1.628440
0.239160	1.628815
0.239258	1.629225
0.239355	1.630000
0.239453	1.630711
0.239551	1.631579
0.239648	1.632497
0.239746	1.633106
0.239844	1.633855
0.239941	1.634468
0.240039	1.634908
0.240137	1.635110
0.240234	1.635217
0.240332	1.635259
0.240430	1.634933
0.240527	1.634586
0.240625	1.633964
0.240723	1.633192
0.240820	1.632395
0.240918	1.631475
0.241016	1.630603
0.241113	1.629902
0.241211	1.629069
0.241309	1.628446
0.241406	1.627978
0.241504	1.627815
0.241602	1.627972
0.241699	1.628230
0.241797	1.628729
0.241895	1.629534
0.241992	1.630374
0.242090	1.631112
0.242187	1.631976
0.242285	1.632565
0.242383	1.633282
0.242480	1.633530
0.242578	1.633896
0.242676	1.633728
0.242773	1.633689
0.242871	1.633452
0.242969	1.632975
0.243066	1.632391
0.243164	1.631627
0.243262	1.630821
0.243359	1.630164
0.243457	1.629543
0.243555	1.628984
0.243652	1.628681
0.243750	1.628458
0.243848	1.628489
0.243945	1.628727
0.244043	1.629164
0.244141	1.629675
0.244238	1.630412
0.244336	1.631159
0.244434	1.631960
0.244531	1.632690
0.244629	1.633338
0.244727	1.633939
0.244824	1.634352
0.244922	1.634546
0.245020	1.634555
0.245117	1.634409
0.245215	1.634196
0.245312	1.633701
0.245410	1.633042
0.245508	1.632324
0.245605	1.631548
0.245703	1.630705
0.245801	1.629878
0.245898	1.629266
0.245996	1.628641
0.246094	1.628376
0.246191	1.628265
0.246289	1.628396
0.246387	1.628679
0.246484	1.629241
0.246582	1.629851
0.246680	1.630747
0.246777	1.631464
0.246875	1.632257
0.246973	1.632943
0.247070	1.633424
0.247168	1.633893
0.247266	1.634136
0.247363	1.634124
0.247461	1.634077
0.247559	1.633820
0.247656	1.633339
0.247754	1.632954
0.247852	1.632330
0.247949	1.631715
0.248047	1.631039
0.248145	1.630472
0.248242	1.629975
0.248340	1.629586
0.248437	1.629333
0.248535	1.629246
0.248633	1.629350
0.248730	1.629571
0.248828	1.630144
0.248926	1.630723
0.249023	1.631500
0.249121	1.632264
0.249219	1.633141
0.249316	1.633890
0.249414	1.634496
0.249512	1.635013
0.249609	1.635401
0.249707	1.635523
0.249805	1.635469
0.249902	1.635125
0.250000	1.634759
0.250098	1.634139
0.250195	1.633483
0.250293	1.632721
0.250391	1.631835
0.250488	1.631154
0.250586	1.630381
0.250684	1.629679
0.250781	1.629164
0.250879	1.628892
0.250977	1.628793
0.251074	1.628965
0.251172	1.629282
0.251270	1.629888
0.251367	1.630565
0.251465	1.631320
0.251562	1.632116
0.251660	1.632928
0.251758	1.633518
0.251855	1.634174
0.251953	1.634535
0.252051	1.634802
0.252148	1.634881
0.252246	1.634756
0.252344	1.634451
0.252441	1.633973
0.252539	1.633443
0.252637	1.632605
0.252734	1.631783
0.252832	1.631129
0.252930	1.630428
0.253027	1.629723
0.253125	1.629128
0.253223	1.628846
0.253320	1.628740
0.253418	1.628898
0.253516	1.629180
0.253613	1.629767
0.253711	1.630470
0.253809	1.631308
0.253906	1.632156
0.254004	1.632975
0.254102	1.633743
0.254199	1.634422
0.254297	1.634890
0.254395	1.635262
0.254492	1.635239
0.254590	1.635303
0.254687	1.634985
0.254785	1.634529
0.254883	1.633925
0.254980	1.633144
0.255078	1.632375
0.255176	1.631633
0.255273	1.630786
0.255371	1.630146
0.255469	1.629501
0.255566	1.629039
0.255664	1.628768
0.255762	1.628743
0.255859	1.628929
0.255957	1.629304
0.256055	1.629928
0.256152	1.630509
0.256250	1.631287
0.256348	1.631952
0.256445	1.632582
0.256543	1.633208
0.256641	1.633627
0.256738	1.634028
0.256836	1.634020
0.256934	1.634056
0.257031	1.633663
0.257129	1.633275
0.257227	1.632698
0.257324	1.632006
0.257422	1.631376
0.257520	1.630579
0.257617	1.629986
0.257715	1.629358
0.257812	1.628912
0.257910	1.628673
0.258008	1.628526
0.258105	1.628677
0.258203	1.628866
0.258301	1.629384
0.258398	1.629961
0.258496	1.630686
0.258594	1.631616
0.258691	1.632424
0.258789	1.633280
0.258887	1.633991
0.258984	1.634626
0.259082	1.635080
0.259180	1.635329
0.259277	1.635421
0.259375	1.635157
0.259473	1.634818
0.259570	1.634199
0.259668	1.633477
0.259766	1.632660
0.259863	1.631665
0.259961	1.630814
0.260059	1.629999
0.260156	1.629183
0.260254	1.628713
0.260352	1.628309
0.260449	1.628215
0.260547	1.628267
0.260645	1.628540
0.260742	1.629020
0.260840	1.629624
0.260937	1.630438
0.261035	1.631285
0.261133	1.632166
0.261230	1.632973
0.261328	1.633687
0.261426	1.634290
0.261523	1.634530
0.261621	1.634684
0.261719	1.634482
0.261816	1.634180
0.261914	1.633652
0.262012	1.632864
0.262109	1.632222
0.262207	1.631447
0.262305	1.630753
0.262402	1.630085
0.262500	1.629443
0.262598	1.628948
0.262695	1.628457
0.262793	1.628280
0.262891	1.628277
0.262988	1.628477
0.263086	1.628769
0.263184	1.629227
0.263281	1.629753
0.263379	1.630471
0.263477	1.631228
0.263574	1.631993
0.263672	1.632695
0.263770	1.633300
0.263867	1.633856
0.263965	1.634215
0.264062	1.634400
0.264160	1.634462
0.264258	1.634364
0.264355	1.634003
0.264453	1.633734
0.264551	1.633219
0.264648	1.632577
0.264746	1.631934
0.264844	1.631253
0.264941	1.630552
0.265039	1.630010
0.265137	1.629491
0.265234	1.629224
0.265332	1.629044
0.265430	1.629095
0.265527	1.629443
0.265625	1.629814
0.265723	1.630518
0.265820	1.631091
0.265918	1.631844
0.266016	1.632507
0.266113	1.633062
0.266211	1.633535
0.266309	1.634005
0.266406	1.634168
0.266504	1.634215
0.266602	1.633992
0.266699	1.633664
0.266797	1.633187
0.266895	1.632586
0.266992	1.631780
0.267090	1.631176
0.267187	1.630460
0.267285	1.629747
0.267383	1.629299
0.267480	1.628912
0.267578	1.628758
0.267676	1.628822
0.267773	1.629149
0.267871	1.629531
0.267969	1.630133
0.268066	1.630897
0.268164	1.631597
0.268262	1.632470
0.268359	1.633208
0.268457	1.633926
0.268555	1.634391
0.268652	1.634774
0.268750	1.634921
0.268848	1.634838
0.268945	1.634681
0.269043	1.634249
0.269141	1.633770
0.269238	1.633179
0.269336	1.632482
0.269434	1.631735
0.269531	1.630930
0.269629	1.630257
0.269727	1.629565
0.269824	1.629081
0.269922	1.628687
0.270020	1.628524
0.270117	1.628565
0.270215	1.628839
0.270312	1.629344
0.270410	1.630041
0.270508	1.630702
0.270605	1.631559
0.270703	1.632256
0.270801	1.633099
0.270898	1.633677
0.270996	1.634172
0.271094	1.634606
0.271191	1.634763
0.271289	1.634641
0.271387	1.634366
0.271484	1.633965
0.271582	1.633361
0.271680	1.632735
0.271777	1.631945
0.271875	1.631116
0.271973	1.630466
0.272070	1.629791
0.272168	1.629184
0.272266	1.628773
0.272363	1.628435
0.272461	1.628419
0.272559	1.628612
0.272656	1.628933
0.272754	1.629475
0.272852	1.630290
0.272949	1.631016
0.273047	1.631778
0.273145	1.632433
0.273242	1.633049
0.273340	1.633537
0.273437	1.633781
0.273535	1.633898
0.273633	1.633850
0.273730	1.633535
0.273828	1.633242
0.273926	1.632633
0.274023	1.632004
0.274121	1.631340
0.274219	1.630567
0.274316	1.630025
0.274414	1.629459
0.274512	1.629091
0.274609	1.628862
0.274707	1.628749
0.274805	1.628804
0.274902	1.629107
0.275000	1.629640
0.275098	1.630167
0.275195	1.630903
0.275293	1.631796
0.275391	1.632608
0.275488	1.633366
0.275586	1.634087
0.275684	1.634637
0.275781	1.635003
0.275879	1.635196
0.275977	1.635222
0.276074	1.635042
0.276172	1.634729
0.276270	1.634111
0.276367	1.633406
0.276465	1.632683
0.276562	1.631802
0.276660	1.630863
0.276758	1.630182
0.276855	1.629489
0.276953	1.628949
0.277051	1.628604
0.277148	1.628447
0.277246	1.628482
0.277344	1.628729
0.277441	1.629222
0.277539	1.629804
0.277637	1.630473
0.277734	1.631175
0.277832	1.632035
0.277930	1.632665
0.278027	1.633255
0.278125	1.633723
0.278223	1.633972
0.278320	1.634008
0.278418	1.633970
0.278516	1.633700
0.278613	1.633349
0.278711	1.632788
0.278809	1.632198
0.278906	1.631582
0.279004	1.630933
0.279102	1.630229
0.279199	1.629658
0.279297	1.629237
0.279395	1.628906
0.279492	1.628774
0.279590	1.628745
0.279687	1.629000
0.279785	1.629252
0.279883	1.629858
0.279980	1.630467
0.280078	1.631277
0.280176	1.632062
0.280273	1.632818
0.280371	1.633553
0.280469	1.634197
0.280566	1.634573
0.280664	1.634744
0.280762	1.634811
0.280859	1.634550
0.280957	1.634309
0.281055	1.633789
0.281152	1.633150
0.281250	1.632396
0.281348	1.631526
0.281445	1.630714
0.281543	1.629991
0.281641	1.629294
0.281738	1.628770
0.281836	1.628414
0.281934	1.628227
0.282031	1.628314
0.282129	1.628496
0.282227	1.628926
0.282324	1.629465
0.282422	1.630202
0.282520	1.630901
0.282617	1.631685
0.282715	1.632325
0.282812	1.632912
0.282910	1.633527
0.283008	1.633786
0.283105	1.633901
0.283203	1.633846
0.283301	1.633654
0.283398	1.633188
0.283496	1.632665
0.283594	1.632023
0.283691	1.631437
0.283789	1.630645
0.283887	1.629955
0.283984	1.629315
0.284082	1.628779
0.284180	1.628341
0.284277	1.628151
0.284375	1.628065
0.284473	1.628184
0.284570	1.628598
0.284668	1.628996
0.284766	1.629662
0.284863	1.630337
0.284961	1.631105
0.285059	1.631893
0.285156	1.632657
0.285254	1.633273
0.285352	1.633737
0.285449	1.634064
0.285547	1.634177
0.285645	1.634114
0.285742	1.633964
0.285840	1.633593
0.285937	1.632930
0.286035	1.632159
0.286133	1.631415
0.286230	1.630567
0.286328	1.629784
0.286426	1.629151
0.286523	1.628554
0.286621	1.628247
0.286719	1.628149
0.286816	1.628313
0.286914	1.628603
0.287012	1.629182
0.287109	1.629849
0.287207	1.630622
0.287305	1.631552
0.287402	1.632452
0.287500	1.633206
0.287598	1.633882
0.287695	1.634424
0.287793	1.634649
0.287891	1.634645
0.287988	1.634502
0.288086	1.634198
0.288184	1.633750
0.288281	1.633221
0.288379	1.632550
0.288477	1.631933
0.288574	1.631161
0.288672	1.630460
0.288770	1.629831
0.288867	1.629236
0.288965	1.628713
0.289062	1.628477
0.289160	1.628330
0.289258	1.628547
0.289355	1.628834
0.289453	1.629401
0.289551	1.629978
0.289648	1.630708
0.289746	1.631362
0.289844	1.632102
0.289941	1.632730
0.290039	1.633231
0.290137	1.633477
0.290234	1.633631
0.290332	1.633604
0.290430	1.633429
0.290527	1.632975
0.290625	1.632475
0.290723	1.631776
0.290820	1.631052
0.290918	1.630467
0.291016	1.629726
0.291113	1.629266
0.291211	1.628738
0.291309	1.628465
0.291406	1.628305
0.291504	1.628370
0.291602	1.628601
0.291699	1.629007
0.291797	1.629628
0.291895	1.630384
0.291992	1.631159
0.292090	1.631892
0.292187	1.632709
0.292285	1.633289
0.292383	1.633902
0.292480	1.634213
0.292578	1.634403
0.292676	1.634285
0.292773	1.634212
0.292871	1.633890
0.292969	1.633419
0.293066	1.632904
0.293164	1.632162
0.293262	1.631499
0.293359	1.630631
0.293457	1.630039
0.293555	1.629349
0.293652	1.628890
0.293750	1.628598
0.293848	1.628445
0.293945	1.628413
0.294043	1.628639
0.294141	1.629095
0.294238	1.629597
0.294336	1.630349
0.294434	1.631076
0.294531	1.631772
0.294629	1.632551
0.294727	1.633233
0.294824	1.633701
0.294922	1.633917
0.295020	1.633976
0.295117	1.633771
0.295215	1.633447
0.295312	1.633003
0.295410	1.632331
0.295508	1.631694
0.295605	1.630928
0.295703	1.630223
0.295801	1.629527
0.295898	1.628983
0.295996	1.628493
0.296094	1.628186
0.296191	1.627969
0.296289	1.628214
0.296387	1.628405
0.296484	1.628892
0.296582	1.629549
0.296680	1.630226
0.296777	1.631027
0.296875	1.631705
0.296973	1.632482
0.297070	1.633125
0.297168	1.633606
0.297266	1.634035
0.297363	1.634246
0.297461	1.634240
0.297559	1.634151
0.297656	1.633864
0.297754	1.633413
0.297852	1.632898
0.297949	1.632131
0.298047	1.631444
0.298145	1.630678
0.298242	1.629868
0.298340	1.629136
0.298437	1.628536
0.298535	1.628161
0.298633	1.627858
0.298730	1.627818
0.298828	1.627913
0.298926	1.628356
0.299023	1.628898
0.299121	1.629626
0.299219	1.630427
0.299316	1.631347
0.299414	1.632199
0.299512	1.632920
0.299609	1.633523
0.299707	1.634033
0.299805	1.634180
0.299902	1.634343
0.300000	1.634224
0.300098	1.633853
0.300195	1.633632
0.300293	1.633043
0.300391	1.632416
0.300488	1.631751
0.300586	1.631018
0.300684	1.630210
0.300781	1.629631
0.300879	1.628845
0.300977	1.628448
0.301074	1.628056
0.301172	1.627834
0.301270	1.627912
0.301367	1.628173
0.301465	1.628640
0.301562	1.629241
0.301660	1.629977
0.301758	1.630780
0.301855	1.631613
0.301953	1.632310
0.302051	1.633080
0.302148	1.633527
0.302246	1.633975
0.302344	1.634124
0.302441	1.634016
0.302539	1.633764
0.302637	1.633242
0.302734	1.632645
0.302832	1.632035
0.302930	1.631400
0.303027	1.630567
0.303125	1.629861
0.303223	1.629103
0.303320	1.628596
0.303418	1.628147
0.303516	1.628014
0.303613	1.628006
0.303711	1.628333
0.303809	1.628624
0.303906	1.629345
0.304004	1.629975
0.304102	1.630866
0.304199	1.631613
0.304297	1.632399
0.304395	1.633023
0.304492	1.633529
0.304590	1.633845
0.304687	1.633950
0.304785	1.633962
0.304883	1.633570
0.304980	1.633231
0.305078	1.632658
0.305176	1.632095
0.305273	1.631469
0.305371	1.630742
0.305469	1.630104
0.305566	1.629441
0.305664	1.628995
0.305762	1.628604
0.305859	1.628430
0.305957	1.628423
0.306055	1.628584
0.306152	1.629076
0.306250	1.629477
0.306348	1.630102
0.306445	1.630815
0.306543	1.631442
0.306641	1.632145
0.306738	1.632701
0.306836	1.633162
0.306934	1.633392
0.307031	1.633469
0.307129	1.633412
0.307227	1.633197
0.307324	1.632723
0.307422	1.632233
0.307520	1.631576
0.307617	1.630884
0.307715	1.630118
0.307812	1.629412
0.307910	1.628746
0.308008	1.628269
0.308105	1.627873
0.308203	1.627711
0.308301	1.627713
0.308398	1.628061
0.308496	1.628489
0.308594	1.629053
0.308691	1.629896
0.308789	1.630722
0.308887	1.631577
0.308984	1.632369
0.309082	1.633123
0.309180	1.633819
0.309277	1.634152
0.309375	1.634387
0.309473	1.634451
0.309570	1.634194
0.309668	1.633773
0.309766	1.633233
0.309863	1.632435
0.309961	1.631671
0.310059	1.630753
0.310156	1.630118
0.310254	1.629404
0.310352	1.628882
0.310449	1.628547
0.310547	1.628331
0.310645	1.628397
0.310742	1.628491
0.310840	1.628995
0.310937	1.629549
0.311035	1.630205
0.311133	1.631044
0.311230	1.631884
0.311328	1.632660
0.311426	1.633424
0.311523	1.633925
0.311621	1.634379
0.311719	1.634609
0.311816	1.634547
0.311914	1.634343
0.312012	1.633828
0.312109	1.633258
0.312207	1.632543
0.312305	1.631662
0.312402	1.630918
0.312500	1.630108
0.312598	1.629377
0.312695	1.628682
0.312793	1.628253
0.312891	1.628149
0.312988	1.627970
0.313086	1.628169
0.313184	1.628521
0.313281	1.629048
0.313379	1.629747
0.313477	1.630489
0.313574	1.631348
0.313672	1.632161
0.313770	1.632893
0.313867	1.633510
0.313965	1.633998
0.314062	1.634165
0.314160	1.634353
0.314258	1.634132
0.314355	1.633737
0.314453	1.633197
0.314551	1.632622
0.314648	1.631764
0.314746	1.630998
0.314844	1.630175
0.314941	1.629441
0.315039	1.628663
0.315137	1.628075
0.315234	1.627781
0.315332	1.627548
0.315430	1.627652
0.315527	1.627960
0.315625	1.628429
0.315723	1.629120
0.315820	1.629941
0.315918	1.630666
0.316016	1.631608
0.316113	1.632392
0.316211	1.633145
0.316309	1.633690
0.316406	1.634049
0.316504	1.634135
0.316602	1.634136
0.316699	1.633890
0.316797	1.633436
0.316895	1.632928
0.316992	1.632276
0.317090	1.631724
0.317187	1.631123
0.317285	1.630487
0.317383	1.629875
0.317480	1.629403
0.317578	1.628923
0.317676	1.628723
0.317773	1.628643
0.317871	1.628828
0.317969	1.629050
0.318066	1.629432
0.318164	1.630145
0.318262	1.630816
0.318359	1.631624
0.318457	1.632271
0.318555	1.633116
0.318652	1.633656
0.318750	1.634163
0.318848	1.634600
0.318945	1.634703
0.319043	1.634739
0.319141	1.634458
0.319238	1.634133
0.319336	1.633592
0.319434	1.632893
0.319531	1.632110
0.319629	1.631241
0.319727	1.630448
0.319824	1.629616
0.319922	1.628988
0.320020	1.628506
0.320117	1.628297
0.320215	1.628261
0.320312	1.628593
0.320410	1.628990
0.320508	1.629522
0.320605	1.630213
0.320703	1.630993
0.320801	1.631696
0.320898	1.632521
0.320996	1.633260
0.321094	1.633755
0.321191	1.634111
0.321289	1.634285
0.321387	1.634279
0.321484	1.634031
0.321582	1.633682
0.321680	1.633088
0.321777	1.632333
0.321875	1.631517
0.321973	1.630673
0.322070	1.629693
0.322168	1.628918
0.322266	1.628339
0.322363	1.627895
0.322461	1.627623
0.322559	1.627552
0.322656	1.627680
0.322754	1.628062
0.322852	1.628746
0.322949	1.629443
0.323047	1.630299
0.323145	1.631227
0.323242	1.632067
0.323340	1.632835
0.323437	1.633598
0.323535	1.634045
0.323633	1.634429
0.323730	1.634537
0.323828	1.634423
0.323926	1.634109
0.324023	1.633607
0.324121	1.632939
0.324219	1.632186
0.324316	1.631290
0.324414	1.630450
0.324512	1.629550
0.324609	1.628917
0.324707	1.628199
0.324805	1.627864
0.324902	1.627666
0.325000	1.627634
0.325098	1.627902
0.325195	1.628375
0.325293	1.628856
0.325391	1.629637
0.325488	1.630343
0.325586	1.631065
0.325684	1.631827
0.325781	1.632530
0.325879	1.633033
0.325977	1.633291
0.326074	1.633457
0.326172	1.633505
0.326270	1.633390
0.326367	1.633055
0.326465	1.632707
0.326562	1.632061
0.326660	1.631544
0.326758	1.630936
0.326855	1.630329
0.326953	1.629618
0.327051	1.629210
0.327148	1.628816
0.327246	1.628504
0.327344	1.628414
0.327441	1.628530
0.327539	1.628924
0.327637	1.629321
0.327734	1.629907
0.327832	1.630597
0.327930	1.631394
0.328027	1.632119
0.328125	1.632791
0.328223	1.633327
0.328320	1.633809
0.328418	1.633998
0.328516	1.634066
0.328613	1.633920
0.328711	1.633666
0.328809	1.633232
0.328906	1.632676
0.329004	1.632083
0.329102	1.631361
0.329199	1.630735
0.329297	1.630111
0.329395	1.629638
0.329492	1.629254
0.329590	1.629061
0.329687	1.628991
0.329785	1.629052
0.329883	1.629235
0.329980	1.629765
0.330078	1.630213
0.330176	1.630894
0.330273	1.631671
0.330371	1.632530
0.330469	1.633236
0.330566	1.633954
0.330664	1.634312
0.330762	1.634684
0.330859	1.634769
0.330957	1.634619
0.331055	1.634338
0.331152	1.633779
0.331250	1.633068
0.331348	1.632373
0.331445	1.631549
0.331543	1.630767
0.331641	1.630004
0.331738	1.629409
0.331836	1.628839
0.331934	1.628423
0.332031	1.628241
0.332129	1.628161
0.332227	1.628478
0.332324	1.628995
0.332422	1.629469
0.332520	1.630284
0.332617	1.631007
0.332715	1.631856
0.332812	1.632816
0.332910	1.633601
0.333008	1.634212
0.333105	1.634695
0.333203	1.634900
0.333301	1.634888
0.333398	1.634697
0.333496	1.634326
0.333594	1.633778
0.333691	1.633144
0.333789	1.632390
0.333887	1.631654
0.333984	1.631019
0.334082	1.630309
0.334180	1.629747
0.334277	1.629385
0.334375	1.629088
0.334473	1.628989
0.334570	1.629235
0.334668	1.629440
0.334766	1.629923
0.334863	1.630520
0.334961	1.631231
0.335059	1.631848
0.335156	1.632547
0.335254	1.633059
0.335352	1.633678
0.335449	1.633990
0.335547	1.634175
0.335645	1.634224
0.335742	1.634072
0.335840	1.633854
0.335937	1.633538
0.336035	1.633098
0.336133	1.632374
0.336230	1.631837
0.336328	1.631091
0.336426	1.630398
0.336523	1.629687
0.336621	1.629134
0.336719	1.628728
0.336816	1.628463
0.336914	1.628505
0.337012	1.628687
0.337109	1.629124
0.337207	1.629718
0.337305	1.630367
0.337402	1.631076
0.337500	1.631833
0.337598	1.632512
0.337695	1.633129
0.337793	1.633685
0.337891	1.634100
0.337988	1.634221
0.338086	1.634157
0.338184	1.634064
0.338281	1.633660
0.338379	1.633126
0.338477	1.632532
0.338574	1.631699
0.338672	1.631129
0.338770	1.630462
0.338867	1.629855
0.338965	1.629336
0.339062	1.628974
0.339160	1.628814
0.339258	1.628848
0.339355	1.628954
0.339453	1.629252
0.339551	1.629842
0.339648	1.630556
0.339746	1.631394
0.339844	1.632136
0.339941	1.633103
0.340039	1.633781
0.340137	1.634515
0.340234	1.635057
0.340332	1.635337
0.340430	1.635461
0.340527	1.635212
0.340625	1.634778
0.340723	1.634172
0.340820	1.633574
0.340918	1.632743
0.341016	1.632114
0.341113	1.631297
0.341211	1.630532
0.341309	1.629920
0.341406	1.629293
0.341504	1.628875
0.341602	1.628586
0.341699	1.628559
0.341797	1.628634
0.341895	1.628940
0.341992	1.629513
0.342090	1.630107
0.342187	1.630882
0.342285	1.631682
0.342383	1.632500
0.342480	1.633225
0.342578	1.633899
0.342676	1.634310
0.342773	1.634541
0.342871	1.634744
0.342969	1.634689
0.343066	1.634280
0.343164	1.633792
0.343262	1.633217
0.343359	1.632451
0.343457	1.631653
0.343555	1.630865
0.343652	1.630122
0.343750	1.629410
0.343848	1.628829
0.343945	1.628486
0.344043	1.628309
0.344141	1.628514
0.344238	1.628690
0.344336	1.629139
0.344434	1.629718
0.344531	1.630466
0.344629	1.631325
0.344727	1.632123
0.344824	1.632884
0.344922	1.633593
0.345020	1.634223
0.345117	1.634678
0.345215	1.634934
0.345312	1.634926
0.345410	1.634807
0.345508	1.634501
0.345605	1.634097
0.345703	1.633424
0.345801	1.632708
0.345898	1.631970
0.345996	1.631296
0.346094	1.630486
0.346191	1.629928
0.346289	1.629424
0.346387	1.629154
0.346484	1.629020
0.346582	1.629109
0.346680	1.629452
0.346777	1.629912
0.346875	1.630509
0.346973	1.631089
0.347070	1.631796
0.347168	1.632395
0.347266	1.632979
0.347363	1.633433
0.347461	1.633820
0.347559	1.634014
0.347656	1.634091
0.347754	1.634029
0.347852	1.633754
0.347949	1.633424
0.348047	1.632894
0.348145	1.632342
0.348242	1.631699
0.348340	1.631102
0.348437	1.630496
0.348535	1.630008
0.348633	1.629679
0.348730	1.629522
0.348828	1.629562
0.348926	1.629701
0.349023	1.630047
0.349121	1.630681
0.349219	1.631218
0.349316	1.632090
0.349414	1.632831
0.349512	1.633582
0.349609	1.634328
0.349707	1.635000
0.349805	1.635404
0.349902	1.635617
0.350000	1.635746
0.350098	1.635506
0.350195	1.635111
0.350293	1.634550
0.350391	1.633851
0.350488	1.632981
0.350586	1.632065
0.350684	1.631184
0.350781	1.630367
0.350879	1.629673
0.350977	1.629213
0.351074	1.628866
0.351172	1.628784
0.351270	1.628789
0.351367	1.629182
0.351465	1.629659
0.351562	1.630331
0.351660	1.631108
0.351758	1.631876
0.351855	1.632706
0.351953	1.633420
0.352051	1.634090
0.352148	1.634658
0.352246	1.634885
0.352344	1.634908
0.352441	1.634788
0.352539	1.634410
0.352637	1.633782
0.352734	1.633044
0.352832	1.632384
0.352930	1.631688
0.353027	1.631036
0.353125	1.630343
0.353223	1.629779
0.353320	1.629349
0.353418	1.629237
0.353516	1.629109
0.353613	1.629167
0.353711	1.629542
0.353809	1.630025
0.353906	1.630646
0.354004	1.631394
0.354102	1.632129
0.354199	1.632950
0.354297	1.633617
0.354395	1.634251
0.354492	1.634539
0.354590	1.634837
0.354687	1.634778
0.354785	1.634588
0.354883	1.634252
0.354980	1.633781
0.355078	1.633203
0.355176	1.632532
0.355273	1.631890
0.355371	1.631033
0.355469	1.630379
0.355566	1.629813
0.355664	1.629214
0.355762	1.628903
0.355859	1.628675
0.355957	1.628675
0.356055	1.628865
0.356152	1.629294
0.356250	1.629925
0.356348	1.630655
0.356445	1.631388
0.356543	1.632209
0.356641	1.632950
0.356738	1.633726
0.356836	1.634241
0.356934	1.634597
0.357031	1.634843
0.357129	1.634941
0.357227	1.634673
0.357324	1.634367
0.357422	1.633886
0.357520	1.633208
0.357617	1.632575
0.357715	1.631848
0.357812	1.631109
0.357910	1.630447
0.358008	1.629891
0.358105	1.629499
0.358203	1.629297
0.358301	1.629164
0.358398	1.629338
0.358496	1.629730
0.358594	1.630324
0.358691	1.630960
0.358789	1.631682
0.358887	1.632453
0.358984	1.633137
0.359082	1.633812
0.359180	1.634276
0.359277	1.634709
0.359375	1.635014
0.359473	1.635120
0.359570	1.635134
0.359668	1.635043
0.359766	1.634666
0.359863	1.634188
0.359961	1.633701
0.360059	1.633087
0.360156	1.632367
0.360254	1.631748
0.360352	1.631034
0.360449	1.630451
0.360547	1.629949
0.360645	1.629593
0.360742	1.629282
0.360840	1.629393
0.360937	1.629492
0.361035	1.629946
0.361133	1.630415
0.361230	1.631072
0.361328	1.631827
0.361426	1.632611
0.361523	1.633194
0.361621	1.633781
0.361719	1.634056
0.361816	1.634288
0.361914	1.634314
0.362012	1.634030
0.362109	1.633526
0.362207	1.633014
0.362305	1.632197
0.362402	1.631399
0.362500	1.630447
0.362598	1.629643
0.362695	1.628841
0.362793	1.628248
0.362891	1.628006
0.362988	1.627795
0.363086	1.627909
0.363184	1.628126
0.363281	1.628600
0.363379	1.629269
0.363477	1.629968
0.363574	1.630808
0.363672	1.631719
0.363770	1.632463
0.363867	1.633294
0.363965	1.633851
0.364062	1.634377
0.364160	1.634696
0.364258	1.634845
0.364355	1.634706
0.364453	1.634523
0.364551	1.634077
0.364648	1.633584
0.364746	1.632962
0.364844	1.632200
0.364941	1.631575
0.365039	1.630833
0.365137	1.630215
0.365234	1.629698
0.365332	1.629316
0.365430	1.629001
0.365527	1.629078
0.365625	1.629222
0.365723	1.629544
0.365820	1.630030
0.365918	1.630747
0.366016	1.631367
0.366113	1.632157
0.366211	1.632842
0.366309	1.633424
0.366406	1.633956
0.366504	1.634225
0.366602	1.634351
0.366699	1.634344
0.366797	1.634144
0.366895	1.633626
0.366992	1.633092
0.367090	1.632410
0.367187	1.631743
0.367285	1.630995
0.367383	1.630260
0.367480	1.629690
0.367578	1.629247
0.367676	1.628832
0.367773	1.628712
0.367871	1.628781
0.367969	1.629064
0.368066	1.629524
0.368164	1.630115
0.368262	1.630877
0.368359	1.631715
0.368457	1.632516
0.368555	1.633349
0.368652	1.633980
0.368750	1.634497
0.368848	1.634825
0.368945	1.635011
0.369043	1.634935
0.369141	1.634706
0.369238	1.634271
0.369336	1.633744
0.369434	1.633121
0.369531	1.632252
0.369629	1.631636
0.369727	1.630788
0.369824	1.630119
0.369922	1.629432
0.370020	1.628977
0.370117	1.628720
0.370215	1.628596
0.370312	1.628788
0.370410	1.629094
0.370508	1.629581
0.370605	1.630282
0.370703	1.631059
0.370801	1.631851
0.370898	1.632737
0.370996	1.633535
0.371094	1.634216
0.371191	1.634675
0.371289	1.634827
0.371387	1.634803
0.371484	1.634512
0.371582	1.633920
0.371680	1.633400
0.371777	1.632674
0.371875	1.631908
0.371973	1.631112
0.372070	1.630403
0.372168	1.629780
0.372266	1.629173
0.372363	1.628680
0.372461	1.628367
0.372559	1.628264
0.372656	1.628259
0.372754	1.628519
0.372852	1.629081
0.372949	1.629722
0.373047	1.630476
0.373145	1.631256
0.373242	1.631982
0.373340	1.632745
0.373437	1.633333
0.373535	1.633804
0.373633	1.634291
0.373730	1.634529
0.373828	1.634587
0.373926	1.634519
0.374023	1.634265
0.374121	1.633795
0.374219	1.633312
0.374316	1.632689
0.374414	1.632064
0.374512	1.631314
0.374609	1.630657
0.374707	1.630000
0.374805	1.629477
0.374902	1.629138
0.375000	1.629091
0.375098	1.629109
0.375195	1.629439
0.375293	1.629839
0.375391	1.630452
0.375488	1.631154
0.375586	1.631769
0.375684	1.632640
0.375781	1.633342
0.375879	1.633994
0.375977	1.634486
0.376074	1.634877
0.376172	1.635032
0.376270	1.634903
0.376367	1.634539
0.376465	1.634096
0.376562	1.633449
0.376660	1.632685
0.376758	1.631830
0.376855	1.631051
0.376953	1.630244
0.377051	1.629567
0.377148	1.628934
0.377246	1.628540
0.377344	1.628335
0.377441	1.628366
0.377539	1.628585
0.377637	1.629040
0.377734	1.629604
0.377832	1.630374
0.377930	1.631011
0.378027	1.631757
0.378125	1.632643
0.378223	1.633216
0.378320	1.633742
0.378418	1.634065
0.378516	1.634218
0.378613	1.634163
0.378711	1.633884
0.378809	1.633488
0.378906	1.632903
0.379004	1.632114
0.379102	1.631346
0.379199	1.630482
0.379297	1.629663
0.379395	1.628975
0.379492	1.628485
0.379590	1.628000
0.379687	1.627887
0.379785	1.627743
0.379883	1.628028
0.379980	1.628409
0.380078	1.628972
0.380176	1.629650
0.380273	1.630511
0.380371	1.631303
0.380469	1.632092
0.380566	1.632880
0.380664	1.633445
0.380762	1.633987
0.380859	1.634246
0.380957	1.634426
0.381055	1.634338
0.381152	1.634183
0.381250	1.633826
0.381348	1.633294
0.381445	1.632782
0.381543	1.632013
0.381641	1.631390
0.381738	1.630630
0.381836	1.629897
0.381934	1.629315
0.382031	1.628832
0.382129	1.628628
0.382227	1.628485
0.382324	1.628565
0.382422	1.628905
0.382520	1.629328
0.382617	1.629909
0.382715	1.630612
0.382812	1.631453
0.382910	1.632339
0.383008	1.633034
0.383105	1.633776
0.383203	1.634158
0.383301	1.634431
0.383398	1.634517
0.383496	1.634308
0.383594	1.634055
0.383691	1.633611
0.383789	1.633103
0.383887	1.632500
0.383984	1.631976
0.384082	1.631421
0.384180	1.630821
0.384277	1.630267
0.384375	1.629851
0.384473	1.629445
0.384570	1.629315
0.384668	1.629186
0.384766	1.629244
0.384863	1.629584
0.384961	1.629938
0.385059	1.630493
0.385156	1.631116
0.385254	1.631856
0.385352	1.632554
0.385449	1.633291
0.385547	1.633837
0.385645	1.634275
0.385742	1.634561
0.385840	1.634579
0.385937	1.634545
0.386035	1.634221
0.386133	1.633870
0.386230	1.633285
0.386328	1.632651
0.386426	1.631865
0.386523	1.631130
0.386621	1.630456
0.386719	1.629795
0.386816	1.629317
0.386914	1.628939
0.387012	1.628840
0.387109	1.628884
0.387207	1.629111
0.387305	1.629496
0.387402	1.630077
0.387500	1.630731
0.387598	1.631463
0.387695	1.632237
0.387793	1.632957
0.387891	1.633585
0.387988	1.634021
0.388086	1.634558
0.388184	1.634609
0.388281	1.634673
0.388379	1.634562
0.388477	1.634114
0.388574	1.633665
0.388672	1.632975
0.388770	1.632303
0.388867	1.631535
0.388965	1.630810
0.389062	1.630181
0.389160	1.629751
0.389258	1.629333
0.389355	1.629138
0.389453	1.629130
0.389551	1.629324
0.389648	1.629748
0.389746	1.630152
0.389844	1.630678
0.389941	1.631411
0.390039	1.632028
0.390137	1.632745
0.390234	1.633208
0.390332	1.633759
0.390430	1.634022
0.390527	1.634200
0.390625	1.634171
0.390723	1.633906
0.390820	1.633563
0.390918	1.633173
0.391016	1.632499
0.391113	1.631775
0.391211	1.631083
0.391309	1.630365
0.391406	1.629753
0.391504	1.629227
0.391602	1.628888
0.391699	1.628612
0.391797	1.628655
0.391895	1.628973
0.391992	1.629430
0.392090	1.629925
0.392187	1.630643
0.392285	1.631403
0.392383	1.632107
0.392480	1.632842
0.392578	1.633411
0.392676	1.633883
0.392773	1.634240
0.392871	1.634503
0.392969	1.634529
0.393066	1.634336
0.393164	1.633909
0.393262	1.633318
0.393359	1.632551
0.393457	1.631682
0.393555	1.630717
0.393652	1.629845
0.393750	1.629012
0.393848	1.628441
0.393945	1.628031
0.394043	1.627839
0.394141	1.627862
0.394238	1.628191
0.394336	1.628669
0.394434	1.629362
0.394531	1.629986
0.394629	1.630894
0.394727	1.631814
0.394824	1.632513
0.394922	1.633368
0.395020	1.633954
0.395117	1.634374
0.395215	1.634577
0.395312	1.634527
0.395410	1.634562
0.395508	1.634326
0.395605	1.633775
0.395703	1.633328
0.395801	1.632659
0.395898	1.631963
0.395996	1.631237
0.396094	1.630443
0.396191	1.629864
0.396289	1.629368
0.396387	1.628917
0.396484	1.628733
0.396582	1.628754
0.396680	1.629054
0.396777	1.629455
0.396875	1.629967
0.396973	1.630678
0.397070	1.631470
0.397168	1.632108
0.397266	1.632978
0.397363	1.633581
0.397461	1.634002
0.397559	1.634328
0.397656	1.634482
0.397754	1.634372
0.397852	1.634139
0.397949	1.633682
0.398047	1.633069
0.398145	1.632402
0.398242	1.631645
0.398340	1.630877
0.398437	1.630088
0.398535	1.629484
0.398633	1.628917
0.398730	1.628494
0.398828	1.628364
0.398926	1.628359
0.399023	1.628674
0.399121	1.629114
0.399219	1.629794
0.399316	1.630541
0.399414	1.631423
0.399512	1.632162
0.399609	1.633008
0.399707	1.633630
0.399805	1.634016
0.399902	1.634321
0.400000	1.634327
0.400098	1.634294
0.400195	1.633984
0.400293	1.633656
0.400391	1.633294
0.400488	1.632799
0.400586	1.632136
0.400684	1.631423
0.400781	1.630816
0.400879	1.630171
0.400977	1.629539
0.401074	1.629092
0.401172	1.628799
0.401270	1.628729
0.401367	1.628812
0.401465	1.629095
0.401562	1.629667
0.401660	1.630204
0.401758	1.631014
0.401855	1.631853
0.401953	1.632512
0.402051	1.633251
0.402148	1.633911
0.402246	1.634279
0.402344	1.634537
0.402441	1.634586
0.402539	1.634324
0.402637	1.633843
0.402734	1.633230
0.402832	1.632638
0.402930	1.632009
0.403027	1.631324
0.403125	1.630612
0.403223	1.629945
0.403320	1.629357
0.403418	1.628897
0.403516	1.628687
0.403613	1.628639
0.403711	1.628773
0.403809	1.629117
0.403906	1.629603
0.404004	1.630279
0.404102	1.631016
0.404199	1.631935
0.404297	1.632752
0.404395	1.633481
0.404492	1.634172
0.404590	1.634788
0.404687	1.635174
0.404785	1.635314
0.404883	1.635206
0.404980	1.634961
0.405078	1.634476
0.405176	1.633864
0.405273	1.633025
0.405371	1.632289
0.405469	1.631469
0.405566	1.630706
0.405664	1.630127
0.405762	1.629548
0.405859	1.629271
0.405957	1.629179
0.406055	1.629202
0.406152	1.629473
0.406250	1.629882
0.406348	1.630518
0.406445	1.631256
0.406543	1.632046
0.406641	1.632935
0.406738	1.633624
0.406836	1.634269
0.406934	1.634737
0.407031	1.635001
0.407129	1.634997
0.407227	1.634764
0.407324	1.634473
0.407422	1.633953
0.407520	1.633466
0.407617	1.632619
0.407715	1.631835
0.407812	1.631094
0.407910	1.630379
0.408008	1.629720
0.408105	1.629171
0.408203	1.628799
0.408301	1.628556
0.408398	1.628505
0.408496	1.628685
0.408594	1.629009
0.408691	1.629608
0.408789	1.630102
0.408887	1.630891
0.408984	1.631565
0.409082	1.632312
0.409180	1.632794
0.409277	1.633493
0.409375	1.633777
0.409473	1.634002
0.409570	1.633956
0.409668	1.633804
0.409766	1.633460
0.409863	1.632990
0.409961	1.632384
0.410059	1.631769
0.410156	1.631216
0.410254	1.630567
0.410352	1.630070
0.410449	1.629631
0.410547	1.629235
0.410645	1.628914
0.410742	1.628917
0.410840	1.628927
0.410937	1.629247
0.411035	1.629722
0.411133	1.630313
0.411230	1.630988
0.411328	1.631809
0.411426	1.632655
0.411523	1.633376
0.411621	1.634213
0.411719	1.634823
0.411816	1.635257
0.411914	1.635461
0.412012	1.635517
0.412109	1.635348
0.412207	1.634880
0.412305	1.634164
0.412402	1.633322
0.412500	1.632352
0.412598	1.631538
0.412695	1.630463
0.412793	1.629821
0.412891	1.629109
0.412988	1.628684
0.413086	1.628344
0.413184	1.628295
0.413281	1.628394
0.413379	1.628839
0.413477	1.629434
0.413574	1.630184
0.413672	1.631075
0.413770	1.631857
0.413867	1.632809
0.413965	1.633545
0.414062	1.634171
0.414160	1.634705
0.414258	1.634856
0.414355	1.634827
0.414453	1.634661
0.414551	1.634263
0.414648	1.633701
0.414746	1.633094
0.414844	1.632323
0.414941	1.631619
0.415039	1.630799
0.415137	1.630175
0.415234	1.629534
0.415332	1.629045
0.415430	1.628765
0.415527	1.628643
0.415625	1.628594
0.415723	1.628938
0.415820	1.629296
0.415918	1.629807
0.416016	1.630450
0.416113	1.631201
0.416211	1.631812
0.416309	1.632668
0.416406	1.633227
0.416504	1.633734
0.416602	1.634161
0.416699	1.634406
0.416797	1.634540
0.416895	1.634401
0.416992	1.634240
0.417090	1.633880
0.417187	1.633505
0.417285	1.632817
0.417383	1.632228
0.417480	1.631567
0.417578	1.630969
0.417676	1.630390
0.417773	1.629939
0.417871	1.629764
0.417969	1.629606
0.418066	1.629604
0.418164	1.629835
0.418262	1.630136
0.418359	1.630605
0.418457	1.631210
0.418555	1.631813
0.418652	1.632538
0.418750	1.633056
0.418848	1.633579
0.418945	1.633917
0.419043	1.634044
0.419141	1.634113
0.419238	1.634099
0.419336	1.633884
0.419434	1.633579
0.419531	1.633285
0.419629	1.632828
0.419727	1.632344
0.419824	1.631678
0.419922	1.631259
0.420020	1.630741
0.420117	1.630352
0.420215	1.630073
0.420312	1.629852
0.420410	1.629867
0.420508	1.629978
0.420605	1.630188
0.420703	1.630477
0.420801	1.630994
0.420898	1.631696
0.420996	1.632308
0.421094	1.632976
0.421191	1.633512
0.421289	1.634071
0.421387	1.634496
0.421484	1.634610
0.421582	1.634712
0.421680	1.634526
0.421777	1.634384
0.421875	1.633925
0.421973	1.633540
0.422070	1.632877
0.422168	1.632317
0.422266	1.631647
0.422363	1.630961
0.422461	1.630334
0.422559	1.629923
0.422656	1.629466
0.422754	1.629256
0.422852	1.629410
0.422949	1.629617
0.423047	1.630089
0.423145	1.630647
0.423242	1.631362
0.423340	1.632138
0.423437	1.632939
0.423535	1.633571
0.423633	1.634208
0.423730	1.634670
0.423828	1.634941
0.423926	1.635008
0.424023	1.634834
0.424121	1.634376
0.424219	1.633712
0.424316	1.633002
0.424414	1.632138
0.424512	1.631248
0.424609	1.630431
0.424707	1.629725
0.424805	1.629172
0.424902	1.628790
0.425000	1.628637
0.425098	1.628627
0.425195	1.628868
0.425293	1.629234
0.425391	1.629815
0.425488	1.630467
0.425586	1.631126
0.425684	1.632003
0.425781	1.632757
0.425879	1.633540
0.425977	1.634171
0.426074	1.634622
0.426172	1.634933
0.426270	1.635050
0.426367	1.635041
0.426465	1.634692
0.426562	1.634229
0.426660	1.633692
0.426758	1.633037
0.426855	1.632306
0.426953	1.631478
0.427051	1.630802
0.427148	1.630216
0.427246	1.629709
0.427344	1.629507
0.427441	1.629462
0.427539	1.629527
0.427637	1.629946
0.427734	1.630305
0.427832	1.630969
0.427930	1.631672
0.428027	1.632337
0.428125	1.633141
0.428223	1.633717
0.428320	1.634271
0.428418	1.634654
0.428516	1.634886
0.428613	1.635009
0.428711	1.634833
0.428809	1.634607
0.428906	1.634161
0.429004	1.633590
0.429102	1.632844
0.429199	1.632153
0.429297	1.631419
0.429395	1.630692
0.429492	1.630100
0.429590	1.629575
0.429687	1.629335
0.429785	1.629151
0.429883	1.629182
0.429980	1.629470
0.430078	1.629838
0.430176	1.630460
0.430273	1.631192
0.430371	1.631977
0.430469	1.632703
0.430566	1.633455
0.430664	1.634126
0.430762	1.634509
0.430859	1.634822
0.430957	1.634925
0.431055	1.634941
0.431152	1.634676
0.431250	1.634344
0.431348	1.633846
0.431445	1.633213
0.431543	1.632560
0.431641	1.631954
0.431738	1.631370
0.431836	1.630736
0.431934	1.630147
0.432031	1.629628
0.432129	1.629399
0.432227	1.629155
0.432324	1.629128
0.432422	1.629392
0.432520	1.629794
0.432617	1.630366
0.432715	1.630986
0.432812	1.631906
0.432910	1.632776
0.433008	1.633552
0.433105	1.634376
0.433203	1.634847
0.433301	1.635152
0.433398	1.635213
0.433496	1.634990
0.433594	1.634493
0.433691	1.633992
0.433789	1.633201
0.433887	1.632524
0.433984	1.631785
0.434082	1.631120
0.434180	1.630377
0.434277	1.629850
0.434375	1.629390
0.434473	1.629085
0.434570	1.628981
0.434668	1.629051
0.434766	1.629356
0.434863	1.629830
0.434961	1.630365
0.435059	1.631015
0.435156	1.631733
0.435254	1.632477
0.435352	1.633051
0.435449	1.633643
0.435547	1.634102
0.435645	1.634337
0.435742	1.634433
0.435840	1.634341
0.435937	1.634107
0.436035	1.633671
0.436133	1.633121
0.436230	1.632541
0.436328	1.631851
0.436426	1.631156
0.436523	1.630514
0.436621	1.629956
0.436719	1.629462
0.436816	1.629221
0.436914	1.629116
0.437012	1.629271
0.437109	1.629601
0.437207	1.630083
0.437305	1.630703
0.437402	1.631533
0.437500	1.632264
0.437598	1.633217
0.437695	1.633932
0.437793	1.634649
0.437891	1.635165
0.437988	1.635460
0.438086	1.635542
0.438184	1.635384
0.438281	1.635017
0.438379	1.634456
0.438477	1.633804
0.438574	1.633105
0.438672	1.632270
0.438770	1.631415
0.438867	1.630547
0.438965	1.629936
0.439062	1.629335
0.439160	1.628972
0.439258	1.628850
0.439355	1.628815
0.439453	1.629163
0.439551	1.629603
0.439648	1.630128
0.439746	1.630941
0.439844	1.631629
0.439941	1.632426
0.440039	1.633094
0.440137	1.633602
0.440234	1.634153
0.440332	1.634594
0.440430	1.634717
0.440527	1.634643
0.440625	1.634515
0.440723	1.634147
0.440820	1.633662
0.440918	1.633142
0.441016	1.632400
0.441113	1.631831
0.441211	1.631195
0.441309	1.630536
0.441406	1.630105
0.441504	1.629708
0.441602	1.629502
0.441699	1.629520
0.441797	1.629536
0.441895	1.630018
0.441992	1.630570
0.442090	1.631292
0.442187	1.631872
0.442285	1.632694
0.442383	1.633448
0.442480	1.634139
0.442578	1.634770
0.442676	1.635112
0.442773	1.635470
0.442871	1.635708
0.442969	1.635715
0.443066	1.635570
0.443164	1.635214
0.443262	1.634588
0.443359	1.633896
0.443457	1.633017
0.443555	1.632145
0.443652	1.631221
0.443750	1.630460
0.443848	1.629806
0.443945	1.629217
0.444043	1.628983
0.444141	1.628914
0.444238	1.629000
0.444336	1.629405
0.444434	1.630026
0.444531	1.630666
0.444629	1.631509
0.444727	1.632255
0.444824	1.633089
0.444922	1.633642
0.445020	1.634163
0.445117	1.634404
0.445215	1.634454
0.445312	1.634161
0.445410	1.633938
0.445508	1.633274
0.445605	1.632712
0.445703	1.632097
0.445801	1.631359
0.445898	1.630731
0.445996	1.629909
0.446094	1.629377
0.446191	1.628846
0.446289	1.628554
0.446387	1.628291
0.446484	1.628387
0.446582	1.628466
0.446680	1.628994
0.446777	1.629527
0.446875	1.630209
0.446973	1.630945
0.447070	1.631781
0.447168	1.632464
0.447266	1.633250
0.447363	1.633845
0.447461	1.634368
0.447559	1.634649
0.447656	1.634793
0.447754	1.634747
0.447852	1.634445
0.447949	1.633958
0.448047	1.633377
0.448145	1.632642
0.448242	1.631803
0.448340	1.630947
0.448437	1.630221
0.448535	1.629534
0.448633	1.629088
0.448730	1.628710
0.448828	1.628643
0.448926	1.628718
0.449023	1.628970
0.449121	1.629527
0.449219	1.630161
0.449316	1.630902
0.449414	1.631721
0.449512	1.632532
0.449609	1.633367
0.449707	1.634094
0.449805	1.634502
0.449902	1.634810
0.450000	1.635036
0.450098	1.634927
0.450195	1.634658
0.450293	1.634179
0.450391	1.633634
0.450488	1.633012
0.450586	1.632219
0.450684	1.631424
0.450781	1.630775
0.450879	1.630046
0.450977	1.629465
0.451074	1.629026
0.451172	1.628668
0.451270	1.628554
0.451367	1.628616
0.451465	1.628964
0.451562	1.629358
0.451660	1.629966
0.451758	1.630716
0.451855	1.631658
0.451953	1.632513
0.452051	1.633408
0.452148	1.634283
0.452246	1.635012
0.452344	1.635439
0.452441	1.635801
0.452539	1.635802
0.452637	1.635529
0.452734	1.635132
0.452832	1.634603
0.452930	1.633840
0.453027	1.632939
0.453125	1.632084
0.453223	1.631148
0.453320	1.630311
0.453418	1.629570
0.453516	1.629020
0.453613	1.628607
0.453711	1.628430
0.453809	1.628474
0.453906	1.628724
0.454004	1.629253
0.454102	1.629809
0.454199	1.630582
0.454297	1.631435
0.454395	1.632225
0.454492	1.632984
0.454590	1.633697
0.454687	1.634247
0.454785	1.634625
0.454883	1.634771
0.454980	1.634751
0.455078	1.634647
0.455176	1.634256
0.455273	1.633686
0.455371	1.633212
0.455469	1.632522
0.455566	1.631852
0.455664	1.631159
0.455762	1.630526
0.455859	1.630016
0.455957	1.629680
0.456055	1.629390
0.456152	1.629238
0.456250	1.629432
0.456348	1.629618
0.456445	1.630103
0.456543	1.630714
0.456641	1.631353
0.456738	1.632023
0.456836	1.632603
0.456934	1.633189
0.457031	1.633719
0.457129	1.634007
0.457227	1.634200
0.457324	1.634241
0.457422	1.634079
0.457520	1.633704
0.457617	1.633255
0.457715	1.632723
0.457812	1.632096
0.457910	1.631387
0.458008	1.630744
0.458105	1.630099
0.458203	1.629603
0.458301	1.629220
0.458398	1.628981
0.458496	1.629073
0.458594	1.629351
0.458691	1.629671
0.458789	1.630203
0.458887	1.630921
0.458984	1.631685
0.459082	1.632544
0.459180	1.633203
0.459277	1.633988
0.459375	1.634613
0.459473	1.635121
0.459570	1.635489
0.459668	1.635557
0.459766	1.635458
0.459863	1.635034
0.459961	1.634590
0.460059	1.633906
0.460156	1.633113
0.460254	1.632256
0.460352	1.631519
0.460449	1.630613
0.460547	1.629863
0.460645	1.629275
0.460742	1.628866
0.460840	1.628642
0.460937	1.628664
0.461035	1.628898
0.461133	1.629435
0.461230	1.629956
0.461328	1.630659
0.461426	1.631523
0.461523	1.632310
0.461621	1.633129
0.461719	1.633790
0.461816	1.634398
0.461914	1.634842
0.462012	1.635090
0.462109	1.635180
0.462207	1.635027
0.462305	1.634700
0.462402	1.634258
0.462500	1.633729
0.462598	1.632907
0.462695	1.632045
0.462793	1.631389
0.462891	1.630793
0.462988	1.630199
0.463086	1.629809
0.463184	1.629544
0.463281	1.629408
0.463379	1.629491
0.463477	1.629757
0.463574	1.630285
0.463672	1.630904
0.463770	1.631595
0.463867	1.632340
0.463965	1.633135
0.464062	1.633826
0.464160	1.634376
0.464258	1.634753
0.464355	1.634890
0.464453	1.634839
0.464551	1.634450
0.464648	1.634020
0.464746	1.633344
0.464844	1.632641
0.464941	1.631842
0.465039	1.631188
0.465137	1.630448
0.465234	1.629931
0.465332	1.629597
0.465430	1.629296
0.465527	1.629231
0.465625	1.629415
0.465723	1.629740
0.465820	1.630071
0.465918	1.630730
0.466016	1.631420
0.466113	1.632070
0.466211	1.632909
0.466309	1.633623
0.466406	1.634392
0.466504	1.635062
0.466602	1.635589
0.466699	1.635886
0.466797	1.636002
0.466895	1.635884
0.466992	1.635528
0.467090	1.634961
0.467187	1.634230
0.467285	1.633386
0.467383	1.632475
0.467480	1.631461
0.467578	1.630525
0.467676	1.629718
0.467773	1.628999
0.467871	1.628513
0.467969	1.628198
0.468066	1.628172
0.468164	1.628342
0.468262	1.628831
0.468359	1.629331
0.468457	1.630007
0.468555	1.630759
0.468652	1.631437
0.468750	1.632118
0.468848	1.632769
0.468945	1.633226
0.469043	1.633540
0.469141	1.633585
0.469238	1.633626
0.469336	1.633372
0.469434	1.633132
0.469531	1.632728
0.469629	1.632195
0.469727	1.631567
0.469824	1.630993
0.469922	1.630377
0.470020	1.629919
0.470117	1.629507
0.470215	1.629302
0.470312	1.629322
0.470410	1.629368
0.470508	1.629647
0.470605	1.630011
0.470703	1.630695
0.470801	1.631237
0.470898	1.632055
0.470996	1.632819
0.471094	1.633612
0.471191	1.634360
0.471289	1.634808
0.471387	1.635348
0.471484	1.635453
0.471582	1.635437
0.471680	1.635239
0.471777	1.634675
0.471875	1.634147
0.471973	1.633205
0.472070	1.632451
0.472168	1.631549
0.472266	1.630677
0.472363	1.629754
0.472461	1.629155
0.472559	1.628585
0.472656	1.628183
0.472754	1.627974
0.472852	1.628297
0.472949	1.628661
0.473047	1.629190
0.473145	1.629961
0.473242	1.630733
0.473340	1.631667
0.473437	1.632558
0.473535	1.633481
0.473633	1.634183
0.473730	1.634817
0.473828	1.635198
0.473926	1.635339
0.474023	1.635096
0.474121	1.634784
0.474219	1.634217
0.474316	1.633536
0.474414	1.632723
0.474512	1.631938
0.474609	1.631062
0.474707	1.630246
0.474805	1.629537
0.474902	1.628954
0.475000	1.628638
0.475098	1.628410
0.475195	1.628509
0.475293	1.628727
0.475391	1.629224
0.475488	1.629837
0.475586	1.630517
0.475684	1.631341
0.475781	1.632132
0.475879	1.632884
0.475977	1.633623
0.476074	1.634157
0.476172	1.634521
0.476270	1.634700
0.476367	1.634708
0.476465	1.634422
0.476562	1.634063
0.476660	1.633428
0.476758	1.632762
0.476855	1.631984
0.476953	1.631240
0.477051	1.630508
0.477148	1.629809
0.477246	1.629334
0.477344	1.628971
0.477441	1.628771
0.477539	1.628841
0.477637	1.629155
0.477734	1.629560
0.477832	1.630253
0.477930	1.630955
0.478027	1.631788
0.478125	1.632555
0.478223	1.633409
0.478320	1.634097
0.478418	1.634688
0.478516	1.635179
0.478613	1.635592
0.478711	1.635767
0.478809	1.635666
0.478906	1.635481
0.479004	1.634955
0.479102	1.634341
0.479199	1.633447
0.479297	1.632583
0.479395	1.631613
0.479492	1.630691
0.479590	1.629853
0.479687	1.629237
0.479785	1.628781
0.479883	1.628493
0.479980	1.628476
0.480078	1.628727
0.480176	1.629178
0.480273	1.629863
0.480371	1.630557
0.480469	1.631315
0.480566	1.632102
0.480664	1.632674
0.480762	1.633241
0.480859	1.633712
0.480957	1.633992
0.481055	1.634092
0.481152	1.633925
0.481250	1.633697
0.481348	1.633314
0.481445	1.632811
0.481543	1.632259
0.481641	1.631658
0.481738	1.631123
0.481836	1.630459
0.481934	1.629921
0.482031	1.629478
0.482129	1.629180
0.482227	1.629078
0.482324	1.629105
0.482422	1.629330
0.482520	1.629675
0.482617	1.630130
0.482715	1.630681
0.482812	1.631541
0.482910	1.632256
0.483008	1.632999
0.483105	1.633679
0.483203	1.634191
0.483301	1.634608
0.483398	1.634736
0.483496	1.634783
0.483594	1.634565
0.483691	1.634365
0.483789	1.633796
0.483887	1.633292
0.483984	1.632524
0.484082	1.631781
0.484180	1.631040
0.484277	1.630180
0.484375	1.629614
0.484473	1.629069
0.484570	1.628823
0.484668	1.628646
0.484766	1.628730
0.484863	1.629018
0.484961	1.629423
0.485059	1.630021
0.485156	1.630750
0.485254	1.631397
0.485352	1.632234
0.485449	1.632967
0.485547	1.633613
0.485645	1.634178
0.485742	1.634478
0.485840	1.634603
0.485937	1.634557
0.486035	1.634318
0.486133	1.633959
0.486230	1.633493
0.486328	1.632768
0.486426	1.632237
0.486523	1.631434
0.486621	1.630710
0.486719	1.630057
0.486816	1.629470
0.486914	1.628998
0.487012	1.628737
0.487109	1.628726
0.487207	1.628785
0.487305	1.629216
0.487402	1.629696
0.487500	1.630381
0.487598	1.631126
0.487695	1.631896
0.487793	1.632598
0.487891	1.633239
0.487988	1.633869
0.488086	1.634173
0.488184	1.634327
0.488281	1.634164
0.488379	1.633926
0.488477	1.633499
0.488574	1.632857
0.488672	1.632236
0.488770	1.631440
0.488867	1.630650
0.488965	1.630022
0.489062	1.629374
0.489160	1.628936
0.489258	1.628538
0.489355	1.628473
0.489453	1.628585
0.489551	1.628767
0.489648	1.629371
0.489746	1.629927
0.489844	1.630716
0.489941	1.631495
0.490039	1.632344
0.490137	1.633183
0.490234	1.633988
0.490332	1.634595
0.490430	1.635041
0.490527	1.635425
0.490625	1.635382
0.490723	1.635259
0.490820	1.634873
0.490918	1.634382
0.491016	1.633707
0.491113	1.633128
0.491211	1.632301
0.491309	1.631639
0.491406	1.630881
0.491504	1.630199
0.491602	1.629718
0.491699	1.629294
0.491797	1.628951
0.491895	1.628937
0.491992	1.629016
0.492090	1.629358
0.492187	1.629783
0.492285	1.630446
0.492383	1.631168
0.492480	1.631873
0.492578	1.632657
0.492676	1.633322
0.492773	1.634085
0.492871	1.634647
0.492969	1.634930
0.493066	1.635070
0.493164	1.634876
0.493262	1.634440
0.493359	1.633806
0.493457	1.633015
0.493555	1.632128
0.493652	1.631246
0.493750	1.630387
0.493848	1.629630
0.493945	1.629014
0.494043	1.628569
0.494141	1.628361
0.494238	1.628371
0.494336	1.628578
0.494434	1.629023
0.494531	1.629722
0.494629	1.630417
0.494727	1.631168
0.494824	1.632023
0.494922	1.632640
0.495020	1.633159
0.495117	1.633631
0.495215	1.633883
0.495312	1.633940
0.495410	1.633926
0.495508	1.633729
0.495605	1.633442
0.495703	1.632982
0.495801	1.632370
0.495898	1.631766
0.495996	1.631096
0.496094	1.630368
0.496191	1.629770
0.496289	1.629108
0.496387	1.628668
0.496484	1.628358
0.496582	1.628388
0.496680	1.628442
0.496777	1.628715
0.496875	1.629222
0.496973	1.629872
0.497070	1.630565
0.497168	1.631338
0.497266	1.632043
0.497363	1.632776
0.497461	1.633381
0.497559	1.633851
0.497656	1.634179
0.497754	1.634291
0.497852	1.634244
0.497949	1.634009
0.498047	1.633607
0.498145	1.632993
0.498242	1.632423
0.498340	1.631775
0.498437	1.631102
0.498535	1.630373
0.498633	1.629848
0.498730	1.629395
0.498828	1.629134
0.498926	1.628942
0.499023	1.628994
0.499121	1.629203
0.499219	1.629666
0.499316	1.630158
0.499414	1.630847
0.499512	1.631554
0.499609	1.632231
0.499707	1.633026
0.499805	1.633439
0.499902	1.633958
0.500000	1.634197
0.500098	1.634272
0.500195	1.634331
0.500293	1.634164
0.500391	1.633737
0.500488	1.633335
0.500586	1.632715
0.500684	1.632054
0.500781	1.631231
0.500879	1.630541
0.500977	1.629967
0.501074	1.629399
0.501172	1.629001
0.501270	1.628815
0.501367	1.628749
0.501465	1.628839
0.501562	1.629234
0.501660	1.629678
0.501758	1.630319
0.501855	1.631024
0.501953	1.631812
0.502051	1.632557
0.502148	1.633182
0.502246	1.633825
0.502344	1.634071
0.502441	1.634243
0.502539	1.634274
0.502637	1.633925
0.502734	1.633629
0.502832	1.633099
0.502930	1.632547
0.503027	1.631829
0.503125	1.631169
0.503223	1.630484
0.503320	1.629803
0.503418	1.629180
0.503516	1.628751
0.503613	1.628500
0.503711	1.628403
0.503809	1.628443
0.503906	1.628783
0.504004	1.629330
0.504102	1.629927
0.504199	1.630814
0.504297	1.631650
0.504395	1.632438
0.504492	1.633236
0.504590	1.633947
0.504687	1.634500
0.504785	1.634813
0.504883	1.635005
0.504980	1.634913
0.505078	1.634656
0.505176	1.634341
0.505273	1.633743
0.505371	1.633072
0.505469	1.632346
0.505566	1.631671
0.505664	1.630950
0.505762	1.630359
0.505859	1.629888
0.505957	1.629624
0.506055	1.629515
0.506152	1.629431
0.506250	1.629758
0.506348	1.630107
0.506445	1.630731
0.506543	1.631323
0.506641	1.632068
0.506738	1.632696
0.506836	1.633420
0.506934	1.633881
0.507031	1.634246
0.507129	1.634446
0.507227	1.634420
0.507324	1.634091
0.507422	1.633801
0.507520	1.633301
0.507617	1.632869
0.507715	1.632456
0.507812	1.631863
0.507910	1.631358
0.508008	1.630850
0.508105	1.630348
0.508203	1.629913
0.508301	1.629599
0.508398	1.629388
0.508496	1.629343
0.508594	1.629540
0.508691	1.629946
0.508789	1.630365
0.508887	1.631063
0.508984	1.631819
0.509082	1.632698
0.509180	1.633509
0.509277	1.634229
0.509375	1.634938
0.509473	1.635425
0.509570	1.635714
0.509668	1.635781
0.509766	1.635566
0.509863	1.635017
0.509961	1.634392
0.510059	1.633629
0.510156	1.632828
0.510254	1.631918
0.510352	1.631110
0.510449	1.630316
0.510547	1.629707
0.510645	1.629207
0.510742	1.628872
0.510840	1.628833
0.510937	1.628894
0.511035	1.629195
0.511133	1.629681
0.511230	1.630285
0.511328	1.630864
0.511426	1.631565
0.511523	1.632374
0.511621	1.633089
0.511719	1.633598
0.511816	1.634057
0.511914	1.634257
0.512012	1.634319
0.512109	1.634215
0.512207	1.633809
0.512305	1.633372
0.512402	1.632713
0.512500	1.631978
0.512598	1.631110
0.512695	1.630274
0.512793	1.629603
0.512891	1.629099
0.512988	1.628676
0.513086	1.628424
0.513184	1.628278
0.513281	1.628300
0.513379	1.628687
0.513477	1.629171
0.513574	1.629836
0.513672	1.630491
0.513770	1.631298
0.513867	1.632099
0.513965	1.632821
0.514062	1.633383
0.514160	1.633730
0.514258	1.633977
0.514355	1.633942
0.514453	1.633782
0.514551	1.633375
0.514648	1.632927
0.514746	1.632364
0.514844	1.631744
0.514941	1.631085
0.515039	1.630371
0.515137	1.629823
0.515234	1.629294
0.515332	1.628936
0.515430	1.628767
0.515527	1.628704
0.515625	1.628895
0.515723	1.629149
0.515820	1.629693
0.515918	1.630297
0.516016	1.630968
0.516113	1.631806
0.516211	1.632646
0.516309	1.633503
0.516406	1.634265
0.516504	1.634922
0.516602	1.635389
0.516699	1.635739
0.516797	1.635845
0.516895	1.635703
0.516992	1.635386
0.517090	1.634758
0.517187	1.634107
0.517285	1.633288
0.517383	1.632399
0.517480	1.631416
0.517578	1.630630
0.517676	1.629910
0.517773	1.629297
0.517871	1.628894
0.517969	1.628739
0.518066	1.628700
0.518164	1.629129
0.518262	1.629501
0.518359	1.630109
0.518457	1.630767
0.518555	1.631575
0.518652	1.632406
0.518750	1.632982
0.518848	1.633786
0.518945	1.634314
0.519043	1.634780
0.519141	1.634906
0.519238	1.634992
0.519336	1.634728
0.519434	1.634345
0.519531	1.633699
0.519629	1.633024
0.519727	1.632181
0.519824	1.631278
0.519922	1.630501
0.520020	1.629865
0.520117	1.629433
0.520215	1.629264
0.520312	1.629212
0.520410	1.629477
0.520508	1.629844
0.520605	1.630457
0.520703	1.631107
0.520801	1.631934
0.520898	1.632787
0.520996	1.633605
0.521094	1.634366
0.521191	1.635057
0.521289	1.635545
0.521387	1.635877
0.521484	1.635915
0.521582	1.635906
0.521680	1.635561
0.521777	1.635052
0.521875	1.634360
0.521973	1.633422
0.522070	1.632384
0.522168	1.631323
0.522266	1.630190
0.522363	1.629248
0.522461	1.628547
0.522559	1.627985
0.522656	1.627732
0.522754	1.627654
0.522852	1.628023
0.522949	1.628469
0.523047	1.629247
0.523145	1.629983
0.523242	1.630785
0.523340	1.631678
0.523437	1.632473
0.523535	1.633191
0.523633	1.633774
0.523730	1.634235
0.523828	1.634484
0.523926	1.634593
0.524023	1.634429
0.524121	1.634161
0.524219	1.633645
0.524316	1.633105
0.524414	1.632356
0.524512	1.631564
0.524609	1.630819
0.524707	1.630056
0.524805	1.629300
0.524902	1.628818
0.525000	1.628446
0.525098	1.628241
0.525195	1.628277
0.525293	1.628548
0.525391	1.628959
0.525488	1.629565
0.525586	1.630315
0.525684	1.631194
0.525781	1.632064
0.525879	1.633006
0.525977	1.633771
0.526074	1.634443
0.526172	1.634915
0.526270	1.635287
0.526367	1.635344
0.526465	1.635204
0.526562	1.634901
0.526660	1.634387
0.526758	1.633738
0.526855	1.633007
0.526953	1.632122
0.527051	1.631318
0.527148	1.630429
0.527246	1.629687
0.527344	1.628946
0.527441	1.628511
0.527539	1.628148
0.527637	1.628202
0.527734	1.628301
0.527832	1.628620
0.527930	1.629193
0.528027	1.629905
0.528125	1.630667
0.528223	1.631415
0.528320	1.632217
0.528418	1.632946
0.528516	1.633479
0.528613	1.633903
0.528711	1.634261
0.528809	1.634274
0.528906	1.634144
0.529004	1.633839
0.529102	1.633360
0.529199	1.632676
0.529297	1.632098
0.529395	1.631315
0.529492	1.630591
0.529590	1.629992
0.529687	1.629413
0.529785	1.629061
0.529883	1.628798
0.529980	1.628890
0.530078	1.629072
0.530176	1.629554
0.530273	1.630245
0.530371	1.631003
0.530469	1.631777
0.530566	1.632693
0.530664	1.633355
0.530762	1.634078
0.530859	1.634649
0.530957	1.635009
0.531055	1.635171
0.531152	1.635260
0.531250	1.635036
0.531348	1.634761
0.531445	1.634314
0.531543	1.633599
0.531641	1.633020
0.531738	1.632239
0.531836	1.631517
0.531934	1.630756
0.532031	1.629962
0.532129	1.629488
0.532227	1.629061
0.532324	1.628886
0.532422	1.628890
0.532520	1.629017
0.532617	1.629540
0.532715	1.630003
0.532812	1.630771
0.532910	1.631575
0.533008	1.632283
0.533105	1.632930
0.533203	1.633399
0.533301	1.633767
0.533398	1.633786
0.533496	1.633761
0.533594	1.633336
0.533691	1.632871
0.533789	1.632156
0.533887	1.631462
0.533984	1.630744
0.534082	1.630027
0.534180	1.629387
0.534277	1.628810
0.534375	1.628430
0.534473	1.628203
0.534570	1.628025
0.534668	1.628128
0.534766	1.628419
0.534863	1.628884
0.534961	1.629460
0.535059	1.630213
0.535156	1.630982
0.535254	1.631808
0.535352	1.632628
0.535449	1.633391
0.535547	1.634114
0.535645	1.634599
0.535742	1.634861
0.535840	1.635070
0.535937	1.635004
0.536035	1.634796
0.536133	1.634331
0.536230	1.633782
0.536328	1.633149
0.536426	1.632372
0.536523	1.631704
0.536621	1.630918
0.536719	1.630177
0.536816	1.629541
0.536914	1.629100
0.537012	1.628829
0.537109	1.628749
0.537207	1.628901
0.537305	1.629374
0.537402	1.629931
0.537500	1.630647
0.537598	1.631379
0.537695	1.632234
0.537793	1.632932
0.537891	1.633604
0.537988	1.634077
0.538086	1.634455
0.538184	1.634571
0.538281	1.634434
0.538379	1.634190
0.538477	1.633758
0.538574	1.633167
0.538672	1.632602
0.538770	1.631956
0.538867	1.631417
0.538965	1.630819
0.539062	1.630216
0.539160	1.629839
0.539258	1.629473
0.539355	1.629318
0.539453	1.629303
0.539551	1.629523
0.539648	1.629878
0.539746	1.630285
0.539844	1.630818
0.539941	1.631568
0.540039	1.632179
0.540137	1.632915
0.540234	1.633607
0.540332	1.634162
0.540430	1.634532
0.540527	1.634796
0.540625	1.634845
0.540723	1.634681
0.540820	1.634472
0.540918	1.634001
0.541016	1.633472
0.541113	1.632857
0.541211	1.632132
0.541309	1.631362
0.541406	1.630641
0.541504	1.629916
0.541602	1.629350
0.541699	1.628892
0.541797	1.628528
0.541895	1.628452
0.541992	1.628562
0.542090	1.628821
0.542187	1.629316
0.542285	1.629875
0.542383	1.630533
0.542480	1.631280
0.542578	1.631920
0.542676	1.632532
0.542773	1.633055
0.542871	1.633543
0.542969	1.633845
0.543066	1.633911
0.543164	1.633691
0.543262	1.633394
0.543359	1.632822
0.543457	1.632134
0.543555	1.631271
0.543652	1.630435
0.543750	1.629643
0.543848	1.628800
0.543945	1.628343
0.544043	1.627981
0.544141	1.627674
0.544238	1.627752
0.544336	1.627940
0.544434	1.628422
0.544531	1.628983
0.544629	1.629771
0.544727	1.630661
0.544824	1.631548
0.544922	1.632446
0.545020	1.633317
0.545117	1.634011
0.545215	1.634582
0.545312	1.634878
0.545410	1.634953
0.545508	1.634756
0.545605	1.634329
0.545703	1.633714
0.545801	1.632941
0.545898	1.632312
0.545996	1.631442
0.546094	1.630664
0.546191	1.630010
0.546289	1.629322
0.546387	1.628867
0.546484	1.628669
0.546582	1.628559
0.546680	1.628583
0.546777	1.629019
0.546875	1.629460
0.546973	1.630139
0.547070	1.630808
0.547168	1.631500
0.547266	1.632255
0.547363	1.632975
0.547461	1.633624
0.547559	1.633980
0.547656	1.634392
0.547754	1.634495
0.547852	1.634421
0.547949	1.634185
0.548047	1.633809
0.548145	1.633222
0.548242	1.632694
0.548340	1.631942
0.548437	1.631176
0.548535	1.630457
0.548633	1.629873
0.548730	1.629376
0.548828	1.629012
0.548926	1.628835
0.549023	1.628888
0.549121	1.629078
0.549219	1.629471
0.549316	1.630039
0.549414	1.630609
0.549512	1.631366
0.549609	1.631935
0.549707	1.632475
0.549805	1.632915
0.549902	1.633286
0.550000	1.633517
0.550098	1.633628
0.550195	1.633706
0.550293	1.633518
0.550391	1.633325
0.550488	1.632975
0.550586	1.632475
0.550684	1.631940
0.550781	1.631301
0.550879	1.630783
0.550977	1.630174
0.551074	1.629725
0.551172	1.629365
0.551270	1.629128
0.551367	1.629009
0.551465	1.629079
0.551562	1.629301
0.551660	1.629582
0.551758	1.630144
0.551855	1.630731
0.551953	1.631353
0.552051	1.632104
0.552148	1.632777
0.552246	1.633250
0.552344	1.633782
0.552441	1.634016
0.552539	1.634072
0.552637	1.633971
0.552734	1.633627
0.552832	1.633335
0.552930	1.632756
0.553027	1.632108
0.553125	1.631342
0.553223	1.630640
0.553320	1.629889
0.553418	1.629283
0.553516	1.628762
0.553613	1.628323
0.553711	1.628094
0.553809	1.628098
0.553906	1.628111
0.554004	1.628584
0.554102	1.629072
0.554199	1.629762
0.554297	1.630631
0.554395	1.631392
0.554492	1.632199
0.554590	1.633105
0.554687	1.633794
0.554785	1.634458
0.554883	1.634908
0.554980	1.635141
0.555078	1.635263
0.555176	1.635187
0.555273	1.634894
0.555371	1.634432
0.555469	1.633827
0.555566	1.633074
0.555664	1.632269
0.555762	1.631398
0.555859	1.630486
0.555957	1.629673
0.556055	1.629111
0.556152	1.628612
0.556250	1.628526
0.556348	1.628608
0.556445	1.628951
0.556543	1.629501
0.556641	1.630140
0.556738	1.630785
0.556836	1.631574
0.556934	1.632182
0.557031	1.632680
0.557129	1.633024
0.557227	1.633153
0.557324	1.633165
0.557422	1.632932
0.557520	1.632694
0.557617	1.632287
0.557715	1.631685
0.557812	1.631058
0.557910	1.630389
0.558008	1.629700
0.558105	1.629023
0.558203	1.628485
0.558301	1.628006
0.558398	1.627691
0.558496	1.627635
0.558594	1.627769
0.558691	1.628048
0.558789	1.628517
0.558887	1.629107
0.558984	1.629786
0.559082	1.630567
0.559180	1.631242
0.559277	1.632084
0.559375	1.632736
0.559473	1.633206
0.559570	1.633673
0.559668	1.633963
0.559766	1.633971
0.559863	1.633804
0.559961	1.633571
0.560059	1.633159
0.560156	1.632633
0.560254	1.632062
0.560352	1.631561
0.560449	1.630869
0.560547	1.630260
0.560645	1.629754
0.560742	1.629438
0.560840	1.629114
0.560937	1.629160
0.561035	1.629263
0.561133	1.629567
0.561230	1.630109
0.561328	1.630737
0.561426	1.631392
0.561523	1.632139
0.561621	1.632896
0.561719	1.633505
0.561816	1.634092
0.561914	1.634373
0.562012	1.634481
0.562109	1.634368
0.562207	1.634039
0.562305	1.633556
0.562402	1.632914
0.562500	1.632168
0.562598	1.631408
0.562695	1.630535
0.562793	1.630044
0.562891	1.629410
0.562988	1.628893
0.563086	1.628541
0.563184	1.628267
0.563281	1.628330
0.563379	1.628558
0.563477	1.628818
0.563574	1.629360
0.563672	1.630050
0.563770	1.630690
0.563867	1.631583
0.563965	1.632300
0.564062	1.633053
0.564160	1.633699
0.564258	1.634194
0.564355	1.634568
0.564453	1.634625
0.564551	1.634575
0.564648	1.634238
0.564746	1.633692
0.564844	1.633031
0.564941	1.632308
0.565039	1.631498
0.565137	1.630689
0.565234	1.629963
0.565332	1.629308
0.565430	1.628752
0.565527	1.628378
0.565625	1.628155
0.565723	1.628203
0.565820	1.628336
0.565918	1.628699
0.566016	1.629258
0.566113	1.629932
0.566211	1.630661
0.566309	1.631508
0.566406	1.632278
0.566504	1.633050
0.566602	1.633573
0.566699	1.633992
0.566797	1.634085
0.566895	1.634128
0.566992	1.633874
0.567090	1.633502
0.567187	1.633006
0.567285	1.632277
0.567383	1.631646
0.567480	1.631073
0.567578	1.630358
0.567676	1.629726
0.567773	1.629194
0.567871	1.628862
0.567969	1.628585
0.568066	1.628493
0.568164	1.628639
0.568262	1.628897
0.568359	1.629490
0.568457	1.630088
0.568555	1.630790
0.568652	1.631631
0.568750	1.632397
0.568848	1.633033
0.568945	1.633589
0.569043	1.633990
0.569141	1.634064
0.569238	1.634096
0.569336	1.633853
0.569434	1.633645
0.569531	1.633148
0.569629	1.632536
0.569727	1.631873
0.569824	1.631033
0.569922	1.630246
0.570020	1.629436
0.570117	1.628683
0.570215	1.628170
0.570312	1.627781
0.570410	1.627619
0.570508	1.627765
0.570605	1.628104
0.570703	1.628367
0.570801	1.628942
0.570898	1.629695
0.570996	1.630445
0.571094	1.631231
0.571191	1.631899
0.571289	1.632491
0.571387	1.632990
0.571484	1.633310
0.571582	1.633400
0.571680	1.633385
0.571777	1.633148
0.571875	1.632851
0.571973	1.632264
0.572070	1.631586
0.572168	1.630984
0.572266	1.630179
0.572363	1.629571
0.572461	1.628820
0.572559	1.628337
0.572656	1.627811
0.572754	1.627512
0.572852	1.627661
0.572949	1.627737
0.573047	1.628155
0.573145	1.628619
0.573242	1.629327
0.573340	1.630110
0.573437	1.630948
0.573535	1.631844
0.573633	1.632535
0.573730	1.633265
0.573828	1.633678
0.573926	1.633961
0.574023	1.634000
0.574121	1.633869
0.574219	1.633522
0.574316	1.633112
0.574414	1.632409
0.574512	1.631793
0.574609	1.631204
0.574707	1.630439
0.574805	1.629862
0.574902	1.629213
0.575000	1.628719
0.575098	1.628398
0.575195	1.628155
0.575293	1.628169
0.575391	1.628272
0.575488	1.628656
0.575586	1.629231
0.575684	1.629756
0.575781	1.630559
0.575879	1.631330
0.575977	1.632016
0.576074	1.632710
0.576172	1.633407
0.576270	1.633831
0.576367	1.634142
0.576465	1.634234
0.576562	1.634177
0.576660	1.633875
0.576758	1.633455
0.576855	1.632766
0.576953	1.632015
0.577051	1.631272
0.577148	1.630402
0.577246	1.629539
0.577344	1.628862
0.577441	1.628289
0.577539	1.627947
0.577637	1.627717
0.577734	1.627822
0.577832	1.628133
0.577930	1.628607
0.578027	1.629196
0.578125	1.629991
0.578223	1.630778
0.578320	1.631594
0.578418	1.632309
0.578516	1.632993
0.578613	1.633508
0.578711	1.633867
0.578809	1.634017
0.578906	1.633842
0.579004	1.633534
0.579102	1.633069
0.579199	1.632363
0.579297	1.631711
0.579395	1.630937
0.579492	1.630111
0.579590	1.629387
0.579687	1.628785
0.579785	1.628178
0.579883	1.627821
0.579980	1.627597
0.580078	1.627777
0.580176	1.628006
0.580273	1.628482
0.580371	1.629124
0.580469	1.629834
0.580566	1.630709
0.580664	1.631478
0.580762	1.632366
0.580859	1.633120
0.580957	1.633714
0.581055	1.634212
0.581152	1.634449
0.581250	1.634460
0.581348	1.634360
0.581445	1.633924
0.581543	1.633507
0.581641	1.632784
0.581738	1.632134
0.581836	1.631265
0.581934	1.630556
0.582031	1.629750
0.582129	1.629053
0.582227	1.628492
0.582324	1.628101
0.582422	1.627946
0.582520	1.627942
0.582617	1.628118
0.582715	1.628537
0.582812	1.629286
0.582910	1.630060
0.583008	1.631010
0.583105	1.631868
0.583203	1.632745
0.583301	1.633566
0.583398	1.634226
0.583496	1.634710
0.583594	1.635002
0.583691	1.635044
0.583789	1.634905
0.583887	1.634603
0.583984	1.634193
0.584082	1.633489
0.584180	1.632701
0.584277	1.632053
0.584375	1.631199
0.584473	1.630456
0.584570	1.629777
0.584668	1.629280
0.584766	1.629001
0.584863	1.628886
0.584961	1.629050
0.585059	1.629395
0.585156	1.629836
0.585254	1.630411
0.585352	1.631197
0.585449	1.631913
0.585547	1.632713
0.585645	1.633393
0.585742	1.634039
0.585840	1.634507
0.585937	1.634769
0.586035	1.634678
0.586133	1.634515
0.586230	1.634029
0.586328	1.633396
0.586426	1.632509
0.586523	1.631592
0.586621	1.630686
0.586719	1.629881
0.586816	1.629087
0.586914	1.628475
0.587012	1.628052
0.587109	1.627863
0.587207	1.627896
0.587305	1.628131
0.587402	1.628519
0.587500	1.629131
0.587598	1.629897
0.587695	1.630718
0.587793	1.631508
0.587891	1.632389
0.587988	1.633006
0.588086	1.633725
0.588184	1.634053
0.588281	1.634296
0.588379	1.634282
0.588477	1.634080
0.588574	1.633787
0.588672	1.633353
0.588770	1.632884
0.588867	1.632340
0.588965	1.631721
0.589062	1.631145
0.589160	1.630610
0.589258	1.630061
0.589355	1.629629
0.589453	1.629311
0.589551	1.629171
0.589648	1.629219
0.589746	1.629364
0.589844	1.629676
0.589941	1.630144
0.590039	1.630718
0.590137	1.631491
0.590234	1.632238
0.590332	1.632956
0.590430	1.633697
0.590527	1.634280
0.590625	1.634578
0.590723	1.634801
0.590820	1.634783
0.590918	1.634658
0.591016	1.634307
0.591113	1.633840
0.591211	1.633092
0.591309	1.632466
0.591406	1.631748
0.591504	1.630954
0.591602	1.630329
0.591699	1.629698
0.591797	1.629109
0.591895	1.628782
0.591992	1.628614
0.592090	1.628480
0.592187	1.628766
0.592285	1.629174
0.592383	1.629674
0.592480	1.630291
0.592578	1.630986
0.592676	1.631649
0.592773	1.632339
0.592871	1.632978
0.592969	1.633505
0.593066	1.633824
0.593164	1.633889
0.593262	1.634019
0.593359	1.633745
0.593457	1.633460
0.593555	1.632852
0.593652	1.632239
0.593750	1.631592
0.593848	1.630858
0.593945	1.630205
0.594043	1.629492
0.594141	1.628986
0.594238	1.628618
0.594336	1.628470
0.594434	1.628450
0.594531	1.628718
0.594629	1.629127
0.594727	1.629759
0.594824	1.630581
0.594922	1.631292
0.595020	1.632120
0.595117	1.632993
0.595215	1.633496
0.595312	1.634162
0.595410	1.634485
0.595508	1.634655
0.595605	1.634676
0.595703	1.634421
0.595801	1.633983
0.595898	1.633417
0.595996	1.632680
0.596094	1.631867
0.596191	1.631035
0.596289	1.630276
0.596387	1.629364
0.596484	1.628800
0.596582	1.628153
0.596680	1.627906
0.596777	1.627631
0.596875	1.627690
0.596973	1.628156
0.597070	1.628531
0.597168	1.629302
0.597266	1.630012
0.597363	1.630852
0.597461	1.631541
0.597559	1.632301
0.597656	1.632960
0.597754	1.633492
0.597852	1.633713
0.597949	1.633805
0.598047	1.633767
0.598145	1.633511
0.598242	1.632914
0.598340	1.632520
0.598437	1.631877
0.598535	1.631131
0.598633	1.630534
0.598730	1.629942
0.598828	1.629370
0.598926	1.629129
0.599023	1.628877
0.599121	1.628876
0.599219	1.629101
0.599316	1.629485
0.599414	1.629996
0.599512	1.630674
0.599609	1.631387
0.599707	1.632182
0.599805	1.632793
0.599902	1.633468
0.600000	1.633936
0.600098	1.634253
0.600195	1.634557
0.600293	1.634633
0.600391	1.634659
0.600488	1.634467
0.600586	1.634124
0.600684	1.633716
0.600781	1.633119
0.600879	1.632433
0.600977	1.631774
0.601074	1.630984
0.601172	1.630254
0.601270	1.629698
0.601367	1.629178
0.601465	1.628894
0.601562	1.628795
0.601660	1.628893
0.601758	1.629206
0.601855	1.629654
0.601953	1.630133
0.602051	1.630871
0.602148	1.631555
0.602246	1.632293
0.602344	1.632857
0.602441	1.633457
0.602539	1.633615
0.602637	1.633753
0.602734	1.633585
0.602832	1.633409
0.602930	1.632989
0.603027	1.632514
0.603125	1.631851
0.603223	1.631190
0.603320	1.630424
0.603418	1.629726
0.603516	1.629080
0.603613	1.628573
0.603711	1.628233
0.603809	1.628020
0.603906	1.628082
0.604004	1.628239
0.604102	1.628798
0.604199	1.629358
0.604297	1.630180
0.604395	1.630968
0.604492	1.631818
0.604590	1.632610
0.604687	1.633272
0.604785	1.633880
0.604883	1.634168
0.604980	1.634391
0.605078	1.634423
0.605176	1.634233
0.605273	1.633784
0.605371	1.633253
0.605469	1.632671
0.605566	1.631941
0.605664	1.631192
0.605762	1.630472
0.605859	1.629867
0.605957	1.629318
0.606055	1.628889
0.606152	1.628672
0.606250	1.628584
0.606348	1.628668
0.606445	1.629027
0.606543	1.629528
0.606641	1.630173
0.606738	1.630857
0.606836	1.631682
0.606934	1.632518
0.607031	1.633305
0.607129	1.634027
0.607227	1.634672
0.607324	1.635097
0.607422	1.635254
0.607520	1.635169
0.607617	1.634927
0.607715	1.634558
0.607812	1.634043
0.607910	1.633304
0.608008	1.632614
0.608105	1.631945
0.608203	1.631054
0.608301	1.630394
0.608398	1.629834
0.608496	1.629274
0.608594	1.628992
0.608691	1.628797
0.608789	1.628833
0.608887	1.628969
0.608984	1.629462
0.609082	1.630000
0.609180	1.630772
0.609277	1.631571
0.609375	1.632426
0.609473	1.633163
0.609570	1.633696
0.609668	1.634216
0.609766	1.634308
0.609863	1.634356
0.609961	1.634166
0.610059	1.633711
0.610156	1.633122
0.610254	1.632582
0.610352	1.631815
0.610449	1.631083
0.610547	1.630299
0.610645	1.629667
0.610742	1.628967
0.610840	1.628652
0.610937	1.628431
0.611035	1.628476
0.611133	1.628676
0.611230	1.629180
0.611328	1.629891
0.611426	1.630572
0.611523	1.631464
0.611621	1.632268
0.611719	1.633125
0.611816	1.633944
0.611914	1.634501
0.612012	1.634873
0.612109	1.635120
0.612207	1.634988
0.612305	1.634750
0.612402	1.634231
0.612500	1.633574
0.612598	1.632762
0.612695	1.631934
0.612793	1.631157
0.612891	1.630578
0.612988	1.629864
0.613086	1.629336
0.613184	1.628923
0.613281	1.628720
0.613379	1.628613
0.613477	1.628807
0.613574	1.629023
0.613672	1.629665
0.613770	1.630198
0.613867	1.630947
0.613965	1.631789
0.614062	1.632581
0.614160	1.633515
0.614258	1.634183
0.614355	1.634809
0.614453	1.635146
0.614551	1.635182
0.614648	1.635133
0.614746	1.634607
0.614844	1.634056
0.614941	1.633290
0.615039	1.632360
0.615137	1.631566
0.615234	1.630888
0.615332	1.630127
0.615430	1.629587
0.615527	1.629130
0.615625	1.628932
0.615723	1.628861
0.615820	1.628959
0.615918	1.629288
0.616016	1.629679
0.616113	1.630302
0.616211	1.630929
0.616309	1.631625
0.616406	1.632334
0.616504	1.633045
0.616602	1.633639
0.616699	1.634054
0.616797	1.634239
0.616895	1.634356
0.616992	1.634291
0.617090	1.633892
0.617187	1.633499
0.617285	1.632832
0.617383	1.632142
0.617480	1.631389
0.617578	1.630732
0.617676	1.629977
0.617773	1.629325
0.617871	1.628918
0.617969	1.628633
0.618066	1.628592
0.618164	1.628689
0.618262	1.628859
0.618359	1.629457
0.618457	1.630108
0.618555	1.630820
0.618652	1.631677
0.618750	1.632476
0.618848	1.633342
0.618945	1.633957
0.619043	1.634499
0.619141	1.634923
0.619238	1.635049
0.619336	1.635067
0.619434	1.634846
0.619531	1.634529
0.619629	1.633952
0.619727	1.633177
0.619824	1.632418
0.619922	1.631599
0.620020	1.630832
0.620117	1.630099
0.620215	1.629535
0.620312	1.629136
0.620410	1.628858
0.620508	1.628782
0.620605	1.628691
0.620703	1.628861
0.620801	1.629295
0.620898	1.629882
0.620996	1.630491
0.621094	1.631176
0.621191	1.631986
0.621289	1.632779
0.621387	1.633287
0.621484	1.633764
0.621582	1.634081
0.621680	1.634155
0.621777	1.633941
0.621875	1.633748
0.621973	1.633151
0.622070	1.632661
0.622168	1.631954
0.622266	1.631278
0.622363	1.630601
0.622461	1.629895
0.622559	1.629310
0.622656	1.628770
0.622754	1.628424
0.622852	1.628331
0.622949	1.628316
0.623047	1.628547
0.623145	1.628872
0.623242	1.629383
0.623340	1.629985
0.623437	1.630749
0.623535	1.631506
0.623633	1.632347
0.623730	1.633156
0.623828	1.633750
0.623926	1.634322
0.624023	1.634669
0.624121	1.634952
0.624219	1.634843
0.624316	1.634679
0.624414	1.634190
0.624512	1.633613
0.624609	1.632982
0.624707	1.632151
0.624805	1.631372
0.624902	1.630687
0.625000	1.629934
0.625098	1.629379
0.625195	1.629003
0.625293	1.628765
0.625391	1.628788
0.625488	1.629000
0.625586	1.629421
0.625684	1.629978
0.625781	1.630596
0.625879	1.631390
0.625977	1.632113
0.626074	1.632785
0.626172	1.633474
0.626270	1.633872
0.626367	1.634212
0.626465	1.634450
0.626562	1.634446
0.626660	1.634249
0.626758	1.633867
0.626855	1.633269
0.626953	1.632602
0.627051	1.631682
0.627148	1.630796
0.627246	1.630050
0.627344	1.629207
0.627441	1.628608
0.627539	1.628209
0.627637	1.627996
0.627734	1.628023
0.627832	1.628342
0.627930	1.628796
0.628027	1.629516
0.628125	1.630298
0.628223	1.631110
0.628320	1.632057
0.628418	1.632822
0.628516	1.633469
0.628613	1.634000
0.628711	1.634300
0.628809	1.634354
0.628906	1.634332
0.629004	1.634008
0.629102	1.633538
0.629199	1.633067
0.629297	1.632561
0.629395	1.631926
0.629492	1.631257
0.629590	1.630659
0.629687	1.630005
0.629785	1.629520
0.629883	1.629061
0.629980	1.628847
0.630078	1.628773
0.630176	1.628999
0.630273	1.629368
0.630371	1.629859
0.630469	1.630575
0.630566	1.631283
0.630664	1.631993
0.630762	1.632824
0.630859	1.633429
0.630957	1.634038
0.631055	1.634445
0.631152	1.634714
0.631250	1.634713
0.631348	1.634548
0.631445	1.634139
0.631543	1.633548
0.631641	1.632959
0.631738	1.632181
0.631836	1.631451
0.631934	1.630697
0.632031	1.629937
0.632129	1.629382
0.632227	1.628832
0.632324	1.628544
0.632422	1.628421
0.632520	1.628505
0.632617	1.628667
0.632715	1.629039
0.632812	1.629695
0.632910	1.630440
0.633008	1.631152
0.633105	1.631904
0.633203	1.632579
0.633301	1.633124
0.633398	1.633703
0.633496	1.633948
0.633594	1.634160
0.633691	1.634233
0.633789	1.633991
0.633887	1.633671
0.633984	1.633111
0.634082	1.632495
0.634180	1.631788
0.634277	1.631037
0.634375	1.630216
0.634473	1.629531
0.634570	1.628963
0.634668	1.628594
0.634766	1.628422
0.634863	1.628394
0.634961	1.628632
0.635059	1.628941
0.635156	1.629545
0.635254	1.630221
0.635352	1.630952
0.635449	1.631858
0.635547	1.632524
0.635645	1.633214
0.635742	1.633832
0.635840	1.634163
0.635937	1.634427
0.636035	1.634484
0.636133	1.634303
0.636230	1.634023
0.636328	1.633507
0.636426	1.632916
0.636523	1.632268
0.636621	1.631553
0.636719	1.630775
0.636816	1.630093
0.636914	1.629446
0.637012	1.629048
0.637109	1.628740
0.637207	1.628654
0.637305	1.628688
0.637402	1.629023
0.637500	1.629453
0.637598	1.629994
0.637695	1.630811
0.637793	1.631621
0.637891	1.632383
0.637988	1.633145
0.638086	1.633887
0.638184	1.634327
0.638281	1.634753
0.638379	1.634783
0.638477	1.634687
0.638574	1.634340
0.638672	1.633804
0.638770	1.633199
0.638867	1.632514
0.638965	1.631716
0.639062	1.630936
0.639160	1.630252
0.639258	1.629627
0.639355	1.629004
0.639453	1.628665
0.639551	1.628534
0.639648	1.628582
0.639746	1.628749
0.639844	1.629171
0.639941	1.629727
0.640039	1.630396
0.640137	1.631078
0.640234	1.631907
0.640332	1.632726
0.640430	1.633328
0.640527	1.633859
0.640625	1.634102
0.640723	1.634165
0.640820	1.634044
0.640918	1.633676
0.641016	1.633192
0.641113	1.632457
0.641211	1.631729
0.641309	1.630927
0.641406	1.630119
0.641504	1.629448
0.641602	1.628828
0.641699	1.628366
0.641797	1.628165
0.641895	1.627990
0.641992	1.627938
0.642090	1.628297
0.642187	1.628648
0.642285	1.629244
0.642383	1.629958
0.642480	1.630687
0.642578	1.631566
0.642676	1.632208
0.642773	1.632945
0.642871	1.633748
0.642969	1.634134
0.643066	1.634474
0.643164	1.634512
0.643262	1.634452
0.643359	1.634137
0.643457	1.633818
0.643555	1.633372
0.643652	1.632776
0.643750	1.632050
0.643848	1.631446
0.643945	1.630714
0.644043	1.629890
0.644141	1.629293
0.644238	1.628745
0.644336	1.628370
0.644434	1.628189
0.644531	1.628214
0.644629	1.628450
0.644727	1.628916
0.644824	1.629521
0.644922	1.630226
0.645020	1.630997
0.645117	1.631767
0.645215	1.632529
0.645312	1.633191
0.645410	1.633675
0.645508	1.634091
0.645605	1.634404
0.645703	1.634229
0.645801	1.634101
0.645898	1.633697
0.645996	1.633125
0.646094	1.632471
0.646191	1.631730
0.646289	1.631077
0.646387	1.630454
0.646484	1.629946
0.646582	1.629447
0.646680	1.629217
0.646777	1.629003
0.646875	1.628996
0.646973	1.629156
0.647070	1.629275
0.647168	1.629775
0.647266	1.630334
0.647363	1.631043
0.647461	1.631714
0.647559	1.632406
0.647656	1.633026
0.647754	1.633596
0.647852	1.633976
0.647949	1.634139
0.648047	1.634169
0.648145	1.633978
0.648242	1.633455
0.648340	1.632937
0.648437	1.632272
0.648535	1.631480
0.648633	1.630659
0.648730	1.629876
0.648828	1.629299
0.648926	1.628770
0.649023	1.628454
0.649121	1.628225
0.649219	1.628329
0.649316	1.628605
0.649414	1.629089
0.649512	1.629734
0.649609	1.630468
0.649707	1.631191
0.649805	1.631943
0.649902	1.632733
0.650000	1.633354
0.650098	1.633862
0.650195	1.634240
0.650293	1.634434
0.650391	1.634388
0.650488	1.634208
0.650586	1.633689
0.650684	1.633009
0.650781	1.632342
0.650879	1.631481
0.650977	1.630792
0.651074	1.629975
0.651172	1.629233
0.651270	1.628651
0.651367	1.628207
0.651465	1.628034
0.651562	1.628052
0.651660	1.628339
0.651758	1.628714
0.651855	1.629462
0.651953	1.630243
0.652051	1.631048
0.652148	1.632015
0.652246	1.632832
0.652344	1.633589
0.652441	1.634121
0.652539	1.634351
0.652637	1.634207
0.652734	1.633936
0.652832	1.633590
0.652930	1.633102
0.653027	1.632532
0.653125	1.631794
0.653223	1.631082
0.653320	1.630322
0.653418	1.629603
0.653516	1.629042
0.653613	1.628526
0.653711	1.628216
0.653809	1.628092
0.653906	1.628184
0.654004	1.628520
0.654102	1.628858
0.654199	1.629526
0.654297	1.630330
0.654395	1.631098
0.654492	1.631918
0.654590	1.632794
0.654687	1.633417
0.654785	1.633993
0.654883	1.634375
0.654980	1.634607
0.655078	1.634626
0.655176	1.634570
0.655273	1.634291
0.655371	1.633943
0.655469	1.633424
0.655566	1.632818
0.655664	1.632189
0.655762	1.631311
0.655859	1.630572
0.655957	1.629913
0.656055	1.629205
0.656152	1.628759
0.656250	1.628371
0.656348	1.628162
0.656445	1.628301
0.656543	1.628430
0.656641	1.628887
0.656738	1.629455
0.656836	1.630197
0.656934	1.630802
0.657031	1.631577
0.657129	1.632236
0.657227	1.632646
0.657324	1.633112
0.657422	1.633357
0.657520	1.633439
0.657617	1.633288
0.657715	1.633208
0.657812	1.632948
0.657910	1.632546
0.658008	1.632119
0.658105	1.631630
0.658203	1.631107
0.658301	1.630520
0.658398	1.630104
0.658496	1.629700
0.658594	1.629501
0.658691	1.629377
0.658789	1.629443
0.658887	1.629693
0.658984	1.629960
0.659082	1.630528
0.659180	1.631195
0.659277	1.631839
0.659375	1.632626
0.659473	1.633322
0.659570	1.634087
0.659668	1.634560
0.659766	1.634880
0.659863	1.634968
0.659961	1.634840
0.660059	1.634456
0.660156	1.633954
0.660254	1.633451
0.660352	1.632774
0.660449	1.632068
0.660547	1.631317
0.660645	1.630684
0.660742	1.630098
0.660840	1.629567
0.660937	1.629311
0.661035	1.629084
0.661133	1.629095
0.661230	1.629310
0.661328	1.629646
0.661426	1.630084
0.661523	1.630716
0.661621	1.631413
0.661719	1.632153
0.661816	1.632976
0.661914	1.633588
0.662012	1.634203
0.662109	1.634731
0.662207	1.634962
0.662305	1.635191
0.662402	1.635024
0.662500	1.634725
0.662598	1.634232
0.662695	1.633366
0.662793	1.632586
0.662891	1.631893
0.662988	1.630980
0.663086	1.630257
0.663184	1.629340
0.663281	1.628798
0.663379	1.628298
0.663477	1.627941
0.663574	1.627853
0.663672	1.628031
0.663770	1.628337
0.663867	1.628912
0.663965	1.629625
0.664062	1.630370
0.664160	1.631355
0.664258	1.632047
0.664355	1.632867
0.664453	1.633366
0.664551	1.633671
0.664648	1.633862
0.664746	1.633839
0.664844	1.633541
0.664941	1.633238
0.665039	1.632572
0.665137	1.631914
0.665234	1.631287
0.665332	1.630535
0.665430	1.629915
0.665527	1.629273
0.665625	1.628793
0.665723	1.628288
0.665820	1.628104
0.665918	1.628046
0.666016	1.628198
0.666113	1.628461
0.666211	1.629066
0.666309	1.629675
0.666406	1.630551
0.666504	1.631375
0.666602	1.632233
0.666699	1.632950
0.666797	1.633754
0.666895	1.634304
0.666992	1.634690
0.667090	1.634852
0.667187	1.634899
0.667285	1.634631
0.667383	1.634286
0.667480	1.633642
0.667578	1.633017
0.667676	1.632347
0.667773	1.631650
0.667871	1.630978
0.667969	1.630318
0.668066	1.629907
0.668164	1.629573
0.668262	1.629379
0.668359	1.629384
0.668457	1.629607
0.668555	1.629859
0.668652	1.630376
0.668750	1.631041
0.668848	1.631750
0.668945	1.632451
0.669043	1.633204
0.669141	1.633854
0.669238	1.634353
0.669336	1.634640
0.669434	1.634820
0.669531	1.634867
0.669629	1.634684
0.669727	1.634271
0.669824	1.633723
0.669922	1.633030
0.670020	1.632309
0.670117	1.631558
0.670215	1.630791
0.670312	1.630119
0.670410	1.629390
0.670508	1.628936
0.670605	1.628628
0.670703	1.628520
0.670801	1.628612
0.670898	1.628785
0.670996	1.629341
0.671094	1.629983
0.671191	1.630644
0.671289	1.631455
0.671387	1.632316
0.671484	1.633036
0.671582	1.633740
0.671680	1.634196
0.671777	1.634495
0.671875	1.634584
0.671973	1.634385
0.672070	1.634100
0.672168	1.633653
0.672266	1.633180
0.672363	1.632580
0.672461	1.631907
0.672559	1.631350
0.672656	1.630624
0.672754	1.630183
0.672852	1.629914
0.672949	1.629734
0.673047	1.629690
0.673145	1.629784
0.673242	1.629984
0.673340	1.630388
0.673437	1.630913
0.673535	1.631492
0.673633	1.632107
0.673730	1.632821
0.673828	1.633429
0.673926	1.633800
0.674023	1.634168
0.674121	1.634252
0.674219	1.634233
0.674316	1.634080
0.674414	1.633773
0.674512	1.633325
0.674609	1.632814
0.674707	1.632136
0.674805	1.631506
0.674902	1.630756
0.675000	1.630094
0.675098	1.629404
0.675195	1.628900
0.675293	1.628526
0.675391	1.628300
0.675488	1.628283
0.675586	1.628643
0.675684	1.628972
0.675781	1.629577
0.675879	1.630226
0.675977	1.630961
0.676074	1.631708
0.676172	1.632322
0.676270	1.632883
0.676367	1.633249
0.676465	1.633473
0.676562	1.633534
0.676660	1.633368
0.676758	1.633098
0.676855	1.632686
0.676953	1.632190
0.677051	1.631650
0.677148	1.631010
0.677246	1.630470
0.677344	1.629891
0.677441	1.629366
0.677539	1.629111
0.677637	1.628873
0.677734	1.628848
0.677832	1.629019
0.677930	1.629297
0.678027	1.629812
0.678125	1.630425
0.678223	1.631151
0.678320	1.631802
0.678418	1.632500
0.678516	1.633255
0.678613	1.633860
0.678711	1.634460
0.678809	1.634693
0.678906	1.634912
0.679004	1.634920
0.679102	1.634692
0.679199	1.634272
0.679297	1.633807
0.679395	1.633067
0.679492	1.632444
0.679590	1.631653
0.679687	1.631001
0.679785	1.630158
0.679883	1.629503
0.679980	1.629104
0.680078	1.628645
0.680176	1.628585
0.680273	1.628722
0.680371	1.629018
0.680469	1.629486
0.680566	1.630173
0.680664	1.630923
0.680762	1.631764
0.680859	1.632674
0.680957	1.633582
0.681055	1.634265
0.681152	1.634924
0.681250	1.635291
0.681348	1.635348
0.681445	1.635153
0.681543	1.634876
0.681641	1.634225
0.681738	1.633447
0.681836	1.632656
0.681934	1.631776
0.682031	1.630842
0.682129	1.630069
0.682227	1.629272
0.682324	1.628775
0.682422	1.628428
0.682520	1.628140
0.682617	1.628122
0.682715	1.628186
0.682812	1.628625
0.682910	1.629225
0.683008	1.629982
0.683105	1.630638
0.683203	1.631448
0.683301	1.632059
0.683398	1.632741
0.683496	1.633287
0.683594	1.633469
0.683691	1.633685
0.683789	1.633606
0.683887	1.633535
0.683984	1.633275
0.684082	1.632840
0.684180	1.632359
0.684277	1.631744
0.684375	1.631146
0.684473	1.630517
0.684570	1.629910
0.684668	1.629462
0.684766	1.629034
0.684863	1.628902
0.684961	1.628799
0.685059	1.628972
0.685156	1.629283
0.685254	1.629719
0.685352	1.630273
0.685449	1.631036
0.685547	1.631728
0.685645	1.632657
0.685742	1.633296
0.685840	1.633964
0.685937	1.634496
0.686035	1.634893
0.686133	1.635141
0.686230	1.635007
0.686328	1.634900
0.686426	1.634434
0.686523	1.633875
0.686621	1.633142
0.686719	1.632330
0.686816	1.631500
0.686914	1.630692
0.687012	1.629978
0.687109	1.629496
0.687207	1.629048
0.687305	1.628872
0.687402	1.628904
0.687500	1.628992
0.687598	1.629481
0.687695	1.629955
0.687793	1.630542
0.687891	1.631241
0.687988	1.631924
0.688086	1.632560
0.688184	1.633273
0.688281	1.633833
0.688379	1.634222
0.688477	1.634450
0.688574	1.634604
0.688672	1.634465
0.688770	1.634192
0.688867	1.633777
0.688965	1.633228
0.689062	1.632632
0.689160	1.631935
0.689258	1.631265
0.689355	1.630605
0.689453	1.630033
0.689551	1.629608
0.689648	1.629413
0.689746	1.629352
0.689844	1.629380
0.689941	1.629740
0.690039	1.630205
0.690137	1.630731
0.690234	1.631508
0.690332	1.632207
0.690430	1.632937
0.690527	1.633570
0.690625	1.633930
0.690723	1.634298
0.690820	1.634366
0.690918	1.634324
0.691016	1.634090
0.691113	1.633779
0.691211	1.633317
0.691309	1.632704
0.691406	1.632040
0.691504	1.631401
0.691602	1.630661
0.691699	1.630012
0.691797	1.629512
0.691895	1.629094
0.691992	1.628815
0.692090	1.628680
0.692187	1.628757
0.692285	1.629101
0.692383	1.629483
0.692480	1.630099
0.692578	1.630771
0.692676	1.631368
0.692773	1.632153
0.692871	1.632894
0.692969	1.633535
0.693066	1.633978
0.693164	1.634304
0.693262	1.634474
0.693359	1.634392
0.693457	1.634331
0.693555	1.633931
0.693652	1.633642
0.693750	1.633022
0.693848	1.632337
0.693945	1.631643
0.694043	1.630824
0.694141	1.630191
0.694238	1.629642
0.694336	1.629214
0.694434	1.628936
0.694531	1.628832
0.694629	1.628962
0.694727	1.629329
0.694824	1.629775
0.694922	1.630399
0.695020	1.631095
0.695117	1.631750
0.695215	1.632549
0.695312	1.633163
0.695410	1.633689
0.695508	1.634103
0.695605	1.634374
0.695703	1.634382
0.695801	1.634212
0.695898	1.633876
0.695996	1.633371
0.696094	1.632814
0.696191	1.632148
0.696289	1.631387
0.696387	1.630622
0.696484	1.629953
0.696582	1.629333
0.696680	1.628831
0.696777	1.628505
0.696875	1.628298
0.696973	1.628330
0.697070	1.628566
0.697168	1.628881
0.697266	1.629437
0.697363	1.630141
0.697461	1.630875
0.697559	1.631609
0.697656	1.632460
0.697754	1.633137
0.697852	1.633732
0.697949	1.634245
0.698047	1.634479
0.698145	1.634568
0.698242	1.634525
0.698340	1.634255
0.698437	1.633775
0.698535	1.633217
0.698633	1.632590
0.698730	1.631750
0.698828	1.631005
0.698926	1.630385
0.699023	1.629827
0.699121	1.629453
0.699219	1.629202
0.699316	1.629130
0.699414	1.629293
0.699512	1.629706
0.699609	1.630033
0.699707	1.630631
0.699805	1.631261
0.699902	1.631957
0.700000	1.632575
0.700098	1.633179
0.700195	1.633864
0.700293	1.634385
0.700391	1.634745
0.700488	1.634958
0.700586	1.635042
0.700684	1.634937
0.700781	1.634580
0.700879	1.634027
0.700977	1.633538
0.701074	1.632726
0.701172	1.631980
0.701270	1.631223
0.701367	1.630428
0.701465	1.629913
0.701562	1.629487
0.701660	1.629428
0.701758	1.629279
0.701855	1.629596
0.701953	1.629961
0.702051	1.630504
0.702148	1.631187
0.702246	1.631962
0.702344	1.632709
0.702441	1.633454
0.702539	1.633972
0.702637	1.634499
0.702734	1.634799
0.702832	1.635055
0.702930	1.634993
0.703027	1.634831
0.703125	1.634409
0.703223	1.633803
0.703320	1.632986
0.703418	1.632126
0.703516	1.631152
0.703613	1.630282
0.703711	1.629410
0.703809	1.628657
0.703906	1.628184
0.704004	1.628000
0.704102	1.627869
0.704199	1.627975
0.704297	1.628450
0.704395	1.628909
0.704492	1.629534
0.704590	1.630282
0.704687	1.630987
0.704785	1.631712
0.704883	1.632254
0.704980	1.632696
0.705078	1.633073
0.705176	1.633285
0.705273	1.633357
0.705371	1.633142
0.705469	1.632907
0.705566	1.632561
0.705664	1.632116
0.705762	1.631478
0.705859	1.630972
0.705957	1.630318
0.706055	1.629885
0.706152	1.629360
0.706250	1.629030
0.706348	1.628881
0.706445	1.628878
0.706543	1.629133
0.706641	1.629484
0.706738	1.630055
0.706836	1.630733
0.706934	1.631425
0.707031	1.632096
0.707129	1.632940
0.707227	1.633419
0.707324	1.633937
0.707422	1.634191
0.707520	1.634249
0.707617	1.634074
0.707715	1.633823
0.707812	1.633336
0.707910	1.632721
0.708008	1.632099
0.708105	1.631365
0.708203	1.630689
0.708301	1.630030
0.708398	1.629463
0.708496	1.628997
0.708594	1.628790
0.708691	1.628526
0.708789	1.628679
0.708887	1.628990
0.708984	1.629369
0.709082	1.629981
0.709180	1.630720
0.709277	1.631536
0.709375	1.632325
0.709473	1.633158
0.709570	1.633818
0.709668	1.634412
0.709766	1.634734
0.709863	1.634946
0.709961	1.634897
0.710059	1.634621
0.710156	1.634318
0.710254	1.633859
0.710352	1.633330
0.710449	1.632602
0.710547	1.631884
0.710645	1.631065
0.710742	1.630279
0.710840	1.629601
0.710937	1.629155
0.711035	1.628799
0.711133	1.628616
0.711230	1.628799
0.711328	1.629089
0.711426	1.629603
0.711523	1.630108
0.711621	1.630891
0.711719	1.631665
0.711816	1.632524
0.711914	1.633333
0.712012	1.633889
0.712109	1.634388
0.712207	1.634699
0.712305	1.634692
0.712402	1.634620
0.712500	1.634218
0.712598	1.633689
0.712695	1.632810
0.712793	1.631988
0.712891	1.631176
0.712988	1.630374
0.713086	1.629632
0.713184	1.628967
0.713281	1.628466
0.713379	1.628191
0.713477	1.627975
0.713574	1.628045
0.713672	1.628228
0.713770	1.628610
0.713867	1.629216
0.713965	1.629908
0.714062	1.630700
0.714160	1.631539
0.714258	1.632428
0.714355	1.633155
0.714453	1.633799
0.714551	1.634205
0.714648	1.634510
0.714746	1.634523
0.714844	1.634436
0.714941	1.634141
0.715039	1.633809
0.715137	1.633126
0.715234	1.632609
0.715332	1.631888
0.715430	1.631152
0.715527	1.630354
0.715625	1.629695
0.715723	1.629190
0.715820	1.628735
0.715918	1.628509
0.716016	1.628388
0.716113	1.628619
0.716211	1.628900
0.716309	1.629512
0.716406	1.630086
0.716504	1.630887
0.716602	1.631652
0.716699	1.632460
0.716797	1.633155
0.716895	1.633804
0.716992	1.634130
0.717090	1.634394
0.717187	1.634315
0.717285	1.634097
0.717383	1.633603
0.717480	1.633105
0.717578	1.632441
0.717676	1.631733
0.717773	1.631112
0.717871	1.630504
0.717969	1.629742
0.718066	1.629368
0.718164	1.628980
0.718262	1.628771
0.718359	1.628697
0.718457	1.628835
0.718555	1.629161
0.718652	1.629642
0.718750	1.630208
0.718848	1.630916
0.718945	1.631708
0.719043	1.632364
0.719141	1.632984
0.719238	1.633566
0.719336	1.633944
0.719434	1.634276
0.719531	1.634257
0.719629	1.634220
0.719727	1.633876
0.719824	1.633374
0.719922	1.632845
0.720020	1.632151
0.720117	1.631425
0.720215	1.630682
0.720312	1.630008
0.720410	1.629427
0.720508	1.628958
0.720605	1.628579
0.720703	1.628502
0.720801	1.628507
0.720898	1.628818
0.720996	1.629209
0.721094	1.629811
0.721191	1.630594
0.721289	1.631394
0.721387	1.632201
0.721484	1.633137
0.721582	1.633871
0.721680	1.634446
0.721777	1.634899
0.721875	1.635130
0.721973	1.635099
0.722070	1.634911
0.722168	1.634590
0.722266	1.633995
0.722363	1.633307
0.722461	1.632430
0.722559	1.631545
0.722656	1.630659
0.722754	1.629751
0.722852	1.629236
0.722949	1.628686
0.723047	1.628379
0.723145	1.628231
0.723242	1.628424
0.723340	1.628650
0.723437	1.629222
0.723535	1.629912
0.723633	1.630691
0.723730	1.631466
0.723828	1.632255
0.723926	1.633006
0.724023	1.633673
0.724121	1.633923
0.724219	1.634117
0.724316	1.634031
0.724414	1.633765
0.724512	1.633400
0.724609	1.632787
0.724707	1.632221
0.724805	1.631473
0.724902	1.630799
0.725000	1.630182
0.725098	1.629632
0.725195	1.629104
0.725293	1.628795
0.725391	1.628686
0.725488	1.628686
0.725586	1.628943
0.725684	1.629382
0.725781	1.629927
0.725879	1.630615
0.725977	1.631474
0.726074	1.632227
0.726172	1.633011
0.726270	1.633780
0.726367	1.634307
0.726465	1.634795
0.726562	1.634913
0.726660	1.634996
0.726758	1.634704
0.726855	1.634202
0.726953	1.633563
0.727051	1.632757
0.727148	1.631927
0.727246	1.631113
0.727344	1.630397
0.727441	1.629806
0.727539	1.629355
0.727637	1.629067
0.727734	1.628906
0.727832	1.629001
0.727930	1.629310
0.728027	1.629779
0.728125	1.630380
0.728223	1.631103
0.728320	1.631923
0.728418	1.632764
0.728516	1.633573
0.728613	1.634150
0.728711	1.634675
0.728809	1.635007
0.728906	1.635092
0.729004	1.635052
0.729102	1.634795
0.729199	1.634385
0.729297	1.633948
0.729395	1.633299
0.729492	1.632641
0.729590	1.631882
0.729687	1.631091
0.729785	1.630285
0.729883	1.629576
0.729980	1.628904
0.730078	1.628388
0.730176	1.628245
0.730273	1.628219
0.730371	1.628399
0.730469	1.628779
0.730566	1.629411
0.730664	1.630099
0.730762	1.630821
0.730859	1.631663
0.730957	1.632362
0.731055	1.633137
0.731152	1.633624
0.731250	1.634081
0.731348	1.634164
0.731445	1.634095
0.731543	1.633836
0.731641	1.633340
0.731738	1.632663
0.731836	1.631863
0.731934	1.630916
0.732031	1.630018
0.732129	1.629111
0.732227	1.628324
0.732324	1.627766
0.732422	1.627360
0.732520	1.627195
0.732617	1.627320
0.732715	1.627433
0.732812	1.628022
0.732910	1.628722
0.733008	1.629485
0.733105	1.630298
0.733203	1.631170
0.733301	1.631894
0.733398	1.632701
0.733496	1.633295
0.733594	1.633703
0.733691	1.633903
0.733789	1.634018
0.733887	1.633934
0.733984	1.633555
0.734082	1.633152
0.734180	1.632475
0.734277	1.631743
0.734375	1.631007
0.734473	1.630144
0.734570	1.629443
0.734668	1.628784
0.734766	1.628219
0.734863	1.627874
0.734961	1.627705
0.735059	1.627770
0.735156	1.627982
0.735254	1.628377
0.735352	1.628940
0.735449	1.629723
0.735547	1.630409
0.735645	1.631358
0.735742	1.632131
0.735840	1.632874
0.735937	1.633554
0.736035	1.634056
0.736133	1.634367
0.736230	1.634472
0.736328	1.634443
0.736426	1.634104
0.736523	1.633725
0.736621	1.633113
0.736719	1.632381
0.736816	1.631535
0.736914	1.630790
0.737012	1.630034
0.737109	1.629366
0.737207	1.628912
0.737305	1.628530
0.737402	1.628393
0.737500	1.628353
0.737598	1.628607
0.737695	1.629041
0.737793	1.629586
0.737891	1.630301
0.737988	1.631055
0.738086	1.631895
0.738184	1.632701
0.738281	1.633325
0.738379	1.633995
0.738477	1.634376
0.738574	1.634809
0.738672	1.634875
0.738770	1.634903
0.738867	1.634570
0.738965	1.634108
0.739062	1.633541
0.739160	1.632801
0.739258	1.632059
0.739355	1.631315
0.739453	1.630628
0.739551	1.630010
0.739648	1.629529
0.739746	1.629142
0.739844	1.628890
0.739941	1.628923
0.740039	1.628992
0.740137	1.629256
0.740234	1.629809
0.740332	1.630398
0.740430	1.631151
0.740527	1.631843
0.740625	1.632538
0.740723	1.633089
0.740820	1.633727
0.740918	1.634063
0.741016	1.634198
0.741113	1.634191
0.741211	1.634163
0.741309	1.633802
0.741406	1.633308
0.741504	1.632674
0.741602	1.631941
0.741699	1.631167
0.741797	1.630447
0.741895	1.629743
0.741992	1.629231
0.742090	1.628900
0.742187	1.628699
0.742285	1.628720
0.742383	1.628865
0.742480	1.629197
0.742578	1.629855
0.742676	1.630334
0.742773	1.631129
0.742871	1.631941
0.742969	1.632693
0.743066	1.633420
0.743164	1.633848
0.743262	1.634258
0.743359	1.634389
0.743457	1.634528
0.743555	1.634276
0.743652	1.634010
0.743750	1.633546
0.743848	1.633036
0.743945	1.632369
0.744043	1.631697
0.744141	1.631022
0.744238	1.630451
0.744336	1.629892
0.744434	1.629518
0.744531	1.629205
0.744629	1.629014
0.744727	1.629081
0.744824	1.629270
0.744922	1.629602
0.745020	1.630124
0.745117	1.630644
0.745215	1.631382
0.745312	1.631992
0.745410	1.632725
0.745508	1.633323
0.745605	1.633937
0.745703	1.634312
0.745801	1.634646
0.745898	1.634660
0.745996	1.634550
0.746094	1.634252
0.746191	1.633804
0.746289	1.633266
0.746387	1.632533
0.746484	1.631718
0.746582	1.630944
0.746680	1.630082
0.746777	1.629458
0.746875	1.628880
0.746973	1.628436
0.747070	1.628375
0.747168	1.628397
0.747266	1.628707
0.747363	1.629189
0.747461	1.629851
0.747559	1.630623
0.747656	1.631388
0.747754	1.632087
0.747852	1.632774
0.747949	1.633255
0.748047	1.633667
0.748145	1.633881
0.748242	1.633772
0.748340	1.633549
0.748437	1.633161
0.748535	1.632435
0.748633	1.631896
0.748730	1.631121
0.748828	1.630343
0.748926	1.629713
0.749023	1.628974
0.749121	1.628529
0.749219	1.628167
0.749316	1.627995
0.749414	1.628090
0.749512	1.628387
0.749609	1.628821
0.749707	1.629384
0.749805	1.629914
0.749902	1.630614
0.750000	1.631304
0.750098	1.631901
0.750195	1.632527
0.750293	1.633131
0.750391	1.633512
0.750488	1.633750
0.750586	1.633823
0.750684	1.633792
0.750781	1.633646
0.750879	1.633331
0.750977	1.632962
0.751074	1.632547
0.751172	1.632004
0.751270	1.631440
0.751367	1.630874
0.751465	1.630415
0.751562	1.629910
0.751660	1.629562
0.751758	1.629341
0.751855	1.629332
0.751953	1.629429
0.752051	1.629704
0.752148	1.630158
0.752246	1.630702
0.752344	1.631387
0.752441	1.631983
0.752539	1.632643
0.752637	1.633111
0.752734	1.633565
0.752832	1.634030
0.752930	1.634202
0.753027	1.634252
0.753125	1.634066
0.753223	1.633733
0.753320	1.633276
0.753418	1.632670
0.753516	1.632017
0.753613	1.631284
0.753711	1.630586
0.753809	1.630056
0.753906	1.629471
0.754004	1.629123
0.754102	1.628899
0.754199	1.628966
0.754297	1.629122
0.754395	1.629607
0.754492	1.630138
0.754590	1.630727
0.754687	1.631605
0.754785	1.632374
0.754883	1.633056
0.754980	1.633703
0.755078	1.634120
0.755176	1.634521
0.755273	1.634609
0.755371	1.634504
0.755469	1.634151
0.755566	1.633618
0.755664	1.633048
0.755762	1.632179
0.755859	1.631474
0.755957	1.630578
0.756055	1.629970
0.756152	1.629320
0.756250	1.628896
0.756348	1.628704
0.756445	1.628499
0.756543	1.628664
0.756641	1.628963
0.756738	1.629365
0.756836	1.629956
0.756934	1.630634
0.757031	1.631408
0.757129	1.632294
0.757227	1.633022
0.757324	1.633620
0.757422	1.634359
0.757520	1.634893
0.757617	1.635217
0.757715	1.635371
0.757812	1.635396
0.757910	1.635197
0.758008	1.634718
0.758105	1.634135
0.758203	1.633308
0.758301	1.632499
0.758398	1.631611
0.758496	1.630764
0.758594	1.630064
0.758691	1.629433
0.758789	1.628936
0.758887	1.628845
0.758984	1.628742
0.759082	1.628871
0.759180	1.629205
0.759277	1.629772
0.759375	1.630288
0.759473	1.631149
0.759570	1.631853
0.759668	1.632524
0.759766	1.633129
0.759863	1.633587
0.759961	1.633903
0.760059	1.633878
0.760156	1.633827
0.760254	1.633471
0.760352	1.632991
0.760449	1.632323
0.760547	1.631544
0.760645	1.630736
0.760742	1.629952
0.760840	1.629349
0.760937	1.628717
0.761035	1.628338
0.761133	1.628054
0.761230	1.628119
0.761328	1.628244
0.761426	1.628571
0.761523	1.629007
0.761621	1.629598
0.761719	1.630385
0.761816	1.631210
0.761914	1.632132
0.762012	1.632783
0.762109	1.633711
0.762207	1.634351
0.762305	1.634813
0.762402	1.635136
0.762500	1.635252
0.762598	1.635075
0.762695	1.634675
0.762793	1.634177
0.762891	1.633646
0.762988	1.632841
0.763086	1.632016
0.763184	1.631091
0.763281	1.630298
0.763379	1.629596
0.763477	1.629120
0.763574	1.628695
0.763672	1.628666
0.763770	1.628739
0.763867	1.629000
0.763965	1.629586
0.764062	1.630192
0.764160	1.630938
0.764258	1.631630
0.764355	1.632408
0.764453	1.632970
0.764551	1.633493
0.764648	1.633793
0.764746	1.634011
0.764844	1.634088
0.764941	1.633909
0.765039	1.633511
0.765137	1.633056
0.765234	1.632339
0.765332	1.631639
0.765430	1.630868
0.765527	1.630106
0.765625	1.629538
0.765723	1.628939
0.765820	1.628552
0.765918	1.628349
0.766016	1.628300
0.766113	1.628551
0.766211	1.628928
0.766309	1.629499
0.766406	1.630193
0.766504	1.631163
0.766602	1.631962
0.766699	1.632875
0.766797	1.633725
0.766895	1.634431
0.766992	1.634911
0.767090	1.635324
0.767187	1.635444
0.767285	1.635308
0.767383	1.635077
0.767480	1.634463
0.767578	1.633840
0.767676	1.633153
0.767773	1.632321
0.767871	1.631632
0.767969	1.630769
0.768066	1.629921
0.768164	1.629194
0.768262	1.628674
0.768359	1.628288
0.768457	1.628165
0.768555	1.628297
0.768652	1.628637
0.768750	1.629161
0.768848	1.629979
0.768945	1.630774
0.769043	1.631650
0.769141	1.632541
0.769238	1.633256
0.769336	1.633928
0.769434	1.634496
0.769531	1.634678
0.769629	1.634704
0.769727	1.634555
0.769824	1.634106
0.769922	1.633459
0.770020	1.632718
0.770117	1.631794
0.770215	1.631008
0.770312	1.630177
0.770410	1.629510
0.770508	1.628828
0.770605	1.628337
0.770703	1.628061
0.770801	1.627817
0.770898	1.628043
0.770996	1.628208
0.771094	1.628699
0.771191	1.629435
0.771289	1.630111
0.771387	1.630919
0.771484	1.631724
0.771582	1.632444
0.771680	1.633114
0.771777	1.633654
0.771875	1.633979
0.771973	1.634099
0.772070	1.634102
0.772168	1.633884
0.772266	1.633461
0.772363	1.632973
0.772461	1.632316
0.772559	1.631683
0.772656	1.630880
0.772754	1.630145
0.772852	1.629633
0.772949	1.629119
0.773047	1.628841
0.773145	1.628508
0.773242	1.628529
0.773340	1.628691
0.773437	1.629030
0.773535	1.629465
0.773633	1.630142
0.773730	1.630831
0.773828	1.631647
0.773926	1.632446
0.774023	1.633051
0.774121	1.633782
0.774219	1.634332
0.774316	1.634650
0.774414	1.634865
0.774512	1.634848
0.774609	1.634648
0.774707	1.634179
0.774805	1.633632
0.774902	1.632953
0.775000	1.632330
0.775098	1.631414
0.775195	1.630836
0.775293	1.630133
0.775391	1.629527
0.775488	1.629060
0.775586	1.628764
0.775684	1.628583
0.775781	1.628648
0.775879	1.628955
0.775977	1.629392
0.776074	1.630047
0.776172	1.630629
0.776270	1.631516
0.776367	1.632198
0.776465	1.632927
0.776562	1.633553
0.776660	1.633933
0.776758	1.634275
0.776855	1.634376
0.776953	1.634299
0.777051	1.633951
0.777148	1.633501
0.777246	1.632894
0.777344	1.632203
0.777441	1.631433
0.777539	1.630600
0.777637	1.629836
0.777734	1.629159
0.777832	1.628643
0.777930	1.628259
0.778027	1.628118
0.778125	1.628204
0.778223	1.628482
0.778320	1.628970
0.778418	1.629521
0.778516	1.630232
0.778613	1.630882
0.778711	1.631601
0.778809	1.632293
0.778906	1.632789
0.779004	1.633239
0.779102	1.633508
0.779199	1.633576
0.779297	1.633692
0.779395	1.633526
0.779492	1.633227
0.779590	1.632916
0.779687	1.632553
0.779785	1.631974
0.779883	1.631534
0.779980	1.630879
0.780078	1.630400
0.780176	1.630003
0.780273	1.629704
0.780371	1.629554
0.780469	1.629416
0.780566	1.629596
0.780664	1.629774
0.780762	1.630283
0.780859	1.630780
0.780957	1.631506
0.781055	1.632199
0.781152	1.632785
0.781250	1.633396
0.781348	1.633798
0.781445	1.634066
0.781543	1.634056
0.781641	1.633974
0.781738	1.633794
0.781836	1.633402
0.781934	1.632835
0.782031	1.632214
0.782129	1.631550
0.782227	1.630922
0.782324	1.630215
0.782422	1.629573
0.782520	1.629066
0.782617	1.628646
0.782715	1.628349
0.782812	1.628454
0.782910	1.628635
0.783008	1.629063
0.783105	1.629632
0.783203	1.630354
0.783301	1.631038
0.783398	1.631958
0.783496	1.632740
0.783594	1.633510
0.783691	1.634201
0.783789	1.634675
0.783887	1.635035
0.783984	1.635005
0.784082	1.634838
0.784180	1.634437
0.784277	1.633724
0.784375	1.632937
0.784473	1.632042
0.784570	1.631037
0.784668	1.630042
0.784766	1.629222
0.784863	1.628424
0.784961	1.627852
0.785059	1.627459
0.785156	1.627399
0.785254	1.627475
0.785352	1.627833
0.785449	1.628408
0.785547	1.629076
0.785645	1.629834
0.785742	1.630786
0.785840	1.631605
0.785937	1.632243
0.786035	1.632959
0.786133	1.633451
0.786230	1.633723
0.786328	1.633808
0.786426	1.633778
0.786523	1.633570
0.786621	1.633250
0.786719	1.632789
0.786816	1.632273
0.786914	1.631714
0.787012	1.631057
0.787109	1.630447
0.787207	1.629869
0.787305	1.629263
0.787402	1.628896
0.787500	1.628571
0.787598	1.628463
0.787695	1.628463
0.787793	1.628829
0.787891	1.629170
0.787988	1.629706
0.788086	1.630491
0.788184	1.631109
0.788281	1.631847
0.788379	1.632480
0.788477	1.633080
0.788574	1.633451
0.788672	1.633678
0.788770	1.633736
0.788867	1.633684
0.788965	1.633411
0.789062	1.632928
0.789160	1.632330
0.789258	1.631644
0.789355	1.630875
0.789453	1.630083
0.789551	1.629356
0.789648	1.628750
0.789746	1.628309
0.789844	1.628021
0.789941	1.628001
0.790039	1.628217
0.790137	1.628649
0.790234	1.629311
0.790332	1.630050
0.790430	1.630921
0.790527	1.631719
0.790625	1.632438
0.790723	1.633231
0.790820	1.633767
0.790918	1.634211
0.791016	1.634431
0.791113	1.634534
0.791211	1.634299
0.791309	1.634015
0.791406	1.633456
0.791504	1.632873
0.791602	1.632164
0.791699	1.631423
0.791797	1.630614
0.791895	1.629922
0.791992	1.629239
0.792090	1.628671
0.792187	1.628358
0.792285	1.628152
0.792383	1.628106
0.792480	1.628356
0.792578	1.628663
0.792676	1.629197
0.792773	1.629800
0.792871	1.630730
0.792969	1.631518
0.793066	1.632311
0.793164	1.633023
0.793262	1.633482
0.793359	1.633947
0.793457	1.634164
0.793555	1.634280
0.793652	1.634184
0.793750	1.633922
0.793848	1.633606
0.793945	1.633105
0.794043	1.632561
0.794141	1.631912
0.794238	1.631268
0.794336	1.630546
0.794434	1.629892
0.794531	1.629305
0.794629	1.629017
0.794727	1.628835
0.794824	1.628815
0.794922	1.629031
0.795020	1.629399
0.795117	1.629875
0.795215	1.630577
0.795312	1.631180
0.795410	1.631828
0.795508	1.632442
0.795605	1.632950
0.795703	1.633321
0.795801	1.633582
0.795898	1.633715
0.795996	1.633611
0.796094	1.633457
0.796191	1.633143
0.796289	1.632713
0.796387	1.632130
0.796484	1.631469
0.796582	1.630842
0.796680	1.630146
0.796777	1.629566
0.796875	1.629066
0.796973	1.628703
0.797070	1.628599
0.797168	1.628449
0.797266	1.628677
0.797363	1.629072
0.797461	1.629592
0.797559	1.630340
0.797656	1.631024
0.797754	1.631855
0.797852	1.632638
0.797949	1.633413
0.798047	1.633937
0.798145	1.634427
0.798242	1.634682
0.798340	1.634874
0.798437	1.634794
0.798535	1.634457
0.798633	1.634022
0.798730	1.633495
0.798828	1.632829
0.798926	1.632101
0.799023	1.631341
0.799121	1.630681
0.799219	1.629925
0.799316	1.629416
0.799414	1.628975
0.799512	1.628877
0.799609	1.628921
0.799707	1.629102
0.799805	1.629457
0.799902	1.630006
0.800000	1.630659
0.800098	1.631265
0.800195	1.632119
0.800293	1.632807
0.800391	1.633402
0.800488	1.633895
0.800586	1.634363
0.800684	1.634478
0.800781	1.634421
0.800879	1.634393
0.800977	1.634213
0.801074	1.633852
0.801172	1.633377
0.801270	1.632868
0.801367	1.632222
0.801465	1.631561
0.801562	1.630907
0.801660	1.630352
0.801758	1.629837
0.801855	1.629474
0.801953	1.629249
0.802051	1.629241
0.802148	1.629382
0.802246	1.629643
0.802344	1.630124
0.802441	1.630661
0.802539	1.631188
0.802637	1.631640
0.802734	1.632120
0.802832	1.632611
0.802930	1.632927
0.803027	1.633260
0.803125	1.633254
0.803223	1.633252
0.803320	1.632959
0.803418	1.632654
0.803516	1.632272
0.803613	1.631680
0.803711	1.631209
0.803809	1.630642
0.803906	1.630251
0.804004	1.629824
0.804102	1.629463
0.804199	1.629315
0.804297	1.629255
0.804395	1.629472
0.804492	1.629809
0.804590	1.630282
0.804687	1.630799
0.804785	1.631661
0.804883	1.632204
0.804980	1.633104
0.805078	1.633685
0.805176	1.634244
0.805273	1.634710
0.805371	1.635013
0.805469	1.635084
0.805566	1.634927
0.805664	1.634506
0.805762	1.634017
0.805859	1.633219
0.805957	1.632366
0.806055	1.631442
0.806152	1.630414
0.806250	1.629693
0.806348	1.629048
0.806445	1.628620
0.806543	1.628380
0.806641	1.628490
0.806738	1.628765
0.806836	1.629362
0.806934	1.630017
0.807031	1.630827
0.807129	1.631678
0.807227	1.632592
0.807324	1.633351
0.807422	1.634042
0.807520	1.634464
0.807617	1.634827
0.807715	1.634957
0.807812	1.634856
0.807910	1.634481
0.808008	1.633924
0.808105	1.633292
0.808203	1.632546
0.808301	1.631757
0.808398	1.630882
0.808496	1.630193
0.808594	1.629485
0.808691	1.628978
0.808789	1.628684
0.808887	1.628515
0.808984	1.628539
0.809082	1.628852
0.809180	1.629325
0.809277	1.629887
0.809375	1.630723
0.809473	1.631480
0.809570	1.632274
0.809668	1.633098
0.809766	1.633695
0.809863	1.634219
0.809961	1.634534
0.810059	1.634610
0.810156	1.634429
0.810254	1.634098
0.810352	1.633596
0.810449	1.632923
0.810547	1.632105
0.810645	1.631218
0.810742	1.630467
0.810840	1.629523
0.810937	1.628933
0.811035	1.628344
0.811133	1.627924
0.811230	1.627701
0.811328	1.627645
0.811426	1.627905
0.811523	1.628214
0.811621	1.628829
0.811719	1.629538
0.811816	1.630348
0.811914	1.631181
0.812012	1.632075
0.812109	1.632674
0.812207	1.633402
0.812305	1.633840
0.812402	1.634149
0.812500	1.634321
0.812598	1.634300
0.812695	1.633999
0.812793	1.633709
0.812891	1.633283
0.812988	1.632707
0.813086	1.632068
0.813184	1.631164
0.813281	1.630564
0.813379	1.629781
0.813477	1.629105
0.813574	1.628599
0.813672	1.628278
0.813770	1.628133
0.813867	1.628230
0.813965	1.628552
0.814062	1.629131
0.814160	1.629790
0.814258	1.630617
0.814355	1.631555
0.814453	1.632367
0.814551	1.633078
0.814648	1.633689
0.814746	1.634093
0.814844	1.634275
0.814941	1.634340
0.815039	1.634107
0.815137	1.633721
0.815234	1.633182
0.815332	1.632589
0.815430	1.631903
0.815527	1.631245
0.815625	1.630569
0.815723	1.629921
0.815820	1.629404
0.815918	1.629063
0.816016	1.628796
0.816113	1.628739
0.816211	1.628786
0.816309	1.629184
0.816406	1.629545
0.816504	1.630143
0.816602	1.630749
0.816699	1.631603
0.816797	1.632328
0.816895	1.633074
0.816992	1.633821
0.817090	1.634258
0.817187	1.634877
0.817285	1.635188
0.817383	1.635190
0.817480	1.635197
0.817578	1.634885
0.817676	1.634449
0.817773	1.633679
0.817871	1.632858
0.817969	1.631960
0.818066	1.630949
0.818164	1.630058
0.818262	1.629175
0.818359	1.628605
0.818457	1.628020
0.818555	1.627750
0.818652	1.627791
0.818750	1.627874
0.818848	1.628337
0.818945	1.628773
0.819043	1.629432
0.819141	1.630157
0.819238	1.630905
0.819336	1.631540
0.819434	1.632177
0.819531	1.632684
0.819629	1.633075
0.819727	1.633383
0.819824	1.633322
0.819922	1.633267
0.820020	1.632948
0.820117	1.632544
0.820215	1.632106
0.820312	1.631536
0.820410	1.631009
0.820508	1.630410
0.820605	1.629860
0.820703	1.629366
0.820801	1.629092
0.820898	1.628879
0.820996	1.628937
0.821094	1.629094
0.821191	1.629391
0.821289	1.629878
0.821387	1.630448
0.821484	1.631101
0.821582	1.631883
0.821680	1.632572
0.821777	1.633153
0.821875	1.633694
0.821973	1.633920
0.822070	1.634141
0.822168	1.634088
0.822266	1.633953
0.822363	1.633602
0.822461	1.633122
0.822559	1.632519
0.822656	1.631844
0.822754	1.631135
0.822852	1.630416
0.822949	1.629854
0.823047	1.629277
0.823145	1.628895
0.823242	1.628495
0.823340	1.628456
0.823437	1.628502
0.823535	1.628815
0.823633	1.629192
0.823730	1.629837
0.823828	1.630578
0.823926	1.631351
0.824023	1.632257
0.824121	1.633109
0.824219	1.633663
0.824316	1.634268
0.824414	1.634549
0.824512	1.634627
0.824609	1.634519
0.824707	1.634115
0.824805	1.633580
0.824902	1.632753
0.825000	1.632014
0.825098	1.631170
0.825195	1.630459
0.825293	1.629657
0.825391	1.629145
0.825488	1.628674
0.825586	1.628457
0.825684	1.628380
0.825781	1.628603
0.825879	1.628866
0.825977	1.629491
0.826074	1.630091
0.826172	1.630898
0.826270	1.631739
0.826367	1.632489
0.826465	1.633122
0.826562	1.633719
0.826660	1.634110
0.826758	1.634255
0.826855	1.634274
0.826953	1.634139
0.827051	1.633883
0.827148	1.633538
0.827246	1.632978
0.827344	1.632500
0.827441	1.631906
0.827539	1.631239
0.827637	1.630686
0.827734	1.630053
0.827832	1.629628
0.827930	1.629254
0.828027	1.629125
0.828125	1.629146
0.828223	1.629376
0.828320	1.629799
0.828418	1.630347
0.828516	1.631083
0.828613	1.631868
0.828711	1.632740
0.828809	1.633637
0.828906	1.634365
0.829004	1.634956
0.829102	1.635520
0.829199	1.635747
0.829297	1.635804
0.829395	1.635640
0.829492	1.635243
0.829590	1.634659
0.829687	1.633919
0.829785	1.633125
0.829883	1.632182
0.829980	1.631237
0.830078	1.630346
0.830176	1.629552
0.830273	1.628987
0.830371	1.628568
0.830469	1.628343
0.830566	1.628331
0.830664	1.628687
0.830762	1.629054
0.830859	1.629654
0.830957	1.630379
0.831055	1.631248
0.831152	1.631945
0.831250	1.632635
0.831348	1.633108
0.831445	1.633554
0.831543	1.633693
0.831641	1.633725
0.831738	1.633526
0.831836	1.633244
0.831934	1.632726
0.832031	1.632151
0.832129	1.631473
0.832227	1.630838
0.832324	1.630154
0.832422	1.629484
0.832520	1.628917
0.832617	1.628460
0.832715	1.628150
0.832812	1.628197
0.832910	1.628435
0.833008	1.628708
0.833105	1.629158
0.833203	1.629700
0.833301	1.630538
0.833398	1.631245
0.833496	1.632118
0.833594	1.632771
0.833691	1.633552
0.833789	1.634103
0.833887	1.634492
0.833984	1.634769
0.834082	1.634820
0.834180	1.634679
0.834277	1.634252
0.834375	1.633809
0.834473	1.633179
0.834570	1.632435
0.834668	1.631602
0.834766	1.630731
0.834863	1.630005
0.834961	1.629266
0.835059	1.628720
0.835156	1.628293
0.835254	1.628134
0.835352	1.628158
0.835449	1.628412
0.835547	1.628789
0.835645	1.629387
0.835742	1.630099
0.835840	1.630822
0.835937	1.631682
0.836035	1.632483
0.836133	1.633145
0.836230	1.633821
0.836328	1.634284
0.836426	1.634592
0.836523	1.634758
0.836621	1.634598
0.836719	1.634261
0.836816	1.633783
0.836914	1.633183
0.837012	1.632520
0.837109	1.631653
0.837207	1.630861
0.837305	1.630164
0.837402	1.629381
0.837500	1.628878
0.837598	1.628510
0.837695	1.628391
0.837793	1.628590
0.837891	1.628818
0.837988	1.629316
0.838086	1.630006
0.838184	1.630724
0.838281	1.631565
0.838379	1.632309
0.838477	1.633014
0.838574	1.633575
0.838672	1.633998
0.838770	1.634209
0.838867	1.634132
0.838965	1.633980
0.839062	1.633575
0.839160	1.633109
0.839258	1.632486
0.839355	1.631821
0.839453	1.631132
0.839551	1.630503
0.839648	1.629881
0.839746	1.629280
0.839844	1.628793
0.839941	1.628556
0.840039	1.628339
0.840137	1.628432
0.840234	1.628696
0.840332	1.629197
0.840430	1.629775
0.840527	1.630414
0.840625	1.631130
0.840723	1.631962
0.840820	1.632709
0.840918	1.633488
0.841016	1.634020
0.841113	1.634540
0.841211	1.634717
0.841309	1.634726
0.841406	1.634523
0.841504	1.634163
0.841602	1.633639
0.841699	1.632988
0.841797	1.632315
0.841895	1.631471
0.841992	1.630636
0.842090	1.629975
0.842187	1.629345
0.842285	1.628794
0.842383	1.628557
0.842480	1.628416
0.842578	1.628568
0.842676	1.628746
0.842773	1.629307
0.842871	1.630058
0.842969	1.630981
0.843066	1.631692
0.843164	1.632536
0.843262	1.633403
0.843359	1.634029
0.843457	1.634642
0.843555	1.634907
0.843652	1.635127
0.843750	1.635051
0.843848	1.634703
0.843945	1.634244
0.844043	1.633518
0.844141	1.632663
0.844238	1.631832
0.844336	1.630994
0.844434	1.630154
0.844531	1.629484
0.844629	1.629023
0.844727	1.628402
0.844824	1.628358
0.844922	1.628311
0.845020	1.628520
0.845117	1.628935
0.845215	1.629488
0.845312	1.630287
0.845410	1.631053
0.845508	1.631825
0.845605	1.632529
0.845703	1.633231
0.845801	1.633743
0.845898	1.634053
0.845996	1.634139
0.846094	1.634092
0.846191	1.633897
0.846289	1.633521
0.846387	1.632976
0.846484	1.632410
0.846582	1.631744
0.846680	1.631069
0.846777	1.630324
0.846875	1.629718
0.846973	1.629082
0.847070	1.628632
0.847168	1.628337
0.847266	1.628227
0.847363	1.628403
0.847461	1.628675
0.847559	1.629106
0.847656	1.629824
0.847754	1.630452
0.847852	1.631154
0.847949	1.631951
0.848047	1.632568
0.848145	1.633117
0.848242	1.633644
0.848340	1.633857
0.848437	1.633889
0.848535	1.633716
0.848633	1.633439
0.848730	1.632935
0.848828	1.632430
0.848926	1.631725
0.849023	1.631097
0.849121	1.630353
0.849219	1.629792
0.849316	1.629157
0.849414	1.628796
0.849512	1.628529
0.849609	1.628481
0.849707	1.628544
0.849805	1.628790
0.849902	1.629161
0.850000	1.629720
0.850098	1.630428
0.850195	1.631148
0.850293	1.631959
0.850391	1.632682
0.850488	1.633280
0.850586	1.633818
0.850684	1.634089
0.850781	1.634288
0.850879	1.634284
0.850977	1.634151
0.851074	1.633900
0.851172	1.633417
0.851270	1.632838
0.851367	1.632154
0.851465	1.631381
0.851562	1.630647
0.851660	1.630015
0.851758	1.629343
0.851855	1.628850
0.851953	1.628472
0.852051	1.628405
0.852148	1.628433
0.852246	1.628598
0.852344	1.629053
0.852441	1.629637
0.852539	1.630224
0.852637	1.630979
0.852734	1.631691
0.852832	1.632555
0.852930	1.633234
0.853027	1.633769
0.853125	1.634072
0.853223	1.634323
0.853320	1.634346
0.853418	1.634255
0.853516	1.633901
0.853613	1.633390
0.853711	1.632692
0.853809	1.631940
0.853906	1.631135
0.854004	1.630273
0.854102	1.629509
0.854199	1.628787
0.854297	1.628268
0.854395	1.627914
0.854492	1.627793
0.854590	1.627868
0.854687	1.628286
0.854785	1.628769
0.854883	1.629438
0.854980	1.630213
0.855078	1.630965
0.855176	1.631688
0.855273	1.632291
0.855371	1.632958
0.855469	1.633247
0.855566	1.633399
0.855664	1.633337
0.855762	1.633115
0.855859	1.632564
0.855957	1.631995
0.856055	1.631283
0.856152	1.630505
0.856250	1.629811
0.856348	1.629003
0.856445	1.628542
0.856543	1.627963
0.856641	1.627630
0.856738	1.627393
0.856836	1.627508
0.856934	1.627715
0.857031	1.628152
0.857129	1.628710
0.857227	1.629462
0.857324	1.630271
0.857422	1.631155
0.857520	1.631929
0.857617	1.632671
0.857715	1.633287
0.857812	1.633805
0.857910	1.634036
0.858008	1.634202
0.858105	1.634150
0.858203	1.633857
0.858301	1.633491
0.858398	1.632993
0.858496	1.632403
0.858594	1.631729
0.858691	1.631157
0.858789	1.630454
0.858887	1.629837
0.858984	1.629277
0.859082	1.628952
0.859180	1.628806
0.859277	1.628764
0.859375	1.628904
0.859473	1.629263
0.859570	1.629742
0.859668	1.630410
0.859766	1.630992
0.859863	1.631722
0.859961	1.632490
0.860059	1.633072
0.860156	1.633591
0.860254	1.633962
0.860352	1.634140
0.860449	1.634130
0.860547	1.633865
0.860645	1.633449
0.860742	1.632951
0.860840	1.632153
0.860937	1.631420
0.861035	1.630603
0.861133	1.629857
0.861230	1.629097
0.861328	1.628593
0.861426	1.628201
0.861523	1.628075
0.861621	1.628070
0.861719	1.628415
0.861816	1.628810
0.861914	1.629411
0.862012	1.630063
0.862109	1.630970
0.862207	1.631606
0.862305	1.632236
0.862402	1.632954
0.862500	1.633428
0.862598	1.633761
0.862695	1.633772
0.862793	1.633707
0.862891	1.633626
0.862988	1.633167
0.863086	1.632652
0.863184	1.631954
0.863281	1.631268
0.863379	1.630534
0.863477	1.629718
0.863574	1.629199
0.863672	1.628645
0.863770	1.628223
0.863867	1.628122
0.863965	1.628150
0.864062	1.628362
0.864160	1.628708
0.864258	1.629338
0.864355	1.629955
0.864453	1.630781
0.864551	1.631616
0.864648	1.632477
0.864746	1.633213
0.864844	1.633756
0.864941	1.634421
0.865039	1.634541
0.865137	1.634725
0.865234	1.634671
0.865332	1.634324
0.865430	1.633986
0.865527	1.633337
0.865625	1.632663
0.865723	1.631925
0.865820	1.631090
0.865918	1.630217
0.866016	1.629479
0.866113	1.628851
0.866211	1.628267
0.866309	1.627967
0.866406	1.627848
0.866504	1.627878
0.866602	1.628056
0.866699	1.628472
0.866797	1.629025
0.866895	1.629665
0.866992	1.630341
0.867090	1.630896
0.867187	1.631605
0.867285	1.632082
0.867383	1.632533
0.867480	1.632801
0.867578	1.632892
0.867676	1.632876
0.867773	1.632696
0.867871	1.632403
0.867969	1.632029
0.868066	1.631592
0.868164	1.631064
0.868262	1.630533
0.868359	1.630022
0.868457	1.629529
0.868555	1.629158
0.868652	1.629005
0.868750	1.628892
0.868848	1.629051
0.868945	1.629226
0.869043	1.629682
0.869141	1.630201
0.869238	1.630795
0.869336	1.631420
0.869434	1.632156
0.869531	1.632614
0.869629	1.633164
0.869727	1.633396
0.869824	1.633488
0.869922	1.633424
0.870020	1.633173
0.870117	1.632826
0.870215	1.632377
0.870312	1.631829
0.870410	1.631216
0.870508	1.630450
0.870605	1.629823
0.870703	1.629189
0.870801	1.628739
0.870898	1.628512
0.870996	1.628235
0.871094	1.628295
0.871191	1.628413
0.871289	1.628746
0.871387	1.629234
0.871484	1.629745
0.871582	1.630443
0.871680	1.631262
0.871777	1.631916
0.871875	1.632674
0.871973	1.633318
0.872070	1.633931
0.872168	1.634332
0.872266	1.634597
0.872363	1.634613
0.872461	1.634540
0.872559	1.634153
0.872656	1.633507
0.872754	1.632942
0.872852	1.632261
0.872949	1.631486
0.873047	1.630637
0.873145	1.629837
0.873242	1.629198
0.873340	1.628676
0.873437	1.628344
0.873535	1.628188
0.873633	1.628335
0.873730	1.628645
0.873828	1.629189
0.873926	1.629836
0.874023	1.630689
0.874121	1.631576
0.874219	1.632417
0.874316	1.633195
0.874414	1.633845
0.874512	1.634249
0.874609	1.634547
0.874707	1.634487
0.874805	1.634298
0.874902	1.633945
0.875000	1.633504
0.875098	1.632893
0.875195	1.632231
0.875293	1.631425
0.875391	1.630550
0.875488	1.629758
0.875586	1.629040
0.875684	1.628434
0.875781	1.627899
0.875879	1.627619
0.875977	1.627622
0.876074	1.627755
0.876172	1.628128
0.876270	1.628727
0.876367	1.629400
0.876465	1.630121
0.876562	1.630929
0.876660	1.631729
0.876758	1.632399
0.876855	1.632874
0.876953	1.633343
0.877051	1.633535
0.877148	1.633559
0.877246	1.633399
0.877344	1.633017
0.877441	1.632496
0.877539	1.631961
0.877637	1.631274
0.877734	1.630597
0.877832	1.629971
0.877930	1.629308
0.878027	1.628865
0.878125	1.628364
0.878223	1.628105
0.878320	1.628018
0.878418	1.628097
0.878516	1.628375
0.878613	1.628771
0.878711	1.629443
0.878809	1.630109
0.878906	1.631017
0.879004	1.631752
0.879102	1.632613
0.879199	1.633186
0.879297	1.633783
0.879395	1.634206
0.879492	1.634492
0.879590	1.634524
0.879687	1.634451
0.879785	1.634172
0.879883	1.633716
0.879980	1.633238
0.880078	1.632380
0.880176	1.631641
0.880273	1.630788
0.880371	1.630039
0.880469	1.629235
0.880566	1.628709
0.880664	1.628266
0.880762	1.628125
0.880859	1.628150
0.880957	1.628548
0.881055	1.629066
0.881152	1.629728
0.881250	1.630469
0.881348	1.631256
0.881445	1.632017
0.881543	1.632675
0.881641	1.633247
0.881738	1.633632
0.881836	1.633780
0.881934	1.633727
0.882031	1.633516
0.882129	1.633062
0.882227	1.632502
0.882324	1.631820
0.882422	1.631040
0.882520	1.630172
0.882617	1.629352
0.882715	1.628454
0.882812	1.627888
0.882910	1.627555
0.883008	1.627142
0.883105	1.627217
0.883203	1.627348
0.883301	1.627777
0.883398	1.628418
0.883496	1.629247
0.883594	1.630174
0.883691	1.631152
0.883789	1.632095
0.883887	1.632978
0.883984	1.633710
0.884082	1.634308
0.884180	1.634644
0.884277	1.634707
0.884375	1.634531
0.884473	1.634159
0.884570	1.633689
0.884668	1.633015
0.884766	1.632314
0.884863	1.631540
0.884961	1.630845
0.885059	1.630354
0.885156	1.629837
0.885254	1.629457
0.885352	1.629105
0.885449	1.628906
0.885547	1.628933
0.885645	1.628982
0.885742	1.629271
0.885840	1.629603
0.885937	1.630139
0.886035	1.630689
0.886133	1.631330
0.886230	1.631899
0.886328	1.632557
0.886426	1.632916
0.886523	1.633314
0.886621	1.633429
0.886719	1.633519
0.886816	1.633310
0.886914	1.632860
0.887012	1.632451
0.887109	1.631935
0.887207	1.631247
0.887305	1.630556
0.887402	1.629972
0.887500	1.629320
0.887598	1.628904
0.887695	1.628523
0.887793	1.628297
0.887891	1.628317
0.887988	1.628438
0.888086	1.628714
0.888184	1.629185
0.888281	1.629817
0.888379	1.630476
0.888477	1.631210
0.888574	1.631921
0.888672	1.632704
0.888770	1.633455
0.888867	1.634150
0.888965	1.634615
0.889062	1.634980
0.889160	1.635127
0.889258	1.634934
0.889355	1.634600
0.889453	1.634119
0.889551	1.633433
0.889648	1.632583
0.889746	1.631791
0.889844	1.630905
0.889941	1.630013
0.890039	1.629292
0.890137	1.628743
0.890234	1.628311
0.890332	1.628064
0.890430	1.628068
0.890527	1.628283
0.890625	1.628589
0.890723	1.629138
0.890820	1.629901
0.890918	1.630679
0.891016	1.631516
0.891113	1.632331
0.891211	1.632968
0.891309	1.633434
0.891406	1.633737
0.891504	1.633837
0.891602	1.633721
0.891699	1.633450
0.891797	1.632977
0.891895	1.632369
0.891992	1.631631
0.892090	1.630847
0.892187	1.630060
0.892285	1.629346
0.892383	1.628744
0.892480	1.628280
0.892578	1.627977
0.892676	1.627827
0.892773	1.627986
0.892871	1.628435
0.892969	1.628855
0.893066	1.629603
0.893164	1.630371
0.893262	1.631203
0.893359	1.631991
0.893457	1.632840
0.893555	1.633474
0.893652	1.633995
0.893750	1.634334
0.893848	1.634432
0.893945	1.634287
0.894043	1.633914
0.894141	1.633466
0.894238	1.632698
0.894336	1.632013
0.894434	1.631328
0.894531	1.630692
0.894629	1.630067
0.894727	1.629582
0.894824	1.629216
0.894922	1.629066
0.895020	1.628986
0.895117	1.629109
0.895215	1.629344
0.895312	1.629752
0.895410	1.630359
0.895508	1.631019
0.895605	1.631707
0.895703	1.632439
0.895801	1.633164
0.895898	1.633834
0.895996	1.634332
0.896094	1.634664
0.896191	1.634794
0.896289	1.634855
0.896387	1.634554
0.896484	1.634200
0.896582	1.633676
0.896680	1.633036
0.896777	1.632192
0.896875	1.631477
0.896973	1.630631
0.897070	1.629798
0.897168	1.629196
0.897266	1.628626
0.897363	1.628385
0.897461	1.628151
0.897559	1.628205
0.897656	1.628439
0.897754	1.628838
0.897852	1.629430
0.897949	1.630119
0.898047	1.630864
0.898145	1.631612
0.898242	1.632287
0.898340	1.632900
0.898437	1.633339
0.898535	1.633616
0.898633	1.633907
0.898730	1.633841
0.898828	1.633723
0.898926	1.633467
0.899023	1.633177
0.899121	1.632693
0.899219	1.632153
0.899316	1.631585
0.899414	1.630960
0.899512	1.630313
0.899609	1.629884
0.899707	1.629405
0.899805	1.629166
0.899902	1.628958
0.900000	1.628965
0.900098	1.629141
0.900195	1.629608
0.900293	1.630119
0.900391	1.630866
0.900488	1.631558
0.900586	1.632342
0.900684	1.632904
0.900781	1.633416
0.900879	1.633787
0.900977	1.633986
0.901074	1.634044
0.901172	1.633818
0.901270	1.633540
0.901367	1.633124
0.901465	1.632682
0.901562	1.632042
0.901660	1.631519
0.901758	1.630839
0.901855	1.630249
0.901953	1.629779
0.902051	1.629375
0.902148	1.629090
0.902246	1.629075
0.902344	1.629190
0.902441	1.629466
0.902539	1.629939
0.902637	1.630376
0.902734	1.630935
0.902832	1.631708
0.902930	1.632444
0.903027	1.633127
0.903125	1.633609
0.903223	1.633997
0.903320	1.634263
0.903418	1.634329
0.903516	1.634280
0.903613	1.634089
0.903711	1.633631
0.903809	1.633139
0.903906	1.632533
0.904004	1.631947
0.904102	1.631195
0.904199	1.630498
0.904297	1.629883
0.904395	1.629484
0.904492	1.629100
0.904590	1.628920
0.904687	1.628904
0.904785	1.629174
0.904883	1.629442
0.904980	1.629859
0.905078	1.630583
0.905176	1.631289
0.905273	1.631898
0.905371	1.632510
0.905469	1.633141
0.905566	1.633576
0.905664	1.633973
0.905762	1.634163
0.905859	1.634117
0.905957	1.633919
0.906055	1.633534
0.906152	1.633112
0.906250	1.632513
0.906348	1.631790
0.906445	1.631181
0.906543	1.630449
0.906641	1.629903
0.906738	1.629312
0.906836	1.629040
0.906934	1.628804
0.907031	1.628782
0.907129	1.628969
0.907227	1.629202
0.907324	1.629667
0.907422	1.630282
0.907520	1.630913
0.907617	1.631694
0.907715	1.632478
0.907812	1.633051
0.907910	1.633663
0.908008	1.634147
0.908105	1.634431
0.908203	1.634510
0.908301	1.634324
0.908398	1.634050
0.908496	1.633662
0.908594	1.633184
0.908691	1.632606
0.908789	1.631970
0.908887	1.631324
0.908984	1.630713
0.909082	1.630174
0.909180	1.629683
0.909277	1.629379
0.909375	1.629102
0.909473	1.629152
0.909570	1.629266
0.909668	1.629661
0.909766	1.629991
0.909863	1.630647
0.909961	1.631303
0.910059	1.631854
0.910156	1.632607
0.910254	1.633136
0.910352	1.633581
0.910449	1.633897
0.910547	1.634051
0.910645	1.633988
0.910742	1.633746
0.910840	1.633405
0.910937	1.632875
0.911035	1.632322
0.911133	1.631640
0.911230	1.630896
0.911328	1.630205
0.911426	1.629605
0.911523	1.629184
0.911621	1.628786
0.911719	1.628701
0.911816	1.628762
0.911914	1.629123
0.912012	1.629521
0.912109	1.630206
0.912207	1.631115
0.912305	1.631949
0.912402	1.632774
0.912500	1.633761
0.912598	1.634391
0.912695	1.634938
0.912793	1.635363
0.912891	1.635655
0.912988	1.635578
0.913086	1.635309
0.913184	1.634916
0.913281	1.634254
0.913379	1.633527
0.913477	1.632757
0.913574	1.631953
0.913672	1.631113
0.913770	1.630357
0.913867	1.629636
0.913965	1.629229
0.914062	1.628865
0.914160	1.628708
0.914258	1.628841
0.914355	1.629163
0.914453	1.629579
0.914551	1.630222
0.914648	1.631009
0.914746	1.631736
0.914844	1.632585
0.914941	1.633332
0.915039	1.633910
0.915137	1.634427
0.915234	1.634664
0.915332	1.634788
0.915430	1.634505
0.915527	1.634305
0.915625	1.633664
0.915723	1.633162
0.915820	1.632416
0.915918	1.631727
0.916016	1.631063
0.916113	1.630354
0.916211	1.629714
0.916309	1.629196
0.916406	1.628737
0.916504	1.628577
0.916602	1.628556
0.916699	1.628738
0.916797	1.628947
0.916895	1.629380
0.916992	1.630021
0.917090	1.630665
0.917187	1.631412
0.917285	1.632289
0.917383	1.632972
0.917480	1.633643
0.917578	1.634033
0.917676	1.634361
0.917773	1.634413
0.917871	1.634306
0.917969	1.634047
0.918066	1.633566
0.918164	1.632960
0.918262	1.632312
0.918359	1.631646
0.918457	1.630832
0.918555	1.630226
0.918652	1.629812
0.918750	1.629439
0.918848	1.629299
0.918945	1.629235
0.919043	1.629474
0.919141	1.629903
0.919238	1.630434
0.919336	1.631107
0.919434	1.631908
0.919531	1.632726
0.919629	1.633480
0.919727	1.634189
0.919824	1.634710
0.919922	1.634985
0.920020	1.635107
0.920117	1.634965
0.920215	1.634715
0.920312	1.634251
0.920410	1.633566
0.920508	1.632865
0.920605	1.632059
0.920703	1.631187
0.920801	1.630385
0.920898	1.629657
0.920996	1.629108
0.921094	1.628718
0.921191	1.628436
0.921289	1.628263
0.921387	1.628438
0.921484	1.628726
0.921582	1.629174
0.921680	1.629916
0.921777	1.630645
0.921875	1.631512
0.921973	1.632359
0.922070	1.633159
0.922168	1.633887
0.922266	1.634508
0.922363	1.634826
0.922461	1.635060
0.922559	1.634950
0.922656	1.634567
0.922754	1.633945
0.922852	1.633316
0.922949	1.632534
0.923047	1.631746
0.923145	1.630920
0.923242	1.630141
0.923340	1.629601
0.923437	1.628991
0.923535	1.628812
0.923633	1.628671
0.923730	1.628789
0.923828	1.629113
0.923926	1.629643
0.924023	1.630395
0.924121	1.631096
0.924219	1.631847
0.924316	1.632619
0.924414	1.633364
0.924512	1.634096
0.924609	1.634645
0.924707	1.634782
0.924805	1.634985
0.924902	1.634775
0.925000	1.634426
0.925098	1.633955
0.925195	1.633368
0.925293	1.632669
0.925391	1.632034
0.925488	1.631284
0.925586	1.630636
0.925684	1.629971
0.925781	1.629385
0.925879	1.628978
0.925977	1.628698
0.926074	1.628691
0.926172	1.628732
0.926270	1.629117
0.926367	1.629594
0.926465	1.630185
0.926562	1.630996
0.926660	1.631817
0.926758	1.632617
0.926855	1.633365
0.926953	1.634013
0.927051	1.634417
0.927148	1.634608
0.927246	1.634706
0.927344	1.634325
0.927441	1.633784
0.927539	1.633120
0.927637	1.632212
0.927734	1.631322
0.927832	1.630407
0.927930	1.629529
0.928027	1.628704
0.928125	1.628130
0.928223	1.627759
0.928320	1.627489
0.928418	1.627532
0.928516	1.627767
0.928613	1.628123
0.928711	1.628803
0.928809	1.629656
0.928906	1.630510
0.929004	1.631409
0.929102	1.632336
0.929199	1.633143
0.929297	1.633897
0.929395	1.634399
0.929492	1.634784
0.929590	1.634922
0.929687	1.634885
0.929785	1.634621
0.929883	1.634116
0.929980	1.633568
0.930078	1.632927
0.930176	1.632249
0.930273	1.631577
0.930371	1.630713
0.930469	1.630081
0.930566	1.629399
0.930664	1.629017
0.930762	1.628754
0.930859	1.628728
0.930957	1.628944
0.931055	1.629414
0.931152	1.629953
0.931250	1.630720
0.931348	1.631431
0.931445	1.632287
0.931543	1.633073
0.931641	1.633724
0.931738	1.634287
0.931836	1.634676
0.931934	1.634937
0.932031	1.634894
0.932129	1.634618
0.932227	1.634274
0.932324	1.633654
0.932422	1.632916
0.932520	1.632095
0.932617	1.631104
0.932715	1.630265
0.932812	1.629471
0.932910	1.628960
0.933008	1.628399
0.933105	1.628109
0.933203	1.627906
0.933301	1.628106
0.933398	1.628253
0.933496	1.628791
0.933594	1.629210
0.933691	1.629971
0.933789	1.630708
0.933887	1.631451
0.933984	1.632117
0.934082	1.632694
0.934180	1.633252
0.934277	1.633540
0.934375	1.633767
0.934473	1.633718
0.934570	1.633669
0.934668	1.633176
0.934766	1.632829
0.934863	1.632187
0.934961	1.631635
0.935059	1.631016
0.935156	1.630373
0.935254	1.629877
0.935352	1.629343
0.935449	1.629037
0.935547	1.628884
0.935645	1.628886
0.935742	1.629108
0.935840	1.629443
0.935937	1.629928
0.936035	1.630584
0.936133	1.631303
0.936230	1.632074
0.936328	1.632896
0.936426	1.633505
0.936523	1.634030
0.936621	1.634517
0.936719	1.634752
0.936816	1.634840
0.936914	1.634654
0.937012	1.634508
0.937109	1.634085
0.937207	1.633550
0.937305	1.633004
0.937402	1.632296
0.937500	1.631646
0.937598	1.630964
0.937695	1.630331
0.937793	1.629732
0.937891	1.629304
0.937988	1.629122
0.938086	1.629211
0.938184	1.629338
0.938281	1.629665
0.938379	1.630260
0.938477	1.630828
0.938574	1.631553
0.938672	1.632278
0.938770	1.633023
0.938867	1.633538
0.938965	1.633982
0.939062	1.634358
0.939160	1.634465
0.939258	1.634437
0.939355	1.634008
0.939453	1.633585
0.939551	1.632820
0.939648	1.632081
0.939746	1.631276
0.939844	1.630406
0.939941	1.629747
0.940039	1.629082
0.940137	1.628494
0.940234	1.628158
0.940332	1.627982
0.940430	1.627990
0.940527	1.628216
0.940625	1.628587
0.940723	1.628998
0.940820	1.629756
0.940918	1.630615
0.941016	1.631274
0.941113	1.632120
0.941211	1.632849
0.941309	1.633397
0.941406	1.633880
0.941504	1.634268
0.941602	1.634409
0.941699	1.634450
0.941797	1.634268
0.941895	1.633862
0.941992	1.633318
0.942090	1.632622
0.942187	1.631934
0.942285	1.631160
0.942383	1.630401
0.942480	1.629598
0.942578	1.629066
0.942676	1.628498
0.942773	1.628241
0.942871	1.628386
0.942969	1.628579
0.943066	1.628951
0.943164	1.629601
0.943262	1.630201
0.943359	1.630953
0.943457	1.631728
0.943555	1.632303
0.943652	1.632943
0.943750	1.633358
0.943848	1.633692
0.943945	1.633686
0.944043	1.633679
0.944141	1.633293
0.944238	1.632964
0.944336	1.632466
0.944434	1.631858
0.944531	1.631173
0.944629	1.630479
0.944727	1.629936
0.944824	1.629408
0.944922	1.629014
0.945020	1.628650
0.945117	1.628549
0.945215	1.628519
0.945312	1.628839
0.945410	1.629138
0.945508	1.629686
0.945605	1.630386
0.945703	1.631209
0.945801	1.631963
0.945898	1.632795
0.945996	1.633559
0.946094	1.634135
0.946191	1.634528
0.946289	1.634865
0.946387	1.634970
0.946484	1.634841
0.946582	1.634525
0.946680	1.633972
0.946777	1.633323
0.946875	1.632582
0.946973	1.631657
0.947070	1.630782
0.947168	1.630011
0.947266	1.629164
0.947363	1.628585
0.947461	1.628219
0.947559	1.628057
0.947656	1.628103
0.947754	1.628389
0.947852	1.628870
0.947949	1.629532
0.948047	1.630233
0.948145	1.631024
0.948242	1.631828
0.948340	1.632587
0.948437	1.633218
0.948535	1.633815
0.948633	1.634174
0.948730	1.634540
0.948828	1.634609
0.948926	1.634507
0.949023	1.634198
0.949121	1.633715
0.949219	1.633015
0.949316	1.632309
0.949414	1.631510
0.949512	1.630631
0.949609	1.629875
0.949707	1.629309
0.949805	1.628682
0.949902	1.628399
0.950000	1.628161
0.950098	1.628222
0.950195	1.628543
0.950293	1.629033
0.950391	1.629610
0.950488	1.630313
0.950586	1.631159
0.950684	1.631851
0.950781	1.632643
0.950879	1.633353
0.950977	1.633808
0.951074	1.634159
0.951172	1.634327
0.951270	1.634271
0.951367	1.634112
0.951465	1.633667
0.951562	1.633108
0.951660	1.632377
0.951758	1.631650
0.951855	1.630899
0.951953	1.630010
0.952051	1.629361
0.952148	1.628721
0.952246	1.628295
0.952344	1.628151
0.952441	1.628119
0.952539	1.628375
0.952637	1.628757
0.952734	1.629174
0.952832	1.630053
0.952930	1.630797
0.953027	1.631650
0.953125	1.632276
0.953223	1.632936
0.953320	1.633396
0.953418	1.633737
0.953516	1.633878
0.953613	1.633779
0.953711	1.633548
0.953809	1.633103
0.953906	1.632574
0.954004	1.631816
0.954102	1.631067
0.954199	1.630307
0.954297	1.629648
0.954395	1.629053
0.954492	1.628522
0.954590	1.628275
0.954687	1.628086
0.954785	1.628174
0.954883	1.628436
0.954980	1.628821
0.955078	1.629504
0.955176	1.630149
0.955273	1.631104
0.955371	1.631863
0.955469	1.632734
0.955566	1.633466
0.955664	1.634096
0.955762	1.634665
0.955859	1.634918
0.955957	1.635038
0.956055	1.634937
0.956152	1.634559
0.956250	1.634045
0.956348	1.633386
0.956445	1.632602
0.956543	1.631768
0.956641	1.630897
0.956738	1.630129
0.956836	1.629265
0.956934	1.628644
0.957031	1.628206
0.957129	1.627963
0.957227	1.628024
0.957324	1.628236
0.957422	1.628683
0.957520	1.629283
0.957617	1.630060
0.957715	1.631009
0.957812	1.631754
0.957910	1.632613
0.958008	1.633172
0.958105	1.633726
0.958203	1.634132
0.958301	1.634164
0.958398	1.634089
0.958496	1.633779
0.958594	1.633291
0.958691	1.632611
0.958789	1.631971
0.958887	1.631241
0.958984	1.630436
0.959082	1.629733
0.959180	1.629272
0.959277	1.628848
0.959375	1.628489
0.959473	1.628487
0.959570	1.628574
0.959668	1.629027
0.959766	1.629477
0.959863	1.630155
0.959961	1.630905
0.960059	1.631622
0.960156	1.632447
0.960254	1.633203
0.960352	1.633826
0.960449	1.634288
0.960547	1.634629
0.960645	1.634674
0.960742	1.634571
0.960840	1.634359
0.960937	1.633925
0.961035	1.633473
0.961133	1.632758
0.961230	1.632147
0.961328	1.631320
0.961426	1.630550
0.961523	1.629847
0.961621	1.629296
0.961719	1.628834
0.961816	1.628676
0.961914	1.628640
0.962012	1.628918
0.962109	1.629424
0.962207	1.629930
0.962305	1.630726
0.962402	1.631472
0.962500	1.632186
0.962598	1.632857
0.962695	1.633386
0.962793	1.633868
0.962891	1.634126
0.962988	1.634130
0.963086	1.634020
0.963184	1.633690
0.963281	1.633235
0.963379	1.632577
0.963477	1.631871
0.963574	1.631116
0.963672	1.630356
0.963770	1.629524
0.963867	1.628946
0.963965	1.628385
0.964062	1.627914
0.964160	1.627789
0.964258	1.627863
0.964355	1.628076
0.964453	1.628604
0.964551	1.629131
0.964648	1.629878
0.964746	1.630569
0.964844	1.631476
0.964941	1.632297
0.965039	1.633069
0.965137	1.633723
0.965234	1.634124
0.965332	1.634470
0.965430	1.634480
0.965527	1.634402
0.965625	1.634063
0.965723	1.633573
0.965820	1.632918
0.965918	1.632081
0.966016	1.631307
0.966113	1.630442
0.966211	1.629730
0.966309	1.629022
0.966406	1.628472
0.966504	1.628231
0.966602	1.628190
0.966699	1.628284
0.966797	1.628722
0.966895	1.629143
0.966992	1.629866
0.967090	1.630704
0.967187	1.631509
0.967285	1.632409
0.967383	1.633111
0.967480	1.633862
0.967578	1.634456
0.967676	1.634869
0.967773	1.635112
0.967871	1.635263
0.967969	1.635152
0.968066	1.634792
0.968164	1.634258
0.968262	1.633432
0.968359	1.632571
0.968457	1.631575
0.968555	1.630635
0.968652	1.629621
0.968750	1.628874
0.968848	1.628253
0.968945	1.627902
0.969043	1.627866
0.969141	1.627999
0.969238	1.628336
0.969336	1.628970
0.969434	1.629579
0.969531	1.630511
0.969629	1.631310
0.969727	1.632121
0.969824	1.632746
0.969922	1.633391
0.970020	1.633658
0.970117	1.633753
0.970215	1.633722
0.970312	1.633465
0.970410	1.632940
0.970508	1.632346
0.970605	1.631535
0.970703	1.630797
0.970801	1.630060
0.970898	1.629292
0.970996	1.628700
0.971094	1.628142
0.971191	1.627824
0.971289	1.627552
0.971387	1.627558
0.971484	1.627730
0.971582	1.628159
0.971680	1.628629
0.971777	1.629372
0.971875	1.630140
0.971973	1.631013
0.972070	1.631887
0.972168	1.632687
0.972266	1.633357
0.972363	1.634022
0.972461	1.634430
0.972559	1.634729
0.972656	1.634693
0.972754	1.634567
0.972852	1.634344
0.972949	1.633768
0.973047	1.633239
0.973145	1.632437
0.973242	1.631658
0.973340	1.630834
0.973437	1.629994
0.973535	1.629434
0.973633	1.628767
0.973730	1.628444
0.973828	1.628287
0.973926	1.628322
0.974023	1.628444
0.974121	1.628821
0.974219	1.629366
0.974316	1.630026
0.974414	1.630667
0.974512	1.631405
0.974609	1.632120
0.974707	1.632629
0.974805	1.633147
0.974902	1.633532
0.975000	1.633728
0.975098	1.633754
0.975195	1.633784
0.975293	1.633541
0.975391	1.633348
0.975488	1.632862
0.975586	1.632516
0.975684	1.631985
0.975781	1.631376
0.975879	1.630792
0.975977	1.630233
0.976074	1.629619
0.976172	1.629162
0.976270	1.628795
0.976367	1.628677
0.976465	1.628679

