LabVIEW Measurement	
Writer_Version	2
Reader_Version	2
Separator	Tab
Decimal_Separator	.
Multi_Headings	Yes
X_Columns	One
Time_Pref	Absolute
Operator	W-Tunnel
Date	1904/01/01
Time	01:00:00
***End_of_Header***	
	
Channels	1	
Samples	10000	
Date	2024/05/17	
Time	18:28:18.4432648562497828833	
Y_Unit_Label	Volts	
X_Dimension	Time	
X0	0.0000000000000000E+0	
Delta_X	9.765625E-5	
***End_of_Header***		
X_Value	Voltage	Comment
0.000000	1.639343
9.765625E-5	1.639342
0.000195	1.639455
0.000293	1.639440
0.000391	1.639408
0.000488	1.639462
0.000586	1.639460
0.000684	1.639454
0.000781	1.639439
0.000879	1.639423
0.000977	1.639426
0.001074	1.639324
0.001172	1.639360
0.001270	1.639324
0.001367	1.639391
0.001465	1.639402
0.001562	1.639427
0.001660	1.639498
0.001758	1.639395
0.001855	1.639347
0.001953	1.639396
0.002051	1.639389
0.002148	1.639371
0.002246	1.639444
0.002344	1.639372
0.002441	1.639398
0.002539	1.639371
0.002637	1.639384
0.002734	1.639440
0.002832	1.639390
0.002930	1.639407
0.003027	1.639370
0.003125	1.639381
0.003223	1.639373
0.003320	1.639368
0.003418	1.639373
0.003516	1.639410
0.003613	1.639376
0.003711	1.639303
0.003809	1.639213
0.003906	1.639213
0.004004	1.639404
0.004102	1.639318
0.004199	1.639349
0.004297	1.639327
0.004395	1.639316
0.004492	1.639412
0.004590	1.639344
0.004687	1.639382
0.004785	1.639369
0.004883	1.639373
0.004980	1.639374
0.005078	1.639328
0.005176	1.639341
0.005273	1.639322
0.005371	1.639430
0.005469	1.639419
0.005566	1.639365
0.005664	1.639451
0.005762	1.639475
0.005859	1.639407
0.005957	1.639410
0.006055	1.639415
0.006152	1.639418
0.006250	1.639376
0.006348	1.639390
0.006445	1.639435
0.006543	1.639362
0.006641	1.639396
0.006738	1.639423
0.006836	1.639351
0.006934	1.639443
0.007031	1.639449
0.007129	1.639415
0.007227	1.639468
0.007324	1.639431
0.007422	1.639428
0.007520	1.639439
0.007617	1.639348
0.007715	1.639393
0.007812	1.639470
0.007910	1.639381
0.008008	1.639407
0.008105	1.639407
0.008203	1.639425
0.008301	1.639422
0.008398	1.639409
0.008496	1.639431
0.008594	1.639414
0.008691	1.639413
0.008789	1.639402
0.008887	1.639412
0.008984	1.639415
0.009082	1.639385
0.009180	1.639403
0.009277	1.639437
0.009375	1.639368
0.009473	1.639373
0.009570	1.639422
0.009668	1.639398
0.009766	1.639395
0.009863	1.639343
0.009961	1.639456
0.010059	1.639464
0.010156	1.639511
0.010254	1.639415
0.010352	1.639503
0.010449	1.639477
0.010547	1.639498
0.010645	1.639503
0.010742	1.639446
0.010840	1.639523
0.010937	1.639385
0.011035	1.639435
0.011133	1.639420
0.011230	1.639422
0.011328	1.639352
0.011426	1.639401
0.011523	1.639440
0.011621	1.639525
0.011719	1.639537
0.011816	1.639414
0.011914	1.639462
0.012012	1.639388
0.012109	1.639478
0.012207	1.639448
0.012305	1.639511
0.012402	1.639457
0.012500	1.639483
0.012598	1.639473
0.012695	1.639527
0.012793	1.639435
0.012891	1.639425
0.012988	1.639464
0.013086	1.639404
0.013184	1.639453
0.013281	1.639417
0.013379	1.639468
0.013477	1.639415
0.013574	1.639443
0.013672	1.639492
0.013770	1.639357
0.013867	1.639334
0.013965	1.639407
0.014062	1.639498
0.014160	1.639495
0.014258	1.639495
0.014355	1.639435
0.014453	1.639454
0.014551	1.639494
0.014648	1.639533
0.014746	1.639512
0.014844	1.639483
0.014941	1.639573
0.015039	1.639512
0.015137	1.639544
0.015234	1.639458
0.015332	1.639486
0.015430	1.639457
0.015527	1.639488
0.015625	1.639551
0.015723	1.639477
0.015820	1.639570
0.015918	1.639497
0.016016	1.639546
0.016113	1.639570
0.016211	1.639493
0.016309	1.639536
0.016406	1.639563
0.016504	1.639587
0.016602	1.639556
0.016699	1.639556
0.016797	1.639557
0.016895	1.639524
0.016992	1.639534
0.017090	1.639551
0.017187	1.639610
0.017285	1.639533
0.017383	1.639628
0.017480	1.639584
0.017578	1.639667
0.017676	1.639569
0.017773	1.639570
0.017871	1.639523
0.017969	1.639669
0.018066	1.639672
0.018164	1.639586
0.018262	1.639644
0.018359	1.639620
0.018457	1.639589
0.018555	1.639640
0.018652	1.639594
0.018750	1.639602
0.018848	1.639606
0.018945	1.639633
0.019043	1.639621
0.019141	1.639682
0.019238	1.639611
0.019336	1.639591
0.019434	1.639637
0.019531	1.639662
0.019629	1.639606
0.019727	1.639724
0.019824	1.639636
0.019922	1.639622
0.020020	1.639659
0.020117	1.639687
0.020215	1.639631
0.020312	1.639636
0.020410	1.639601
0.020508	1.639684
0.020605	1.639689
0.020703	1.639722
0.020801	1.639667
0.020898	1.639718
0.020996	1.639570
0.021094	1.639617
0.021191	1.639564
0.021289	1.639584
0.021387	1.639637
0.021484	1.639661
0.021582	1.639658
0.021680	1.639703
0.021777	1.639664
0.021875	1.639647
0.021973	1.639613
0.022070	1.639586
0.022168	1.639675
0.022266	1.639607
0.022363	1.639662
0.022461	1.639609
0.022559	1.639540
0.022656	1.639575
0.022754	1.639564
0.022852	1.639501
0.022949	1.639642
0.023047	1.639564
0.023145	1.639589
0.023242	1.639559
0.023340	1.639510
0.023437	1.639517
0.023535	1.639537
0.023633	1.639533
0.023730	1.639465
0.023828	1.639387
0.023926	1.639487
0.024023	1.639531
0.024121	1.639519
0.024219	1.639496
0.024316	1.639469
0.024414	1.639509
0.024512	1.639488
0.024609	1.639529
0.024707	1.639503
0.024805	1.639523
0.024902	1.639433
0.025000	1.639448
0.025098	1.639489
0.025195	1.639431
0.025293	1.639452
0.025391	1.639453
0.025488	1.639445
0.025586	1.639429
0.025684	1.639437
0.025781	1.639362
0.025879	1.639476
0.025977	1.639429
0.026074	1.639419
0.026172	1.639412
0.026270	1.639405
0.026367	1.639417
0.026465	1.639413
0.026562	1.639401
0.026660	1.639445
0.026758	1.639355
0.026855	1.639398
0.026953	1.639373
0.027051	1.639407
0.027148	1.639430
0.027246	1.639435
0.027344	1.639348
0.027441	1.639420
0.027539	1.639352
0.027637	1.639382
0.027734	1.639324
0.027832	1.639371
0.027930	1.639349
0.028027	1.639346
0.028125	1.639379
0.028223	1.639423
0.028320	1.639411
0.028418	1.639396
0.028516	1.639334
0.028613	1.639428
0.028711	1.639391
0.028809	1.639440
0.028906	1.639368
0.029004	1.639367
0.029102	1.639483
0.029199	1.639396
0.029297	1.639447
0.029395	1.639326
0.029492	1.639342
0.029590	1.639417
0.029687	1.639373
0.029785	1.639484
0.029883	1.639454
0.029980	1.639429
0.030078	1.639459
0.030176	1.639446
0.030273	1.639506
0.030371	1.639478
0.030469	1.639553
0.030566	1.639479
0.030664	1.639517
0.030762	1.639550
0.030859	1.639455
0.030957	1.639528
0.031055	1.639418
0.031152	1.639410
0.031250	1.639429
0.031348	1.639488
0.031445	1.639470
0.031543	1.639517
0.031641	1.639567
0.031738	1.639463
0.031836	1.639526
0.031934	1.639536
0.032031	1.639525
0.032129	1.639567
0.032227	1.639589
0.032324	1.639485
0.032422	1.639556
0.032520	1.639514
0.032617	1.639553
0.032715	1.639542
0.032812	1.639507
0.032910	1.639571
0.033008	1.639612
0.033105	1.639617
0.033203	1.639604
0.033301	1.639594
0.033398	1.639578
0.033496	1.639562
0.033594	1.639578
0.033691	1.639547
0.033789	1.639540
0.033887	1.639522
0.033984	1.639645
0.034082	1.639552
0.034180	1.639683
0.034277	1.639637
0.034375	1.639627
0.034473	1.639699
0.034570	1.639606
0.034668	1.639700
0.034766	1.639689
0.034863	1.639600
0.034961	1.639683
0.035059	1.639677
0.035156	1.639693
0.035254	1.639632
0.035352	1.639589
0.035449	1.639664
0.035547	1.639656
0.035645	1.639681
0.035742	1.639615
0.035840	1.639666
0.035937	1.639653
0.036035	1.639661
0.036133	1.639660
0.036230	1.639590
0.036328	1.639625
0.036426	1.639707
0.036523	1.639673
0.036621	1.639637
0.036719	1.639734
0.036816	1.639732
0.036914	1.639721
0.037012	1.639646
0.037109	1.639693
0.037207	1.639648
0.037305	1.639702
0.037402	1.639766
0.037500	1.639698
0.037598	1.639720
0.037695	1.639673
0.037793	1.639733
0.037891	1.639736
0.037988	1.639672
0.038086	1.639722
0.038184	1.639753
0.038281	1.639716
0.038379	1.639696
0.038477	1.639720
0.038574	1.639730
0.038672	1.639734
0.038770	1.639741
0.038867	1.639670
0.038965	1.639728
0.039062	1.639658
0.039160	1.639700
0.039258	1.639724
0.039355	1.639672
0.039453	1.639673
0.039551	1.639726
0.039648	1.639691
0.039746	1.639683
0.039844	1.639692
0.039941	1.639669
0.040039	1.639625
0.040137	1.639653
0.040234	1.639606
0.040332	1.639576
0.040430	1.639706
0.040527	1.639661
0.040625	1.639698
0.040723	1.639648
0.040820	1.639725
0.040918	1.639562
0.041016	1.639529
0.041113	1.639576
0.041211	1.639481
0.041309	1.639537
0.041406	1.639531
0.041504	1.639591
0.041602	1.639588
0.041699	1.639464
0.041797	1.639575
0.041895	1.639575
0.041992	1.639473
0.042090	1.639545
0.042187	1.639554
0.042285	1.639537
0.042383	1.639547
0.042480	1.639508
0.042578	1.639531
0.042676	1.639531
0.042773	1.639531
0.042871	1.639553
0.042969	1.639559
0.043066	1.639507
0.043164	1.639554
0.043262	1.639537
0.043359	1.639482
0.043457	1.639518
0.043555	1.639511
0.043652	1.639511
0.043750	1.639408
0.043848	1.639382
0.043945	1.639466
0.044043	1.639465
0.044141	1.639509
0.044238	1.639462
0.044336	1.639465
0.044434	1.639473
0.044531	1.639458
0.044629	1.639426
0.044727	1.639440
0.044824	1.639417
0.044922	1.639462
0.045020	1.639514
0.045117	1.639464
0.045215	1.639449
0.045312	1.639471
0.045410	1.639437
0.045508	1.639433
0.045605	1.639423
0.045703	1.639504
0.045801	1.639422
0.045898	1.639536
0.045996	1.639414
0.046094	1.639543
0.046191	1.639447
0.046289	1.639511
0.046387	1.639515
0.046484	1.639495
0.046582	1.639480
0.046680	1.639540
0.046777	1.639480
0.046875	1.639525
0.046973	1.639498
0.047070	1.639511
0.047168	1.639497
0.047266	1.639586
0.047363	1.639512
0.047461	1.639534
0.047559	1.639594
0.047656	1.639600
0.047754	1.639606
0.047852	1.639581
0.047949	1.639608
0.048047	1.639583
0.048145	1.639675
0.048242	1.639620
0.048340	1.639666
0.048437	1.639570
0.048535	1.639601
0.048633	1.639623
0.048730	1.639616
0.048828	1.639642
0.048926	1.639613
0.049023	1.639648
0.049121	1.639587
0.049219	1.639676
0.049316	1.639713
0.049414	1.639673
0.049512	1.639712
0.049609	1.639640
0.049707	1.639660
0.049805	1.639636
0.049902	1.639757
0.050000	1.639734
0.050098	1.639751
0.050195	1.639826
0.050293	1.639871
0.050391	1.639844
0.050488	1.639764
0.050586	1.639832
0.050684	1.639792
0.050781	1.639799
0.050879	1.639753
0.050977	1.639736
0.051074	1.639683
0.051172	1.639658
0.051270	1.639645
0.051367	1.639619
0.051465	1.639724
0.051562	1.639756
0.051660	1.639694
0.051758	1.639694
0.051855	1.639712
0.051953	1.639707
0.052051	1.639660
0.052148	1.639740
0.052246	1.639648
0.052344	1.639714
0.052441	1.639688
0.052539	1.639689
0.052637	1.639672
0.052734	1.639745
0.052832	1.639664
0.052930	1.639771
0.053027	1.639673
0.053125	1.639616
0.053223	1.639670
0.053320	1.639637
0.053418	1.639578
0.053516	1.639610
0.053613	1.639537
0.053711	1.639482
0.053809	1.639459
0.053906	1.639501
0.054004	1.639583
0.054102	1.639605
0.054199	1.639512
0.054297	1.639498
0.054395	1.639534
0.054492	1.639546
0.054590	1.639526
0.054687	1.639534
0.054785	1.639517
0.054883	1.639511
0.054980	1.639468
0.055078	1.639456
0.055176	1.639450
0.055273	1.639511
0.055371	1.639473
0.055469	1.639550
0.055566	1.639405
0.055664	1.639486
0.055762	1.639438
0.055859	1.639459
0.055957	1.639342
0.056055	1.639363
0.056152	1.639352
0.056250	1.639385
0.056348	1.639404
0.056445	1.639337
0.056543	1.639356
0.056641	1.639356
0.056738	1.639273
0.056836	1.639365
0.056934	1.639369
0.057031	1.639365
0.057129	1.639294
0.057227	1.639345
0.057324	1.639410
0.057422	1.639403
0.057520	1.639407
0.057617	1.639307
0.057715	1.639327
0.057812	1.639297
0.057910	1.639402
0.058008	1.639290
0.058105	1.639353
0.058203	1.639373
0.058301	1.639386
0.058398	1.639271
0.058496	1.639406
0.058594	1.639339
0.058691	1.639351
0.058789	1.639345
0.058887	1.639363
0.058984	1.639342
0.059082	1.639382
0.059180	1.639396
0.059277	1.639353
0.059375	1.639364
0.059473	1.639437
0.059570	1.639467
0.059668	1.639464
0.059766	1.639462
0.059863	1.639480
0.059961	1.639460
0.060059	1.639500
0.060156	1.639519
0.060254	1.639519
0.060352	1.639586
0.060449	1.639503
0.060547	1.639572
0.060645	1.639509
0.060742	1.639557
0.060840	1.639524
0.060937	1.639465
0.061035	1.639451
0.061133	1.639387
0.061230	1.639371
0.061328	1.639373
0.061426	1.639462
0.061523	1.639505
0.061621	1.639503
0.061719	1.639473
0.061816	1.639461
0.061914	1.639525
0.062012	1.639475
0.062109	1.639538
0.062207	1.639430
0.062305	1.639599
0.062402	1.639512
0.062500	1.639473
0.062598	1.639515
0.062695	1.639504
0.062793	1.639529
0.062891	1.639564
0.062988	1.639415
0.063086	1.639365
0.063184	1.639417
0.063281	1.639481
0.063379	1.639446
0.063477	1.639449
0.063574	1.639520
0.063672	1.639484
0.063770	1.639368
0.063867	1.639393
0.063965	1.639459
0.064062	1.639437
0.064160	1.639513
0.064258	1.639482
0.064355	1.639473
0.064453	1.639497
0.064551	1.639470
0.064648	1.639517
0.064746	1.639457
0.064844	1.639473
0.064941	1.639514
0.065039	1.639467
0.065137	1.639455
0.065234	1.639502
0.065332	1.639416
0.065430	1.639462
0.065527	1.639543
0.065625	1.639443
0.065723	1.639462
0.065820	1.639417
0.065918	1.639381
0.066016	1.639446
0.066113	1.639448
0.066211	1.639465
0.066309	1.639429
0.066406	1.639435
0.066504	1.639464
0.066602	1.639484
0.066699	1.639450
0.066797	1.639392
0.066895	1.639392
0.066992	1.639414
0.067090	1.639356
0.067187	1.639434
0.067285	1.639420
0.067383	1.639331
0.067480	1.639403
0.067578	1.639323
0.067676	1.639339
0.067773	1.639420
0.067871	1.639406
0.067969	1.639320
0.068066	1.639345
0.068164	1.639404
0.068262	1.639348
0.068359	1.639389
0.068457	1.639338
0.068555	1.639387
0.068652	1.639369
0.068750	1.639373
0.068848	1.639300
0.068945	1.639369
0.069043	1.639305
0.069141	1.639367
0.069238	1.639299
0.069336	1.639329
0.069434	1.639315
0.069531	1.639262
0.069629	1.639345
0.069727	1.639271
0.069824	1.639359
0.069922	1.639298
0.070020	1.639382
0.070117	1.639363
0.070215	1.639323
0.070312	1.639421
0.070410	1.639398
0.070508	1.639324
0.070605	1.639406
0.070703	1.639335
0.070801	1.639344
0.070898	1.639281
0.070996	1.639345
0.071094	1.639219
0.071191	1.639219
0.071289	1.639244
0.071387	1.639280
0.071484	1.639359
0.071582	1.639363
0.071680	1.639363
0.071777	1.639310
0.071875	1.639316
0.071973	1.639312
0.072070	1.639247
0.072168	1.639286
0.072266	1.639318
0.072363	1.639356
0.072461	1.639255
0.072559	1.639328
0.072656	1.639293
0.072754	1.639384
0.072852	1.639301
0.072949	1.639328
0.073047	1.639369
0.073145	1.639260
0.073242	1.639345
0.073340	1.639331
0.073437	1.639262
0.073535	1.639379
0.073633	1.639259
0.073730	1.639265
0.073828	1.639196
0.073926	1.639320
0.074023	1.639304
0.074121	1.639349
0.074219	1.639316
0.074316	1.639329
0.074414	1.639426
0.074512	1.639400
0.074609	1.639459
0.074707	1.639378
0.074805	1.639428
0.074902	1.639393
0.075000	1.639467
0.075098	1.639396
0.075195	1.639393
0.075293	1.639537
0.075391	1.639450
0.075488	1.639453
0.075586	1.639519
0.075684	1.639460
0.075781	1.639492
0.075879	1.639406
0.075977	1.639459
0.076074	1.639492
0.076172	1.639475
0.076270	1.639518
0.076367	1.639561
0.076465	1.639482
0.076562	1.639549
0.076660	1.639478
0.076758	1.639524
0.076855	1.639535
0.076953	1.639529
0.077051	1.639559
0.077148	1.639548
0.077246	1.639569
0.077344	1.639574
0.077441	1.639618
0.077539	1.639561
0.077637	1.639672
0.077734	1.639603
0.077832	1.639614
0.077930	1.639605
0.078027	1.639577
0.078125	1.639605
0.078223	1.639622
0.078320	1.639625
0.078418	1.639668
0.078516	1.639639
0.078613	1.639631
0.078711	1.639589
0.078809	1.639618
0.078906	1.639690
0.079004	1.639671
0.079102	1.639680
0.079199	1.639631
0.079297	1.639648
0.079395	1.639635
0.079492	1.639655
0.079590	1.639646
0.079687	1.639656
0.079785	1.639625
0.079883	1.639659
0.079980	1.639622
0.080078	1.639735
0.080176	1.639653
0.080273	1.639723
0.080371	1.639627
0.080469	1.639636
0.080566	1.639701
0.080664	1.639640
0.080762	1.639683
0.080859	1.639697
0.080957	1.639597
0.081055	1.639589
0.081152	1.639572
0.081250	1.639598
0.081348	1.639560
0.081445	1.639569
0.081543	1.639652
0.081641	1.639614
0.081738	1.639573
0.081836	1.639518
0.081934	1.639580
0.082031	1.639561
0.082129	1.639588
0.082227	1.639569
0.082324	1.639474
0.082422	1.639541
0.082520	1.639562
0.082617	1.639471
0.082715	1.639570
0.082812	1.639529
0.082910	1.639569
0.083008	1.639525
0.083105	1.639505
0.083203	1.639557
0.083301	1.639477
0.083398	1.639486
0.083496	1.639550
0.083594	1.639545
0.083691	1.639466
0.083789	1.639338
0.083887	1.639409
0.083984	1.639442
0.084082	1.639438
0.084180	1.639497
0.084277	1.639451
0.084375	1.639514
0.084473	1.639492
0.084570	1.639503
0.084668	1.639428
0.084766	1.639414
0.084863	1.639431
0.084961	1.639419
0.085059	1.639442
0.085156	1.639516
0.085254	1.639446
0.085352	1.639470
0.085449	1.639451
0.085547	1.639470
0.085645	1.639462
0.085742	1.639437
0.085840	1.639454
0.085937	1.639467
0.086035	1.639506
0.086133	1.639587
0.086230	1.639501
0.086328	1.639461
0.086426	1.639526
0.086523	1.639552
0.086621	1.639561
0.086719	1.639517
0.086816	1.639523
0.086914	1.639553
0.087012	1.639579
0.087109	1.639556
0.087207	1.639561
0.087305	1.639548
0.087402	1.639542
0.087500	1.639510
0.087598	1.639555
0.087695	1.639522
0.087793	1.639619
0.087891	1.639548
0.087988	1.639709
0.088086	1.639606
0.088184	1.639657
0.088281	1.639625
0.088379	1.639626
0.088477	1.639661
0.088574	1.639725
0.088672	1.639623
0.088770	1.639714
0.088867	1.639689
0.088965	1.639573
0.089062	1.639626
0.089160	1.639665
0.089258	1.639701
0.089355	1.639694
0.089453	1.639676
0.089551	1.639661
0.089648	1.639702
0.089746	1.639666
0.089844	1.639728
0.089941	1.639731
0.090039	1.639760
0.090137	1.639780
0.090234	1.639753
0.090332	1.639841
0.090430	1.639816
0.090527	1.639816
0.090625	1.639935
0.090723	1.639842
0.090820	1.639872
0.090918	1.639785
0.091016	1.639802
0.091113	1.639828
0.091211	1.639753
0.091309	1.639807
0.091406	1.639867
0.091504	1.639891
0.091602	1.639875
0.091699	1.639908
0.091797	1.639860
0.091895	1.639860
0.091992	1.639851
0.092090	1.639878
0.092187	1.639911
0.092285	1.639909
0.092383	1.639877
0.092480	1.639891
0.092578	1.639922
0.092676	1.639882
0.092773	1.639858
0.092871	1.639823
0.092969	1.639938
0.093066	1.639905
0.093164	1.639853
0.093262	1.639902
0.093359	1.639853
0.093457	1.639990
0.093555	1.639863
0.093652	1.639799
0.093750	1.639780
0.093848	1.639725
0.093945	1.639810
0.094043	1.639815
0.094141	1.639840
0.094238	1.639785
0.094336	1.639816
0.094434	1.639839
0.094531	1.639785
0.094629	1.639940
0.094727	1.639838
0.094824	1.639843
0.094922	1.639819
0.095020	1.639825
0.095117	1.639907
0.095215	1.639903
0.095312	1.639817
0.095410	1.639858
0.095508	1.639820
0.095605	1.639866
0.095703	1.639918
0.095801	1.639851
0.095898	1.639894
0.095996	1.639843
0.096094	1.639905
0.096191	1.639882
0.096289	1.639886
0.096387	1.639917
0.096484	1.639957
0.096582	1.639878
0.096680	1.639902
0.096777	1.639877
0.096875	1.639918
0.096973	1.639866
0.097070	1.639855
0.097168	1.639889
0.097266	1.639857
0.097363	1.639910
0.097461	1.639886
0.097559	1.639879
0.097656	1.639913
0.097754	1.639806
0.097852	1.639897
0.097949	1.639921
0.098047	1.639860
0.098145	1.639871
0.098242	1.639889
0.098340	1.639768
0.098437	1.639865
0.098535	1.639810
0.098633	1.639881
0.098730	1.639902
0.098828	1.639863
0.098926	1.639883
0.099023	1.639844
0.099121	1.639837
0.099219	1.639839
0.099316	1.639828
0.099414	1.639820
0.099512	1.639859
0.099609	1.639932
0.099707	1.639911
0.099805	1.639882
0.099902	1.639937
0.100000	1.639915
0.100098	1.639949
0.100195	1.639917
0.100293	1.639993
0.100391	1.639902
0.100488	1.639944
0.100586	1.640007
0.100684	1.639944
0.100781	1.639990
0.100879	1.639901
0.100977	1.639928
0.101074	1.639895
0.101172	1.639724
0.101270	1.639883
0.101367	1.639900
0.101465	1.639894
0.101562	1.639904
0.101660	1.639951
0.101758	1.639907
0.101855	1.639868
0.101953	1.639853
0.102051	1.639936
0.102148	1.639916
0.102246	1.639868
0.102344	1.639838
0.102441	1.639926
0.102539	1.639896
0.102637	1.639805
0.102734	1.639954
0.102832	1.639891
0.102930	1.639933
0.103027	1.639849
0.103125	1.639870
0.103223	1.639930
0.103320	1.639913
0.103418	1.639929
0.103516	1.639883
0.103613	1.639855
0.103711	1.639816
0.103809	1.639757
0.103906	1.639866
0.104004	1.639915
0.104102	1.639944
0.104199	1.639938
0.104297	1.639947
0.104395	1.639996
0.104492	1.639972
0.104590	1.639963
0.104687	1.639983
0.104785	1.640018
0.104883	1.639963
0.104980	1.639999
0.105078	1.639905
0.105176	1.640030
0.105273	1.639980
0.105371	1.640034
0.105469	1.640056
0.105566	1.640065
0.105664	1.640094
0.105762	1.640063
0.105859	1.640148
0.105957	1.640134
0.106055	1.640155
0.106152	1.640080
0.106250	1.640145
0.106348	1.640144
0.106445	1.640112
0.106543	1.640137
0.106641	1.640112
0.106738	1.640163
0.106836	1.640144
0.106934	1.640134
0.107031	1.640181
0.107129	1.640145
0.107227	1.640101
0.107324	1.640175
0.107422	1.640079
0.107520	1.640049
0.107617	1.640100
0.107715	1.640063
0.107812	1.640233
0.107910	1.640066
0.108008	1.640099
0.108105	1.640069
0.108203	1.640080
0.108301	1.640141
0.108398	1.640076
0.108496	1.640076
0.108594	1.640040
0.108691	1.640066
0.108789	1.640087
0.108887	1.640021
0.108984	1.639966
0.109082	1.640066
0.109180	1.640000
0.109277	1.640060
0.109375	1.640005
0.109473	1.640021
0.109570	1.639940
0.109668	1.639946
0.109766	1.640023
0.109863	1.639952
0.109961	1.640010
0.110059	1.640093
0.110156	1.640038
0.110254	1.640076
0.110352	1.640015
0.110449	1.640010
0.110547	1.640052
0.110645	1.640036
0.110742	1.639963
0.110840	1.639938
0.110937	1.639938
0.111035	1.639872
0.111133	1.639872
0.111230	1.639830
0.111328	1.639934
0.111426	1.639851
0.111523	1.639899
0.111621	1.639928
0.111719	1.639882
0.111816	1.639822
0.111914	1.639897
0.112012	1.639911
0.112109	1.639851
0.112207	1.639976
0.112305	1.639940
0.112402	1.639952
0.112500	1.639879
0.112598	1.639912
0.112695	1.639893
0.112793	1.639947
0.112891	1.639954
0.112988	1.639955
0.113086	1.639900
0.113184	1.639864
0.113281	1.639902
0.113379	1.639922
0.113477	1.639952
0.113574	1.639931
0.113672	1.639907
0.113770	1.639872
0.113867	1.639908
0.113965	1.639963
0.114062	1.640032
0.114160	1.640028
0.114258	1.640082
0.114355	1.640038
0.114453	1.640063
0.114551	1.640091
0.114648	1.640087
0.114746	1.640036
0.114844	1.640101
0.114941	1.640071
0.115039	1.640099
0.115137	1.640138
0.115234	1.640121
0.115332	1.640152
0.115430	1.640057
0.115527	1.640109
0.115625	1.640133
0.115723	1.640145
0.115820	1.640107
0.115918	1.640072
0.116016	1.640152
0.116113	1.640114
0.116211	1.640104
0.116309	1.640134
0.116406	1.640163
0.116504	1.640050
0.116602	1.640053
0.116699	1.640124
0.116797	1.640074
0.116895	1.640080
0.116992	1.640012
0.117090	1.640063
0.117187	1.640013
0.117285	1.640040
0.117383	1.639982
0.117480	1.640030
0.117578	1.640066
0.117676	1.639986
0.117773	1.640010
0.117871	1.640001
0.117969	1.639991
0.118066	1.639974
0.118164	1.639977
0.118262	1.639922
0.118359	1.639866
0.118457	1.639921
0.118555	1.639924
0.118652	1.639794
0.118750	1.639954
0.118848	1.639797
0.118945	1.639819
0.119043	1.639872
0.119141	1.639866
0.119238	1.639875
0.119336	1.639871
0.119434	1.639855
0.119531	1.639882
0.119629	1.639708
0.119727	1.639752
0.119824	1.639782
0.119922	1.639707
0.120020	1.639819
0.120117	1.639711
0.120215	1.639853
0.120312	1.639817
0.120410	1.639806
0.120508	1.639797
0.120605	1.639816
0.120703	1.639744
0.120801	1.639799
0.120898	1.639692
0.120996	1.639683
0.121094	1.639641
0.121191	1.639631
0.121289	1.639626
0.121387	1.639622
0.121484	1.639645
0.121582	1.639752
0.121680	1.639697
0.121777	1.639669
0.121875	1.639614
0.121973	1.639568
0.122070	1.639743
0.122168	1.639560
0.122266	1.639574
0.122363	1.639687
0.122461	1.639622
0.122559	1.639679
0.122656	1.639622
0.122754	1.639700
0.122852	1.639617
0.122949	1.639631
0.123047	1.639570
0.123145	1.639664
0.123242	1.639628
0.123340	1.639675
0.123437	1.639662
0.123535	1.639585
0.123633	1.639592
0.123730	1.639537
0.123828	1.639497
0.123926	1.639645
0.124023	1.639609
0.124121	1.639558
0.124219	1.639584
0.124316	1.639654
0.124414	1.639684
0.124512	1.639557
0.124609	1.639653
0.124707	1.639626
0.124805	1.639704
0.124902	1.639666
0.125000	1.639709
0.125098	1.639685
0.125195	1.639764
0.125293	1.639743
0.125391	1.639645
0.125488	1.639716
0.125586	1.639661
0.125684	1.639642
0.125781	1.639733
0.125879	1.639660
0.125977	1.639744
0.126074	1.639769
0.126172	1.639791
0.126270	1.639741
0.126367	1.639755
0.126465	1.639734
0.126562	1.639753
0.126660	1.639798
0.126758	1.639800
0.126855	1.639763
0.126953	1.639766
0.127051	1.639858
0.127148	1.639776
0.127246	1.639756
0.127344	1.639849
0.127441	1.639823
0.127539	1.639857
0.127637	1.639754
0.127734	1.639856
0.127832	1.639775
0.127930	1.639882
0.128027	1.639818
0.128125	1.639859
0.128223	1.639871
0.128320	1.639848
0.128418	1.639853
0.128516	1.639772
0.128613	1.639893
0.128711	1.639848
0.128809	1.639868
0.128906	1.639821
0.129004	1.639883
0.129102	1.639915
0.129199	1.639893
0.129297	1.639864
0.129395	1.639915
0.129492	1.639877
0.129590	1.639850
0.129687	1.639913
0.129785	1.639833
0.129883	1.639917
0.129980	1.639954
0.130078	1.639905
0.130176	1.639991
0.130273	1.639908
0.130371	1.639913
0.130469	1.639896
0.130566	1.639971
0.130664	1.639958
0.130762	1.639951
0.130859	1.639966
0.130957	1.639838
0.131055	1.639902
0.131152	1.639805
0.131250	1.639839
0.131348	1.639860
0.131445	1.639910
0.131543	1.639800
0.131641	1.639836
0.131738	1.639832
0.131836	1.639855
0.131934	1.639890
0.132031	1.639827
0.132129	1.639810
0.132227	1.639801
0.132324	1.639830
0.132422	1.639863
0.132520	1.639792
0.132617	1.639830
0.132715	1.639838
0.132812	1.639828
0.132910	1.639831
0.133008	1.639830
0.133105	1.639799
0.133203	1.639787
0.133301	1.639706
0.133398	1.639738
0.133496	1.639719
0.133594	1.639767
0.133691	1.639705
0.133789	1.639698
0.133887	1.639717
0.133984	1.639801
0.134082	1.639800
0.134180	1.639861
0.134277	1.639755
0.134375	1.639872
0.134473	1.639759
0.134570	1.639852
0.134668	1.639770
0.134766	1.639824
0.134863	1.639852
0.134961	1.639826
0.135059	1.639844
0.135156	1.639941
0.135254	1.639845
0.135352	1.639871
0.135449	1.639857
0.135547	1.639844
0.135645	1.639811
0.135742	1.639888
0.135840	1.639843
0.135937	1.639934
0.136035	1.639961
0.136133	1.639851
0.136230	1.639919
0.136328	1.639944
0.136426	1.639952
0.136523	1.639922
0.136621	1.639968
0.136719	1.639952
0.136816	1.639900
0.136914	1.639930
0.137012	1.639960
0.137109	1.639942
0.137207	1.639894
0.137305	1.639951
0.137402	1.640003
0.137500	1.639915
0.137598	1.640016
0.137695	1.639957
0.137793	1.639897
0.137891	1.639962
0.137988	1.639965
0.138086	1.639891
0.138184	1.639854
0.138281	1.639936
0.138379	1.639907
0.138477	1.639849
0.138574	1.639821
0.138672	1.639875
0.138770	1.639778
0.138867	1.639823
0.138965	1.639849
0.139062	1.639787
0.139160	1.639816
0.139258	1.639785
0.139355	1.639751
0.139453	1.639832
0.139551	1.639832
0.139648	1.639746
0.139746	1.639814
0.139844	1.639885
0.139941	1.639761
0.140039	1.639909
0.140137	1.639833
0.140234	1.639832
0.140332	1.639898
0.140430	1.639921
0.140527	1.639837
0.140625	1.639840
0.140723	1.639890
0.140820	1.639881
0.140918	1.639802
0.141016	1.639850
0.141113	1.639806
0.141211	1.639695
0.141309	1.639780
0.141406	1.639899
0.141504	1.639843
0.141602	1.639880
0.141699	1.639887
0.141797	1.639836
0.141895	1.639855
0.141992	1.639799
0.142090	1.639810
0.142187	1.639868
0.142285	1.639952
0.142383	1.639850
0.142480	1.639919
0.142578	1.639907
0.142676	1.640000
0.142773	1.639906
0.142871	1.639888
0.142969	1.639950
0.143066	1.639894
0.143164	1.639978
0.143262	1.639954
0.143359	1.639899
0.143457	1.639960
0.143555	1.639851
0.143652	1.639849
0.143750	1.639813
0.143848	1.639816
0.143945	1.639956
0.144043	1.639901
0.144141	1.639900
0.144238	1.639991
0.144336	1.639935
0.144434	1.639961
0.144531	1.639983
0.144629	1.639918
0.144727	1.639941
0.144824	1.640005
0.144922	1.639954
0.145020	1.639974
0.145117	1.639954
0.145215	1.639979
0.145312	1.640036
0.145410	1.639935
0.145508	1.640010
0.145605	1.639965
0.145703	1.640032
0.145801	1.640034
0.145898	1.640083
0.145996	1.639977
0.146094	1.640026
0.146191	1.639999
0.146289	1.640016
0.146387	1.639985
0.146484	1.639974
0.146582	1.640027
0.146680	1.640048
0.146777	1.640037
0.146875	1.640002
0.146973	1.640020
0.147070	1.640043
0.147168	1.640078
0.147266	1.640062
0.147363	1.639994
0.147461	1.640046
0.147559	1.640024
0.147656	1.639971
0.147754	1.640046
0.147852	1.640060
0.147949	1.639993
0.148047	1.640030
0.148145	1.639983
0.148242	1.640023
0.148340	1.640025
0.148437	1.640054
0.148535	1.640109
0.148633	1.640052
0.148730	1.639992
0.148828	1.639988
0.148926	1.640030
0.149023	1.640013
0.149121	1.640014
0.149219	1.640007
0.149316	1.639994
0.149414	1.639934
0.149512	1.639941
0.149609	1.639930
0.149707	1.639993
0.149805	1.640019
0.149902	1.640018
0.150000	1.640023
0.150098	1.640032
0.150195	1.640023
0.150293	1.639995
0.150391	1.640060
0.150488	1.640033
0.150586	1.640093
0.150684	1.640048
0.150781	1.640015
0.150879	1.640064
0.150977	1.639927
0.151074	1.639944
0.151172	1.639978
0.151270	1.639937
0.151367	1.639915
0.151465	1.640004
0.151562	1.639986
0.151660	1.640018
0.151758	1.639946
0.151855	1.639935
0.151953	1.639958
0.152051	1.639946
0.152148	1.639914
0.152246	1.639930
0.152344	1.639985
0.152441	1.639953
0.152539	1.639977
0.152637	1.639961
0.152734	1.639964
0.152832	1.639954
0.152930	1.639939
0.153027	1.639954
0.153125	1.639936
0.153223	1.639925
0.153320	1.639928
0.153418	1.639939
0.153516	1.639921
0.153613	1.639823
0.153711	1.639897
0.153809	1.639799
0.153906	1.639896
0.154004	1.639863
0.154102	1.639934
0.154199	1.639941
0.154297	1.639826
0.154395	1.639900
0.154492	1.639954
0.154590	1.639889
0.154687	1.639965
0.154785	1.639866
0.154883	1.639975
0.154980	1.639974
0.155078	1.639916
0.155176	1.639960
0.155273	1.639937
0.155371	1.639920
0.155469	1.639918
0.155566	1.639980
0.155664	1.639903
0.155762	1.639872
0.155859	1.639941
0.155957	1.639852
0.156055	1.639926
0.156152	1.639913
0.156250	1.639849
0.156348	1.639863
0.156445	1.639930
0.156543	1.639873
0.156641	1.639863
0.156738	1.639839
0.156836	1.639840
0.156934	1.639839
0.157031	1.639781
0.157129	1.639847
0.157227	1.639822
0.157324	1.639814
0.157422	1.639848
0.157520	1.639783
0.157617	1.639784
0.157715	1.639802
0.157812	1.639796
0.157910	1.639702
0.158008	1.639733
0.158105	1.639802
0.158203	1.639750
0.158301	1.639774
0.158398	1.639828
0.158496	1.639632
0.158594	1.639643
0.158691	1.639632
0.158789	1.639683
0.158887	1.639670
0.158984	1.639622
0.159082	1.639688
0.159180	1.639659
0.159277	1.639653
0.159375	1.639626
0.159473	1.639561
0.159570	1.639594
0.159668	1.639551
0.159766	1.639656
0.159863	1.639585
0.159961	1.639617
0.160059	1.639576
0.160156	1.639565
0.160254	1.639625
0.160352	1.639555
0.160449	1.639586
0.160547	1.639549
0.160645	1.639562
0.160742	1.639590
0.160840	1.639556
0.160937	1.639517
0.161035	1.639564
0.161133	1.639414
0.161230	1.639432
0.161328	1.639500
0.161426	1.639440
0.161523	1.639496
0.161621	1.639453
0.161719	1.639525
0.161816	1.639378
0.161914	1.639450
0.162012	1.639431
0.162109	1.639401
0.162207	1.639425
0.162305	1.639412
0.162402	1.639473
0.162500	1.639432
0.162598	1.639393
0.162695	1.639435
0.162793	1.639338
0.162891	1.639417
0.162988	1.639340
0.163086	1.639482
0.163184	1.639437
0.163281	1.639443
0.163379	1.639413
0.163477	1.639457
0.163574	1.639446
0.163672	1.639399
0.163770	1.639403
0.163867	1.639362
0.163965	1.639460
0.164062	1.639417
0.164160	1.639502
0.164258	1.639401
0.164355	1.639493
0.164453	1.639448
0.164551	1.639450
0.164648	1.639540
0.164746	1.639493
0.164844	1.639506
0.164941	1.639493
0.165039	1.639472
0.165137	1.639525
0.165234	1.639515
0.165332	1.639489
0.165430	1.639522
0.165527	1.639475
0.165625	1.639496
0.165723	1.639524
0.165820	1.639489
0.165918	1.639554
0.166016	1.639541
0.166113	1.639545
0.166211	1.639547
0.166309	1.639515
0.166406	1.639526
0.166504	1.639509
0.166602	1.639566
0.166699	1.639473
0.166797	1.639606
0.166895	1.639526
0.166992	1.639623
0.167090	1.639580
0.167187	1.639560
0.167285	1.639560
0.167383	1.639570
0.167480	1.639612
0.167578	1.639570
0.167676	1.639577
0.167773	1.639589
0.167871	1.639610
0.167969	1.639622
0.168066	1.639607
0.168164	1.639603
0.168262	1.639638
0.168359	1.639655
0.168457	1.639698
0.168555	1.639639
0.168652	1.639662
0.168750	1.639677
0.168848	1.639677
0.168945	1.639647
0.169043	1.639639
0.169141	1.639641
0.169238	1.639625
0.169336	1.639707
0.169434	1.639660
0.169531	1.639713
0.169629	1.639654
0.169727	1.639726
0.169824	1.639738
0.169922	1.639727
0.170020	1.639735
0.170117	1.639769
0.170215	1.639751
0.170312	1.639771
0.170410	1.639772
0.170508	1.639767
0.170605	1.639794
0.170703	1.639753
0.170801	1.639821
0.170898	1.639700
0.170996	1.639713
0.171094	1.639625
0.171191	1.639651
0.171289	1.639731
0.171387	1.639697
0.171484	1.639731
0.171582	1.639692
0.171680	1.639738
0.171777	1.639622
0.171875	1.639709
0.171973	1.639636
0.172070	1.639740
0.172168	1.639609
0.172266	1.639647
0.172363	1.639708
0.172461	1.639597
0.172559	1.639598
0.172656	1.639603
0.172754	1.639563
0.172852	1.639618
0.172949	1.639649
0.173047	1.639506
0.173145	1.639552
0.173242	1.639518
0.173340	1.639542
0.173437	1.639556
0.173535	1.639511
0.173633	1.639440
0.173730	1.639409
0.173828	1.639350
0.173926	1.639501
0.174023	1.639530
0.174121	1.639520
0.174219	1.639484
0.174316	1.639448
0.174414	1.639475
0.174512	1.639444
0.174609	1.639529
0.174707	1.639464
0.174805	1.639390
0.174902	1.639451
0.175000	1.639463
0.175098	1.639327
0.175195	1.639401
0.175293	1.639417
0.175391	1.639480
0.175488	1.639374
0.175586	1.639429
0.175684	1.639363
0.175781	1.639419
0.175879	1.639342
0.175977	1.639396
0.176074	1.639343
0.176172	1.639424
0.176270	1.639450
0.176367	1.639415
0.176465	1.639436
0.176562	1.639396
0.176660	1.639421
0.176758	1.639460
0.176855	1.639381
0.176953	1.639466
0.177051	1.639434
0.177148	1.639436
0.177246	1.639493
0.177344	1.639407
0.177441	1.639513
0.177539	1.639410
0.177637	1.639545
0.177734	1.639523
0.177832	1.639545
0.177930	1.639464
0.178027	1.639539
0.178125	1.639571
0.178223	1.639542
0.178320	1.639559
0.178418	1.639466
0.178516	1.639492
0.178613	1.639533
0.178711	1.639554
0.178809	1.639559
0.178906	1.639581
0.179004	1.639522
0.179102	1.639597
0.179199	1.639565
0.179297	1.639530
0.179395	1.639597
0.179492	1.639571
0.179590	1.639607
0.179687	1.639591
0.179785	1.639639
0.179883	1.639662
0.179980	1.639621
0.180078	1.639583
0.180176	1.639642
0.180273	1.639615
0.180371	1.639703
0.180469	1.639714
0.180566	1.639688
0.180664	1.639721
0.180762	1.639725
0.180859	1.639634
0.180957	1.639653
0.181055	1.639708
0.181152	1.639589
0.181250	1.639769
0.181348	1.639724
0.181445	1.639726
0.181543	1.639774
0.181641	1.639725
0.181738	1.639700
0.181836	1.639741
0.181934	1.639724
0.182031	1.639680
0.182129	1.639730
0.182227	1.639766
0.182324	1.639733
0.182422	1.639778
0.182520	1.639766
0.182617	1.639738
0.182715	1.639803
0.182812	1.639744
0.182910	1.639898
0.183008	1.639768
0.183105	1.639789
0.183203	1.639753
0.183301	1.639747
0.183398	1.639733
0.183496	1.639803
0.183594	1.639839
0.183691	1.639744
0.183789	1.639697
0.183887	1.639753
0.183984	1.639822
0.184082	1.639854
0.184180	1.639731
0.184277	1.639797
0.184375	1.639742
0.184473	1.639749
0.184570	1.639761
0.184668	1.639783
0.184766	1.639755
0.184863	1.639797
0.184961	1.639761
0.185059	1.639796
0.185156	1.639814
0.185254	1.639799
0.185352	1.639802
0.185449	1.639799
0.185547	1.639762
0.185645	1.639745
0.185742	1.639789
0.185840	1.639742
0.185937	1.639763
0.186035	1.639697
0.186133	1.639742
0.186230	1.639720
0.186328	1.639683
0.186426	1.639773
0.186523	1.639821
0.186621	1.639734
0.186719	1.639698
0.186816	1.639711
0.186914	1.639779
0.187012	1.639758
0.187109	1.639814
0.187207	1.639753
0.187305	1.639749
0.187402	1.639744
0.187500	1.639684
0.187598	1.639786
0.187695	1.639756
0.187793	1.639803
0.187891	1.639747
0.187988	1.639742
0.188086	1.639728
0.188184	1.639751
0.188281	1.639742
0.188379	1.639705
0.188477	1.639722
0.188574	1.639681
0.188672	1.639695
0.188770	1.639714
0.188867	1.639708
0.188965	1.639790
0.189062	1.639768
0.189160	1.639742
0.189258	1.639808
0.189355	1.639761
0.189453	1.639745
0.189551	1.639711
0.189648	1.639764
0.189746	1.639775
0.189844	1.639764
0.189941	1.639757
0.190039	1.639850
0.190137	1.639800
0.190234	1.639784
0.190332	1.639844
0.190430	1.639810
0.190527	1.639820
0.190625	1.639782
0.190723	1.639818
0.190820	1.639810
0.190918	1.639745
0.191016	1.639730
0.191113	1.639656
0.191211	1.639624
0.191309	1.639724
0.191406	1.639711
0.191504	1.639802
0.191602	1.639721
0.191699	1.639806
0.191797	1.639702
0.191895	1.639742
0.191992	1.639708
0.192090	1.639712
0.192187	1.639763
0.192285	1.639700
0.192383	1.639694
0.192480	1.639660
0.192578	1.639656
0.192676	1.639719
0.192773	1.639720
0.192871	1.639648
0.192969	1.639739
0.193066	1.639692
0.193164	1.639669
0.193262	1.639643
0.193359	1.639692
0.193457	1.639704
0.193555	1.639684
0.193652	1.639650
0.193750	1.639595
0.193848	1.639605
0.193945	1.639707
0.194043	1.639621
0.194141	1.639709
0.194238	1.639633
0.194336	1.639661
0.194434	1.639668
0.194531	1.639662
0.194629	1.639674
0.194727	1.639730
0.194824	1.639645
0.194922	1.639657
0.195020	1.639749
0.195117	1.639670
0.195215	1.639678
0.195312	1.639695
0.195410	1.639653
0.195508	1.639729
0.195605	1.639659
0.195703	1.639666
0.195801	1.639665
0.195898	1.639714
0.195996	1.639701
0.196094	1.639690
0.196191	1.639641
0.196289	1.639762
0.196387	1.639655
0.196484	1.639635
0.196582	1.639629
0.196680	1.639644
0.196777	1.639711
0.196875	1.639695
0.196973	1.639645
0.197070	1.639675
0.197168	1.639656
0.197266	1.639641
0.197363	1.639722
0.197461	1.639586
0.197559	1.639668
0.197656	1.639617
0.197754	1.639642
0.197852	1.639655
0.197949	1.639645
0.198047	1.639669
0.198145	1.639650
0.198242	1.639626
0.198340	1.639622
0.198437	1.639648
0.198535	1.639641
0.198633	1.639666
0.198730	1.639616
0.198828	1.639666
0.198926	1.639550
0.199023	1.639628
0.199121	1.639587
0.199219	1.639578
0.199316	1.639574
0.199414	1.639580
0.199512	1.639584
0.199609	1.639650
0.199707	1.639580
0.199805	1.639590
0.199902	1.639584
0.200000	1.639559
0.200098	1.639609
0.200195	1.639606
0.200293	1.639606
0.200391	1.639663
0.200488	1.639609
0.200586	1.639616
0.200684	1.639589
0.200781	1.639531
0.200879	1.639517
0.200977	1.639481
0.201074	1.639446
0.201172	1.639428
0.201270	1.639450
0.201367	1.639561
0.201465	1.639529
0.201562	1.639525
0.201660	1.639471
0.201758	1.639380
0.201855	1.639516
0.201953	1.639449
0.202051	1.639403
0.202148	1.639471
0.202246	1.639435
0.202344	1.639506
0.202441	1.639412
0.202539	1.639472
0.202637	1.639492
0.202734	1.639431
0.202832	1.639435
0.202930	1.639366
0.203027	1.639371
0.203125	1.639300
0.203223	1.639392
0.203320	1.639373
0.203418	1.639294
0.203516	1.639381
0.203613	1.639327
0.203711	1.639296
0.203809	1.639134
0.203906	1.639354
0.204004	1.639396
0.204102	1.639313
0.204199	1.639448
0.204297	1.639386
0.204395	1.639347
0.204492	1.639400
0.204590	1.639315
0.204687	1.639355
0.204785	1.639304
0.204883	1.639368
0.204980	1.639289
0.205078	1.639342
0.205176	1.639322
0.205273	1.639363
0.205371	1.639368
0.205469	1.639333
0.205566	1.639356
0.205664	1.639287
0.205762	1.639388
0.205859	1.639283
0.205957	1.639347
0.206055	1.639301
0.206152	1.639389
0.206250	1.639353
0.206348	1.639360
0.206445	1.639348
0.206543	1.639384
0.206641	1.639376
0.206738	1.639317
0.206836	1.639368
0.206934	1.639425
0.207031	1.639329
0.207129	1.639371
0.207227	1.639442
0.207324	1.639434
0.207422	1.639383
0.207520	1.639364
0.207617	1.639462
0.207715	1.639386
0.207812	1.639431
0.207910	1.639386
0.208008	1.639389
0.208105	1.639448
0.208203	1.639398
0.208301	1.639448
0.208398	1.639401
0.208496	1.639402
0.208594	1.639389
0.208691	1.639421
0.208789	1.639437
0.208887	1.639454
0.208984	1.639395
0.209082	1.639475
0.209180	1.639501
0.209277	1.639435
0.209375	1.639457
0.209473	1.639409
0.209570	1.639363
0.209668	1.639447
0.209766	1.639434
0.209863	1.639524
0.209961	1.639418
0.210059	1.639504
0.210156	1.639478
0.210254	1.639417
0.210352	1.639495
0.210449	1.639490
0.210547	1.639479
0.210645	1.639490
0.210742	1.639539
0.210840	1.639473
0.210937	1.639401
0.211035	1.639387
0.211133	1.639341
0.211230	1.639384
0.211328	1.639388
0.211426	1.639356
0.211523	1.639434
0.211621	1.639420
0.211719	1.639335
0.211816	1.639420
0.211914	1.639374
0.212012	1.639379
0.212109	1.639443
0.212207	1.639396
0.212305	1.639459
0.212402	1.639396
0.212500	1.639381
0.212598	1.639353
0.212695	1.639351
0.212793	1.639350
0.212891	1.639364
0.212988	1.639367
0.213086	1.639317
0.213184	1.639372
0.213281	1.639295
0.213379	1.639333
0.213477	1.639263
0.213574	1.639274
0.213672	1.639175
0.213770	1.639273
0.213867	1.639226
0.213965	1.639293
0.214062	1.639208
0.214160	1.639286
0.214258	1.639168
0.214355	1.639241
0.214453	1.639225
0.214551	1.639244
0.214648	1.639295
0.214746	1.639210
0.214844	1.639288
0.214941	1.639199
0.215039	1.639166
0.215137	1.639166
0.215234	1.639165
0.215332	1.639194
0.215430	1.639088
0.215527	1.639166
0.215625	1.639136
0.215723	1.639129
0.215820	1.639124
0.215918	1.639220
0.216016	1.639116
0.216113	1.639165
0.216211	1.639173
0.216309	1.639193
0.216406	1.639133
0.216504	1.639131
0.216602	1.639097
0.216699	1.639151
0.216797	1.639118
0.216895	1.639047
0.216992	1.639160
0.217090	1.639085
0.217187	1.639183
0.217285	1.639165
0.217383	1.639168
0.217480	1.639169
0.217578	1.639174
0.217676	1.639173
0.217773	1.639196
0.217871	1.639157
0.217969	1.639155
0.218066	1.639143
0.218164	1.639142
0.218262	1.639240
0.218359	1.639137
0.218457	1.639127
0.218555	1.639198
0.218652	1.639195
0.218750	1.639248
0.218848	1.639276
0.218945	1.639219
0.219043	1.639161
0.219141	1.639260
0.219238	1.639196
0.219336	1.639230
0.219434	1.639288
0.219531	1.639197
0.219629	1.639239
0.219727	1.639340
0.219824	1.639306
0.219922	1.639274
0.220020	1.639318
0.220117	1.639284
0.220215	1.639287
0.220312	1.639342
0.220410	1.639427
0.220508	1.639391
0.220605	1.639408
0.220703	1.639359
0.220801	1.639321
0.220898	1.639324
0.220996	1.639305
0.221094	1.639264
0.221191	1.639221
0.221289	1.639389
0.221387	1.639375
0.221484	1.639308
0.221582	1.639387
0.221680	1.639323
0.221777	1.639313
0.221875	1.639252
0.221973	1.639327
0.222070	1.639259
0.222168	1.639304
0.222266	1.639320
0.222363	1.639262
0.222461	1.639321
0.222559	1.639283
0.222656	1.639300
0.222754	1.639292
0.222852	1.639244
0.222949	1.639205
0.223047	1.639294
0.223145	1.639294
0.223242	1.639279
0.223340	1.639216
0.223437	1.639291
0.223535	1.639295
0.223633	1.639223
0.223730	1.639118
0.223828	1.639128
0.223926	1.639262
0.224023	1.639219
0.224121	1.639265
0.224219	1.639249
0.224316	1.639219
0.224414	1.639168
0.224512	1.639189
0.224609	1.639197
0.224707	1.639160
0.224805	1.639151
0.224902	1.639150
0.225000	1.639233
0.225098	1.639196
0.225195	1.639278
0.225293	1.639213
0.225391	1.639144
0.225488	1.639255
0.225586	1.639136
0.225684	1.639204
0.225781	1.639232
0.225879	1.639172
0.225977	1.639170
0.226074	1.639164
0.226172	1.639109
0.226270	1.639154
0.226367	1.639090
0.226465	1.639148
0.226562	1.639073
0.226660	1.639113
0.226758	1.639122
0.226855	1.639070
0.226953	1.639140
0.227051	1.639075
0.227148	1.639041
0.227246	1.639063
0.227344	1.638994
0.227441	1.639001
0.227539	1.639011
0.227637	1.638963
0.227734	1.639004
0.227832	1.639003
0.227930	1.639004
0.228027	1.639006
0.228125	1.638952
0.228223	1.638991
0.228320	1.638954
0.228418	1.638953
0.228516	1.638936
0.228613	1.638930
0.228711	1.638834
0.228809	1.638822
0.228906	1.638900
0.229004	1.638875
0.229102	1.638865
0.229199	1.638885
0.229297	1.638814
0.229395	1.638911
0.229492	1.638834
0.229590	1.638848
0.229687	1.638814
0.229785	1.638922
0.229883	1.638922
0.229980	1.638850
0.230078	1.638839
0.230176	1.638895
0.230273	1.638875
0.230371	1.638820
0.230469	1.638895
0.230566	1.638947
0.230664	1.638880
0.230762	1.638892
0.230859	1.638834
0.230957	1.638822
0.231055	1.638846
0.231152	1.638684
0.231250	1.638746
0.231348	1.638814
0.231445	1.638822
0.231543	1.638852
0.231641	1.638822
0.231738	1.638839
0.231836	1.638856
0.231934	1.638762
0.232031	1.638842
0.232129	1.638848
0.232227	1.638883
0.232324	1.638891
0.232422	1.638899
0.232520	1.638838
0.232617	1.638860
0.232715	1.638830
0.232812	1.638805
0.232910	1.638856
0.233008	1.638861
0.233105	1.638811
0.233203	1.638861
0.233301	1.638878
0.233398	1.638896
0.233496	1.638789
0.233594	1.638770
0.233691	1.638714
0.233789	1.638785
0.233887	1.638796
0.233984	1.638944
0.234082	1.638847
0.234180	1.638852
0.234277	1.638832
0.234375	1.638838
0.234473	1.638927
0.234570	1.638892
0.234668	1.638877
0.234766	1.638907
0.234863	1.638960
0.234961	1.638958
0.235059	1.638898
0.235156	1.638930
0.235254	1.639033
0.235352	1.638949
0.235449	1.638994
0.235547	1.638974
0.235645	1.639020
0.235742	1.638975
0.235840	1.639039
0.235937	1.639017
0.236035	1.639049
0.236133	1.639110
0.236230	1.639083
0.236328	1.639067
0.236426	1.639055
0.236523	1.639081
0.236621	1.639088
0.236719	1.639133
0.236816	1.639072
0.236914	1.639107
0.237012	1.639187
0.237109	1.639077
0.237207	1.639173
0.237305	1.639146
0.237402	1.639144
0.237500	1.639187
0.237598	1.639189
0.237695	1.639193
0.237793	1.639188
0.237891	1.639187
0.237988	1.639195
0.238086	1.639158
0.238184	1.639204
0.238281	1.639083
0.238379	1.639235
0.238477	1.639180
0.238574	1.639197
0.238672	1.639202
0.238770	1.639149
0.238867	1.639167
0.238965	1.639182
0.239062	1.639113
0.239160	1.639176
0.239258	1.639138
0.239355	1.639036
0.239453	1.639130
0.239551	1.639092
0.239648	1.639124
0.239746	1.639134
0.239844	1.639079
0.239941	1.639162
0.240039	1.639113
0.240137	1.639161
0.240234	1.639093
0.240332	1.639150
0.240430	1.639121
0.240527	1.639107
0.240625	1.639166
0.240723	1.639104
0.240820	1.639102
0.240918	1.639053
0.241016	1.639067
0.241113	1.638953
0.241211	1.638990
0.241309	1.638983
0.241406	1.639055
0.241504	1.639025
0.241602	1.639035
0.241699	1.639078
0.241797	1.639002
0.241895	1.639002
0.241992	1.639033
0.242090	1.638978
0.242187	1.638992
0.242285	1.638926
0.242383	1.639028
0.242480	1.638947
0.242578	1.638984
0.242676	1.638991
0.242773	1.639033
0.242871	1.639020
0.242969	1.638944
0.243066	1.638975
0.243164	1.638949
0.243262	1.638955
0.243359	1.638936
0.243457	1.638905
0.243555	1.638801
0.243652	1.638823
0.243750	1.638775
0.243848	1.638770
0.243945	1.638895
0.244043	1.638881
0.244141	1.638978
0.244238	1.638880
0.244336	1.638859
0.244434	1.638875
0.244531	1.638917
0.244629	1.638813
0.244727	1.638886
0.244824	1.638866
0.244922	1.638842
0.245020	1.638845
0.245117	1.638839
0.245215	1.638846
0.245312	1.638825
0.245410	1.638799
0.245508	1.638790
0.245605	1.638756
0.245703	1.638840
0.245801	1.638869
0.245898	1.638805
0.245996	1.638851
0.246094	1.638802
0.246191	1.638849
0.246289	1.638790
0.246387	1.638830
0.246484	1.638790
0.246582	1.638845
0.246680	1.638801
0.246777	1.638836
0.246875	1.638847
0.246973	1.638845
0.247070	1.638864
0.247168	1.638872
0.247266	1.638814
0.247363	1.638817
0.247461	1.638809
0.247559	1.638801
0.247656	1.638877
0.247754	1.638873
0.247852	1.638839
0.247949	1.638814
0.248047	1.638911
0.248145	1.638889
0.248242	1.638934
0.248340	1.638941
0.248437	1.638956
0.248535	1.638985
0.248633	1.638923
0.248730	1.639030
0.248828	1.638949
0.248926	1.639044
0.249023	1.638986
0.249121	1.639022
0.249219	1.639006
0.249316	1.639085
0.249414	1.639031
0.249512	1.639010
0.249609	1.639083
0.249707	1.639075
0.249805	1.639088
0.249902	1.639160
0.250000	1.639135
0.250098	1.639102
0.250195	1.639121
0.250293	1.639205
0.250391	1.639159
0.250488	1.639298
0.250586	1.639215
0.250684	1.639201
0.250781	1.639261
0.250879	1.639214
0.250977	1.639165
0.251074	1.639153
0.251172	1.639069
0.251270	1.639223
0.251367	1.639172
0.251465	1.639188
0.251562	1.639235
0.251660	1.639130
0.251758	1.639201
0.251855	1.639177
0.251953	1.639163
0.252051	1.639189
0.252148	1.639201
0.252246	1.639221
0.252344	1.639177
0.252441	1.639248
0.252539	1.639238
0.252637	1.639130
0.252734	1.639173
0.252832	1.639229
0.252930	1.639193
0.253027	1.639167
0.253125	1.639172
0.253223	1.639152
0.253320	1.639188
0.253418	1.639211
0.253516	1.639195
0.253613	1.639129
0.253711	1.639093
0.253809	1.639093
0.253906	1.639184
0.254004	1.639136
0.254102	1.639202
0.254199	1.639188
0.254297	1.639171
0.254395	1.639267
0.254492	1.639175
0.254590	1.639302
0.254687	1.639226
0.254785	1.639246
0.254883	1.639223
0.254980	1.639221
0.255078	1.639206
0.255176	1.639348
0.255273	1.639283
0.255371	1.639219
0.255469	1.639240
0.255566	1.639237
0.255664	1.639298
0.255762	1.639176
0.255859	1.639249
0.255957	1.639262
0.256055	1.639226
0.256152	1.639232
0.256250	1.639241
0.256348	1.639353
0.256445	1.639257
0.256543	1.639277
0.256641	1.639281
0.256738	1.639297
0.256836	1.639342
0.256934	1.639196
0.257031	1.639290
0.257129	1.639281
0.257227	1.639288
0.257324	1.639304
0.257422	1.639319
0.257520	1.639396
0.257617	1.639300
0.257715	1.639421
0.257812	1.639330
0.257910	1.639389
0.258008	1.639349
0.258105	1.639280
0.258203	1.639373
0.258301	1.639343
0.258398	1.639356
0.258496	1.639345
0.258594	1.639346
0.258691	1.639315
0.258789	1.639257
0.258887	1.639353
0.258984	1.639295
0.259082	1.639281
0.259180	1.639412
0.259277	1.639293
0.259375	1.639317
0.259473	1.639272
0.259570	1.639334
0.259668	1.639298
0.259766	1.639313
0.259863	1.639397
0.259961	1.639376
0.260059	1.639444
0.260156	1.639382
0.260254	1.639389
0.260352	1.639449
0.260449	1.639445
0.260547	1.639490
0.260645	1.639373
0.260742	1.639429
0.260840	1.639442
0.260937	1.639405
0.261035	1.639378
0.261133	1.639417
0.261230	1.639378
0.261328	1.639399
0.261426	1.639462
0.261523	1.639375
0.261621	1.639487
0.261719	1.639484
0.261816	1.639461
0.261914	1.639387
0.262012	1.639516
0.262109	1.639485
0.262207	1.639516
0.262305	1.639445
0.262402	1.639479
0.262500	1.639412
0.262598	1.639395
0.262695	1.639431
0.262793	1.639485
0.262891	1.639457
0.262988	1.639429
0.263086	1.639398
0.263184	1.639378
0.263281	1.639435
0.263379	1.639424
0.263477	1.639371
0.263574	1.639386
0.263672	1.639365
0.263770	1.639302
0.263867	1.639325
0.263965	1.639401
0.264062	1.639454
0.264160	1.639360
0.264258	1.639407
0.264355	1.639395
0.264453	1.639387
0.264551	1.639410
0.264648	1.639388
0.264746	1.639429
0.264844	1.639371
0.264941	1.639338
0.265039	1.639353
0.265137	1.639413
0.265234	1.639362
0.265332	1.639401
0.265430	1.639385
0.265527	1.639435
0.265625	1.639376
0.265723	1.639366
0.265820	1.639426
0.265918	1.639370
0.266016	1.639407
0.266113	1.639401
0.266211	1.639463
0.266309	1.639360
0.266406	1.639435
0.266504	1.639434
0.266602	1.639444
0.266699	1.639406
0.266797	1.639407
0.266895	1.639362
0.266992	1.639454
0.267090	1.639396
0.267187	1.639379
0.267285	1.639327
0.267383	1.639332
0.267480	1.639306
0.267578	1.639408
0.267676	1.639320
0.267773	1.639310
0.267871	1.639326
0.267969	1.639342
0.268066	1.639321
0.268164	1.639322
0.268262	1.639342
0.268359	1.639417
0.268457	1.639320
0.268555	1.639418
0.268652	1.639342
0.268750	1.639390
0.268848	1.639297
0.268945	1.639360
0.269043	1.639348
0.269141	1.639285
0.269238	1.639321
0.269336	1.639290
0.269434	1.639349
0.269531	1.639201
0.269629	1.639299
0.269727	1.639359
0.269824	1.639370
0.269922	1.639349
0.270020	1.639417
0.270117	1.639401
0.270215	1.639406
0.270312	1.639418
0.270410	1.639353
0.270508	1.639401
0.270605	1.639380
0.270703	1.639387
0.270801	1.639418
0.270898	1.639405
0.270996	1.639407
0.271094	1.639363
0.271191	1.639375
0.271289	1.639430
0.271387	1.639363
0.271484	1.639399
0.271582	1.639478
0.271680	1.639428
0.271777	1.639401
0.271875	1.639435
0.271973	1.639406
0.272070	1.639448
0.272168	1.639406
0.272266	1.639430
0.272363	1.639353
0.272461	1.639416
0.272559	1.639409
0.272656	1.639450
0.272754	1.639457
0.272852	1.639425
0.272949	1.639489
0.273047	1.639384
0.273145	1.639503
0.273242	1.639408
0.273340	1.639435
0.273437	1.639331
0.273535	1.639335
0.273633	1.639296
0.273730	1.639328
0.273828	1.639296
0.273926	1.639364
0.274023	1.639373
0.274121	1.639348
0.274219	1.639410
0.274316	1.639379
0.274414	1.639440
0.274512	1.639400
0.274609	1.639423
0.274707	1.639401
0.274805	1.639417
0.274902	1.639434
0.275000	1.639435
0.275098	1.639396
0.275195	1.639326
0.275293	1.639362
0.275391	1.639373
0.275488	1.639418
0.275586	1.639400
0.275684	1.639392
0.275781	1.639385
0.275879	1.639375
0.275977	1.639396
0.276074	1.639401
0.276172	1.639325
0.276270	1.639321
0.276367	1.639371
0.276465	1.639359
0.276562	1.639387
0.276660	1.639342
0.276758	1.639333
0.276855	1.639318
0.276953	1.639387
0.277051	1.639286
0.277148	1.639387
0.277246	1.639340
0.277344	1.639349
0.277441	1.639370
0.277539	1.639347
0.277637	1.639409
0.277734	1.639351
0.277832	1.639353
0.277930	1.639415
0.278027	1.639330
0.278125	1.639403
0.278223	1.639406
0.278320	1.639381
0.278418	1.639417
0.278516	1.639432
0.278613	1.639422
0.278711	1.639419
0.278809	1.639392
0.278906	1.639375
0.279004	1.639394
0.279102	1.639343
0.279199	1.639454
0.279297	1.639360
0.279395	1.639450
0.279492	1.639463
0.279590	1.639404
0.279687	1.639481
0.279785	1.639425
0.279883	1.639493
0.279980	1.639520
0.280078	1.639547
0.280176	1.639481
0.280273	1.639569
0.280371	1.639507
0.280469	1.639591
0.280566	1.639616
0.280664	1.639521
0.280762	1.639546
0.280859	1.639522
0.280957	1.639503
0.281055	1.639450
0.281152	1.639431
0.281250	1.639459
0.281348	1.639498
0.281445	1.639525
0.281543	1.639511
0.281641	1.639487
0.281738	1.639508
0.281836	1.639412
0.281934	1.639446
0.282031	1.639468
0.282129	1.639472
0.282227	1.639507
0.282324	1.639485
0.282422	1.639536
0.282520	1.639438
0.282617	1.639504
0.282715	1.639409
0.282812	1.639417
0.282910	1.639461
0.283008	1.639406
0.283105	1.639420
0.283203	1.639468
0.283301	1.639464
0.283398	1.639493
0.283496	1.639399
0.283594	1.639362
0.283691	1.639343
0.283789	1.639288
0.283887	1.639391
0.283984	1.639376
0.284082	1.639417
0.284180	1.639351
0.284277	1.639385
0.284375	1.639378
0.284473	1.639431
0.284570	1.639357
0.284668	1.639419
0.284766	1.639389
0.284863	1.639399
0.284961	1.639491
0.285059	1.639452
0.285156	1.639441
0.285254	1.639381
0.285352	1.639487
0.285449	1.639490
0.285547	1.639429
0.285645	1.639427
0.285742	1.639395
0.285840	1.639435
0.285937	1.639362
0.286035	1.639455
0.286133	1.639335
0.286230	1.639457
0.286328	1.639413
0.286426	1.639407
0.286523	1.639398
0.286621	1.639327
0.286719	1.639439
0.286816	1.639384
0.286914	1.639350
0.287012	1.639404
0.287109	1.639382
0.287207	1.639385
0.287305	1.639329
0.287402	1.639374
0.287500	1.639308
0.287598	1.639303
0.287695	1.639369
0.287793	1.639379
0.287891	1.639318
0.287988	1.639345
0.288086	1.639360
0.288184	1.639358
0.288281	1.639325
0.288379	1.639283
0.288477	1.639267
0.288574	1.639322
0.288672	1.639272
0.288770	1.639294
0.288867	1.639285
0.288965	1.639313
0.289062	1.639319
0.289160	1.639299
0.289258	1.639332
0.289355	1.639261
0.289453	1.639386
0.289551	1.639277
0.289648	1.639334
0.289746	1.639334
0.289844	1.639338
0.289941	1.639324
0.290039	1.639308
0.290137	1.639378
0.290234	1.639412
0.290332	1.639364
0.290430	1.639386
0.290527	1.639343
0.290625	1.639434
0.290723	1.639374
0.290820	1.639331
0.290918	1.639306
0.291016	1.639414
0.291113	1.639280
0.291211	1.639277
0.291309	1.639318
0.291406	1.639338
0.291504	1.639379
0.291602	1.639378
0.291699	1.639464
0.291797	1.639264
0.291895	1.639376
0.291992	1.639334
0.292090	1.639310
0.292187	1.639355
0.292285	1.639276
0.292383	1.639273
0.292480	1.639278
0.292578	1.639248
0.292676	1.639339
0.292773	1.639368
0.292871	1.639320
0.292969	1.639392
0.293066	1.639321
0.293164	1.639339
0.293262	1.639315
0.293359	1.639301
0.293457	1.639323
0.293555	1.639218
0.293652	1.639255
0.293750	1.639162
0.293848	1.639155
0.293945	1.639263
0.294043	1.639288
0.294141	1.639224
0.294238	1.639209
0.294336	1.639302
0.294434	1.639259
0.294531	1.639335
0.294629	1.639298
0.294727	1.639279
0.294824	1.639288
0.294922	1.639181
0.295020	1.639271
0.295117	1.639218
0.295215	1.639251
0.295312	1.639251
0.295410	1.639257
0.295508	1.639293
0.295605	1.639264
0.295703	1.639193
0.295801	1.639255
0.295898	1.639264
0.295996	1.639191
0.296094	1.639219
0.296191	1.639256
0.296289	1.639180
0.296387	1.639230
0.296484	1.639153
0.296582	1.639193
0.296680	1.639244
0.296777	1.639154
0.296875	1.639260
0.296973	1.639191
0.297070	1.639259
0.297168	1.639162
0.297266	1.639250
0.297363	1.639208
0.297461	1.639223
0.297559	1.639230
0.297656	1.639199
0.297754	1.639252
0.297852	1.639160
0.297949	1.639230
0.298047	1.639227
0.298145	1.639190
0.298242	1.639232
0.298340	1.639244
0.298437	1.639174
0.298535	1.639229
0.298633	1.639223
0.298730	1.639205
0.298828	1.639092
0.298926	1.639217
0.299023	1.639248
0.299121	1.639140
0.299219	1.639170
0.299316	1.639143
0.299414	1.639127
0.299512	1.639094
0.299609	1.639122
0.299707	1.639176
0.299805	1.639139
0.299902	1.639158
0.300000	1.639226
0.300098	1.639152
0.300195	1.639124
0.300293	1.639121
0.300391	1.639168
0.300488	1.639105
0.300586	1.639137
0.300684	1.639143
0.300781	1.639145
0.300879	1.639047
0.300977	1.639039
0.301074	1.638976
0.301172	1.639024
0.301270	1.639041
0.301367	1.639116
0.301465	1.639039
0.301562	1.639074
0.301660	1.639096
0.301758	1.639041
0.301855	1.639024
0.301953	1.639031
0.302051	1.639039
0.302148	1.639044
0.302246	1.639099
0.302344	1.639050
0.302441	1.639060
0.302539	1.639048
0.302637	1.639058
0.302734	1.639032
0.302832	1.639013
0.302930	1.639027
0.303027	1.638994
0.303125	1.638977
0.303223	1.639028
0.303320	1.638937
0.303418	1.639017
0.303516	1.639041
0.303613	1.639021
0.303711	1.638911
0.303809	1.638866
0.303906	1.638994
0.304004	1.639047
0.304102	1.639037
0.304199	1.639007
0.304297	1.639036
0.304395	1.638999
0.304492	1.639040
0.304590	1.639007
0.304687	1.638934
0.304785	1.639024
0.304883	1.638985
0.304980	1.639021
0.305078	1.638945
0.305176	1.639013
0.305273	1.639046
0.305371	1.638992
0.305469	1.639071
0.305566	1.638984
0.305664	1.639063
0.305762	1.639044
0.305859	1.639049
0.305957	1.639075
0.306055	1.639069
0.306152	1.639065
0.306250	1.639075
0.306348	1.639112
0.306445	1.639091
0.306543	1.639067
0.306641	1.639102
0.306738	1.639092
0.306836	1.639033
0.306934	1.639102
0.307031	1.639160
0.307129	1.639135
0.307227	1.639051
0.307324	1.639091
0.307422	1.639016
0.307520	1.639075
0.307617	1.639130
0.307715	1.639105
0.307812	1.639144
0.307910	1.639091
0.308008	1.639097
0.308105	1.639086
0.308203	1.639083
0.308301	1.639046
0.308398	1.639027
0.308496	1.639122
0.308594	1.639077
0.308691	1.639147
0.308789	1.639082
0.308887	1.639149
0.308984	1.639122
0.309082	1.639077
0.309180	1.639107
0.309277	1.639129
0.309375	1.639011
0.309473	1.639106
0.309570	1.638997
0.309668	1.639023
0.309766	1.639096
0.309863	1.639023
0.309961	1.639082
0.310059	1.639106
0.310156	1.639083
0.310254	1.639097
0.310352	1.639098
0.310449	1.639079
0.310547	1.639096
0.310645	1.639119
0.310742	1.639084
0.310840	1.639037
0.310937	1.639007
0.311035	1.638961
0.311133	1.638913
0.311230	1.638945
0.311328	1.639042
0.311426	1.638981
0.311523	1.638977
0.311621	1.639053
0.311719	1.638949
0.311816	1.638989
0.311914	1.639001
0.312012	1.638895
0.312109	1.639003
0.312207	1.638891
0.312305	1.638899
0.312402	1.638890
0.312500	1.638928
0.312598	1.638920
0.312695	1.638944
0.312793	1.638913
0.312891	1.638855
0.312988	1.638944
0.313086	1.638904
0.313184	1.638944
0.313281	1.638899
0.313379	1.638903
0.313477	1.638920
0.313574	1.638945
0.313672	1.638790
0.313770	1.638720
0.313867	1.638860
0.313965	1.638852
0.314062	1.638861
0.314160	1.638851
0.314258	1.638859
0.314355	1.638858
0.314453	1.638838
0.314551	1.638892
0.314648	1.638881
0.314746	1.638894
0.314844	1.638919
0.314941	1.638949
0.315039	1.638893
0.315137	1.638856
0.315234	1.638916
0.315332	1.638845
0.315430	1.638886
0.315527	1.638822
0.315625	1.638883
0.315723	1.638930
0.315820	1.638907
0.315918	1.638875
0.316016	1.638861
0.316113	1.638914
0.316211	1.638888
0.316309	1.638907
0.316406	1.638926
0.316504	1.638884
0.316602	1.638944
0.316699	1.638855
0.316797	1.638867
0.316895	1.638913
0.316992	1.638902
0.317090	1.638975
0.317187	1.638950
0.317285	1.638967
0.317383	1.638990
0.317480	1.638880
0.317578	1.638975
0.317676	1.638950
0.317773	1.638953
0.317871	1.639017
0.317969	1.638971
0.318066	1.639008
0.318164	1.638998
0.318262	1.638896
0.318359	1.638978
0.318457	1.638960
0.318555	1.639004
0.318652	1.638967
0.318750	1.638955
0.318848	1.639021
0.318945	1.638971
0.319043	1.638961
0.319141	1.638999
0.319238	1.638969
0.319336	1.639012
0.319434	1.639036
0.319531	1.639074
0.319629	1.639024
0.319727	1.639043
0.319824	1.639163
0.319922	1.639086
0.320020	1.639175
0.320117	1.639121
0.320215	1.639135
0.320312	1.639075
0.320410	1.639194
0.320508	1.639162
0.320605	1.639158
0.320703	1.639206
0.320801	1.639205
0.320898	1.639163
0.320996	1.639144
0.321094	1.639129
0.321191	1.639174
0.321289	1.639202
0.321387	1.639118
0.321484	1.639192
0.321582	1.639256
0.321680	1.639199
0.321777	1.639169
0.321875	1.639113
0.321973	1.639077
0.322070	1.639163
0.322168	1.639154
0.322266	1.639153
0.322363	1.639182
0.322461	1.639179
0.322559	1.639215
0.322656	1.639035
0.322754	1.639149
0.322852	1.639166
0.322949	1.639111
0.323047	1.639130
0.323145	1.639115
0.323242	1.639120
0.323340	1.639027
0.323437	1.639101
0.323535	1.639025
0.323633	1.639077
0.323730	1.638983
0.323828	1.639058
0.323926	1.639136
0.324023	1.639030
0.324121	1.639086
0.324219	1.639099
0.324316	1.639011
0.324414	1.639059
0.324512	1.639000
0.324609	1.639019
0.324707	1.639070
0.324805	1.638987
0.324902	1.639026
0.325000	1.639090
0.325098	1.639082
0.325195	1.639077
0.325293	1.639046
0.325391	1.639053
0.325488	1.639115
0.325586	1.639029
0.325684	1.639094
0.325781	1.639025
0.325879	1.639053
0.325977	1.639033
0.326074	1.639002
0.326172	1.639093
0.326270	1.639056
0.326367	1.638989
0.326465	1.638989
0.326562	1.639140
0.326660	1.639021
0.326758	1.639053
0.326855	1.638988
0.326953	1.639066
0.327051	1.639118
0.327148	1.639033
0.327246	1.639047
0.327344	1.639014
0.327441	1.639096
0.327539	1.639019
0.327637	1.639095
0.327734	1.639094
0.327832	1.639151
0.327930	1.639091
0.328027	1.639090
0.328125	1.639119
0.328223	1.639021
0.328320	1.639102
0.328418	1.639038
0.328516	1.639113
0.328613	1.639150
0.328711	1.639085
0.328809	1.639170
0.328906	1.639196
0.329004	1.639088
0.329102	1.639205
0.329199	1.639187
0.329297	1.639170
0.329395	1.639179
0.329492	1.639188
0.329590	1.639252
0.329687	1.639243
0.329785	1.639213
0.329883	1.639270
0.329980	1.639224
0.330078	1.639216
0.330176	1.639257
0.330273	1.639315
0.330371	1.639301
0.330469	1.639343
0.330566	1.639345
0.330664	1.639346
0.330762	1.639319
0.330859	1.639343
0.330957	1.639288
0.331055	1.639236
0.331152	1.639203
0.331250	1.639259
0.331348	1.639345
0.331445	1.639326
0.331543	1.639390
0.331641	1.639315
0.331738	1.639372
0.331836	1.639332
0.331934	1.639338
0.332031	1.639260
0.332129	1.639332
0.332227	1.639357
0.332324	1.639370
0.332422	1.639386
0.332520	1.639358
0.332617	1.639349
0.332715	1.639332
0.332812	1.639346
0.332910	1.639351
0.333008	1.639292
0.333105	1.639401
0.333203	1.639348
0.333301	1.639459
0.333398	1.639385
0.333496	1.639334
0.333594	1.639378
0.333691	1.639228
0.333789	1.639298
0.333887	1.639412
0.333984	1.639371
0.334082	1.639332
0.334180	1.639427
0.334277	1.639429
0.334375	1.639313
0.334473	1.639337
0.334570	1.639433
0.334668	1.639378
0.334766	1.639357
0.334863	1.639393
0.334961	1.639378
0.335059	1.639412
0.335156	1.639450
0.335254	1.639397
0.335352	1.639495
0.335449	1.639383
0.335547	1.639435
0.335645	1.639446
0.335742	1.639369
0.335840	1.639429
0.335937	1.639425
0.336035	1.639485
0.336133	1.639348
0.336230	1.639418
0.336328	1.639428
0.336426	1.639461
0.336523	1.639437
0.336621	1.639427
0.336719	1.639366
0.336816	1.639386
0.336914	1.639418
0.337012	1.639388
0.337109	1.639444
0.337207	1.639364
0.337305	1.639443
0.337402	1.639424
0.337500	1.639409
0.337598	1.639426
0.337695	1.639340
0.337793	1.639406
0.337891	1.639465
0.337988	1.639379
0.338086	1.639353
0.338184	1.639331
0.338281	1.639315
0.338379	1.639382
0.338477	1.639317
0.338574	1.639318
0.338672	1.639322
0.338770	1.639266
0.338867	1.639363
0.338965	1.639343
0.339062	1.639356
0.339160	1.639280
0.339258	1.639267
0.339355	1.639365
0.339453	1.639326
0.339551	1.639359
0.339648	1.639346
0.339746	1.639396
0.339844	1.639375
0.339941	1.639367
0.340039	1.639338
0.340137	1.639398
0.340234	1.639415
0.340332	1.639454
0.340430	1.639404
0.340527	1.639376
0.340625	1.639411
0.340723	1.639362
0.340820	1.639315
0.340918	1.639313
0.341016	1.639268
0.341113	1.639262
0.341211	1.639231
0.341309	1.639287
0.341406	1.639357
0.341504	1.639348
0.341602	1.639367
0.341699	1.639315
0.341797	1.639345
0.341895	1.639319
0.341992	1.639427
0.342090	1.639425
0.342187	1.639456
0.342285	1.639421
0.342383	1.639370
0.342480	1.639409
0.342578	1.639389
0.342676	1.639397
0.342773	1.639402
0.342871	1.639462
0.342969	1.639379
0.343066	1.639446
0.343164	1.639449
0.343262	1.639437
0.343359	1.639403
0.343457	1.639403
0.343555	1.639382
0.343652	1.639401
0.343750	1.639284
0.343848	1.639353
0.343945	1.639467
0.344043	1.639470
0.344141	1.639479
0.344238	1.639511
0.344336	1.639431
0.344434	1.639553
0.344531	1.639506
0.344629	1.639486
0.344727	1.639503
0.344824	1.639505
0.344922	1.639564
0.345020	1.639507
0.345117	1.639537
0.345215	1.639538
0.345312	1.639540
0.345410	1.639470
0.345508	1.639507
0.345605	1.639486
0.345703	1.639486
0.345801	1.639490
0.345898	1.639569
0.345996	1.639467
0.346094	1.639523
0.346191	1.639518
0.346289	1.639476
0.346387	1.639489
0.346484	1.639531
0.346582	1.639467
0.346680	1.639453
0.346777	1.639561
0.346875	1.639533
0.346973	1.639574
0.347070	1.639592
0.347168	1.639488
0.347266	1.639510
0.347363	1.639490
0.347461	1.639506
0.347559	1.639510
0.347656	1.639518
0.347754	1.639514
0.347852	1.639460
0.347949	1.639463
0.348047	1.639409
0.348145	1.639445
0.348242	1.639453
0.348340	1.639439
0.348437	1.639450
0.348535	1.639454
0.348633	1.639434
0.348730	1.639405
0.348828	1.639455
0.348926	1.639375
0.349023	1.639398
0.349121	1.639404
0.349219	1.639448
0.349316	1.639431
0.349414	1.639439
0.349512	1.639428
0.349609	1.639409
0.349707	1.639483
0.349805	1.639398
0.349902	1.639462
0.350000	1.639422
0.350098	1.639506
0.350195	1.639453
0.350293	1.639417
0.350391	1.639445
0.350488	1.639415
0.350586	1.639497
0.350684	1.639430
0.350781	1.639467
0.350879	1.639404
0.350977	1.639468
0.351074	1.639362
0.351172	1.639330
0.351270	1.639420
0.351367	1.639523
0.351465	1.639440
0.351562	1.639447
0.351660	1.639466
0.351758	1.639427
0.351855	1.639416
0.351953	1.639410
0.352051	1.639507
0.352148	1.639510
0.352246	1.639507
0.352344	1.639519
0.352441	1.639439
0.352539	1.639515
0.352637	1.639488
0.352734	1.639512
0.352832	1.639464
0.352930	1.639504
0.353027	1.639467
0.353125	1.639496
0.353223	1.639467
0.353320	1.639539
0.353418	1.639527
0.353516	1.639500
0.353613	1.639480
0.353711	1.639450
0.353809	1.639409
0.353906	1.639529
0.354004	1.639569
0.354102	1.639541
0.354199	1.639583
0.354297	1.639547
0.354395	1.639522
0.354492	1.639526
0.354590	1.639531
0.354687	1.639537
0.354785	1.639558
0.354883	1.639604
0.354980	1.639593
0.355078	1.639612
0.355176	1.639616
0.355273	1.639576
0.355371	1.639549
0.355469	1.639508
0.355566	1.639609
0.355664	1.639583
0.355762	1.639617
0.355859	1.639576
0.355957	1.639558
0.356055	1.639637
0.356152	1.639597
0.356250	1.639597
0.356348	1.639626
0.356445	1.639684
0.356543	1.639689
0.356641	1.639686
0.356738	1.639664
0.356836	1.639661
0.356934	1.639760
0.357031	1.639631
0.357129	1.639673
0.357227	1.639632
0.357324	1.639683
0.357422	1.639642
0.357520	1.639715
0.357617	1.639666
0.357715	1.639733
0.357812	1.639689
0.357910	1.639731
0.358008	1.639616
0.358105	1.639643
0.358203	1.639668
0.358301	1.639683
0.358398	1.639702
0.358496	1.639754
0.358594	1.639762
0.358691	1.639662
0.358789	1.639703
0.358887	1.639691
0.358984	1.639669
0.359082	1.639661
0.359180	1.639689
0.359277	1.639653
0.359375	1.639696
0.359473	1.639729
0.359570	1.639776
0.359668	1.639701
0.359766	1.639685
0.359863	1.639664
0.359961	1.639727
0.360059	1.639708
0.360156	1.639779
0.360254	1.639832
0.360352	1.639851
0.360449	1.639830
0.360547	1.639860
0.360645	1.639841
0.360742	1.639796
0.360840	1.639813
0.360937	1.639653
0.361035	1.639703
0.361133	1.639734
0.361230	1.639717
0.361328	1.639714
0.361426	1.639753
0.361523	1.639852
0.361621	1.639808
0.361719	1.639888
0.361816	1.639799
0.361914	1.639808
0.362012	1.639813
0.362109	1.639862
0.362207	1.639805
0.362305	1.639837
0.362402	1.639828
0.362500	1.639863
0.362598	1.639836
0.362695	1.639805
0.362793	1.639830
0.362891	1.639818
0.362988	1.639841
0.363086	1.639850
0.363184	1.639860
0.363281	1.639832
0.363379	1.639871
0.363477	1.639865
0.363574	1.639825
0.363672	1.639722
0.363770	1.639650
0.363867	1.639835
0.363965	1.639804
0.364062	1.639820
0.364160	1.639867
0.364258	1.639849
0.364355	1.639874
0.364453	1.639844
0.364551	1.639899
0.364648	1.639810
0.364746	1.639789
0.364844	1.639806
0.364941	1.639806
0.365039	1.639755
0.365137	1.639821
0.365234	1.639751
0.365332	1.639807
0.365430	1.639759
0.365527	1.639803
0.365625	1.639751
0.365723	1.639807
0.365820	1.639796
0.365918	1.639802
0.366016	1.639856
0.366113	1.639839
0.366211	1.639864
0.366309	1.639852
0.366406	1.639794
0.366504	1.639788
0.366602	1.639794
0.366699	1.639815
0.366797	1.639810
0.366895	1.639799
0.366992	1.639819
0.367090	1.639786
0.367187	1.639808
0.367285	1.639755
0.367383	1.639767
0.367480	1.639795
0.367578	1.639806
0.367676	1.639782
0.367773	1.639750
0.367871	1.639749
0.367969	1.639680
0.368066	1.639794
0.368164	1.639828
0.368262	1.639850
0.368359	1.639803
0.368457	1.639829
0.368555	1.639797
0.368652	1.639791
0.368750	1.639730
0.368848	1.639700
0.368945	1.639818
0.369043	1.639773
0.369141	1.639722
0.369238	1.639741
0.369336	1.639774
0.369434	1.639761
0.369531	1.639709
0.369629	1.639706
0.369727	1.639796
0.369824	1.639833
0.369922	1.639806
0.370020	1.639778
0.370117	1.639835
0.370215	1.639801
0.370312	1.639832
0.370410	1.639853
0.370508	1.639881
0.370605	1.639797
0.370703	1.639843
0.370801	1.639837
0.370898	1.639755
0.370996	1.639802
0.371094	1.639722
0.371191	1.639736
0.371289	1.639796
0.371387	1.639783
0.371484	1.639799
0.371582	1.639774
0.371680	1.639729
0.371777	1.639744
0.371875	1.639721
0.371973	1.639774
0.372070	1.639709
0.372168	1.639797
0.372266	1.639727
0.372363	1.639749
0.372461	1.639725
0.372559	1.639705
0.372656	1.639716
0.372754	1.639700
0.372852	1.639758
0.372949	1.639720
0.373047	1.639703
0.373145	1.639641
0.373242	1.639699
0.373340	1.639614
0.373437	1.639608
0.373535	1.639584
0.373633	1.639656
0.373730	1.639518
0.373828	1.639595
0.373926	1.639672
0.374023	1.639638
0.374121	1.639677
0.374219	1.639674
0.374316	1.639711
0.374414	1.639670
0.374512	1.639691
0.374609	1.639722
0.374707	1.639736
0.374805	1.639726
0.374902	1.639757
0.375000	1.639695
0.375098	1.639763
0.375195	1.639677
0.375293	1.639746
0.375391	1.639817
0.375488	1.639767
0.375586	1.639771
0.375684	1.639763
0.375781	1.639806
0.375879	1.639753
0.375977	1.639767
0.376074	1.639760
0.376172	1.639736
0.376270	1.639788
0.376367	1.639824
0.376465	1.639802
0.376562	1.639806
0.376660	1.639749
0.376758	1.639794
0.376855	1.639824
0.376953	1.639756
0.377051	1.639781
0.377148	1.639778
0.377246	1.639754
0.377344	1.639785
0.377441	1.639703
0.377539	1.639827
0.377637	1.639673
0.377734	1.639747
0.377832	1.639794
0.377930	1.639774
0.378027	1.639749
0.378125	1.639758
0.378223	1.639697
0.378320	1.639661
0.378418	1.639655
0.378516	1.639733
0.378613	1.639697
0.378711	1.639639
0.378809	1.639736
0.378906	1.639669
0.379004	1.639678
0.379102	1.639690
0.379199	1.639694
0.379297	1.639677
0.379395	1.639644
0.379492	1.639605
0.379590	1.639650
0.379687	1.639700
0.379785	1.639647
0.379883	1.639668
0.379980	1.639636
0.380078	1.639673
0.380176	1.639672
0.380273	1.639699
0.380371	1.639725
0.380469	1.639695
0.380566	1.639719
0.380664	1.639684
0.380762	1.639724
0.380859	1.639567
0.380957	1.639580
0.381055	1.639567
0.381152	1.639534
0.381250	1.639605
0.381348	1.639580
0.381445	1.639553
0.381543	1.639550
0.381641	1.639556
0.381738	1.639550
0.381836	1.639531
0.381934	1.639514
0.382031	1.639540
0.382129	1.639506
0.382227	1.639545
0.382324	1.639537
0.382422	1.639583
0.382520	1.639454
0.382617	1.639518
0.382715	1.639548
0.382812	1.639525
0.382910	1.639528
0.383008	1.639542
0.383105	1.639548
0.383203	1.639543
0.383301	1.639552
0.383398	1.639522
0.383496	1.639523
0.383594	1.639522
0.383691	1.639443
0.383789	1.639356
0.383887	1.639517
0.383984	1.639499
0.384082	1.639499
0.384180	1.639471
0.384277	1.639483
0.384375	1.639460
0.384473	1.639537
0.384570	1.639527
0.384668	1.639560
0.384766	1.639538
0.384863	1.639511
0.384961	1.639481
0.385059	1.639495
0.385156	1.639539
0.385254	1.639561
0.385352	1.639606
0.385449	1.639602
0.385547	1.639533
0.385645	1.639444
0.385742	1.639505
0.385840	1.639498
0.385937	1.639493
0.386035	1.639481
0.386133	1.639483
0.386230	1.639440
0.386328	1.639498
0.386426	1.639482
0.386523	1.639476
0.386621	1.639453
0.386719	1.639423
0.386816	1.639459
0.386914	1.639465
0.387012	1.639425
0.387109	1.639457
0.387207	1.639503
0.387305	1.639475
0.387402	1.639470
0.387500	1.639445
0.387598	1.639476
0.387695	1.639489
0.387793	1.639432
0.387891	1.639440
0.387988	1.639429
0.388086	1.639418
0.388184	1.639517
0.388281	1.639386
0.388379	1.639461
0.388477	1.639395
0.388574	1.639426
0.388672	1.639494
0.388770	1.639414
0.388867	1.639423
0.388965	1.639407
0.389062	1.639430
0.389160	1.639395
0.389258	1.639403
0.389355	1.639443
0.389453	1.639438
0.389551	1.639391
0.389648	1.639360
0.389746	1.639464
0.389844	1.639440
0.389941	1.639470
0.390039	1.639471
0.390137	1.639488
0.390234	1.639472
0.390332	1.639468
0.390430	1.639529
0.390527	1.639434
0.390625	1.639478
0.390723	1.639434
0.390820	1.639393
0.390918	1.639332
0.391016	1.639371
0.391113	1.639216
0.391211	1.639413
0.391309	1.639323
0.391406	1.639318
0.391504	1.639335
0.391602	1.639368
0.391699	1.639295
0.391797	1.639215
0.391895	1.639271
0.391992	1.639259
0.392090	1.639241
0.392187	1.639240
0.392285	1.639245
0.392383	1.639273
0.392480	1.639271
0.392578	1.639232
0.392676	1.639240
0.392773	1.639227
0.392871	1.639147
0.392969	1.639227
0.393066	1.639166
0.393164	1.639102
0.393262	1.639130
0.393359	1.639085
0.393457	1.639021
0.393555	1.639095
0.393652	1.638999
0.393750	1.638917
0.393848	1.638980
0.393945	1.639057
0.394043	1.639002
0.394141	1.639049
0.394238	1.638969
0.394336	1.639098
0.394434	1.639069
0.394531	1.639044
0.394629	1.639026
0.394727	1.639030
0.394824	1.639056
0.394922	1.638991
0.395020	1.639085
0.395117	1.639072
0.395215	1.639044
0.395312	1.639060
0.395410	1.639043
0.395508	1.639028
0.395605	1.639109
0.395703	1.638973
0.395801	1.639033
0.395898	1.639047
0.395996	1.639089
0.396094	1.639052
0.396191	1.639116
0.396289	1.639112
0.396387	1.639130
0.396484	1.639179
0.396582	1.639120
0.396680	1.639138
0.396777	1.639226
0.396875	1.639179
0.396973	1.639195
0.397070	1.639226
0.397168	1.639196
0.397266	1.639340
0.397363	1.639268
0.397461	1.639302
0.397559	1.639255
0.397656	1.639262
0.397754	1.639191
0.397852	1.639335
0.397949	1.639244
0.398047	1.639295
0.398145	1.639221
0.398242	1.639334
0.398340	1.639280
0.398437	1.639307
0.398535	1.639308
0.398633	1.639357
0.398730	1.639318
0.398828	1.639318
0.398926	1.639257
0.399023	1.639335
0.399121	1.639280
0.399219	1.639368
0.399316	1.639321
0.399414	1.639295
0.399512	1.639315
0.399609	1.639372
0.399707	1.639390
0.399805	1.639377
0.399902	1.639305
0.400000	1.639350
0.400098	1.639406
0.400195	1.639362
0.400293	1.639368
0.400391	1.639338
0.400488	1.639365
0.400586	1.639384
0.400684	1.639418
0.400781	1.639421
0.400879	1.639401
0.400977	1.639369
0.401074	1.639240
0.401172	1.639341
0.401270	1.639376
0.401367	1.639387
0.401465	1.639425
0.401562	1.639331
0.401660	1.639385
0.401758	1.639303
0.401855	1.639341
0.401953	1.639368
0.402051	1.639351
0.402148	1.639351
0.402246	1.639356
0.402344	1.639328
0.402441	1.639346
0.402539	1.639334
0.402637	1.639332
0.402734	1.639343
0.402832	1.639330
0.402930	1.639262
0.403027	1.639190
0.403125	1.639287
0.403223	1.639233
0.403320	1.639279
0.403418	1.639212
0.403516	1.639255
0.403613	1.639176
0.403711	1.639143
0.403809	1.639150
0.403906	1.639245
0.404004	1.639229
0.404102	1.639215
0.404199	1.639271
0.404297	1.639198
0.404395	1.639206
0.404492	1.639245
0.404590	1.639201
0.404687	1.639194
0.404785	1.639173
0.404883	1.639223
0.404980	1.639185
0.405078	1.639187
0.405176	1.639189
0.405273	1.639206
0.405371	1.639279
0.405469	1.639197
0.405566	1.639188
0.405664	1.639205
0.405762	1.639275
0.405859	1.639232
0.405957	1.639304
0.406055	1.639230
0.406152	1.639307
0.406250	1.639297
0.406348	1.639275
0.406445	1.639337
0.406543	1.639314
0.406641	1.639321
0.406738	1.639356
0.406836	1.639359
0.406934	1.639316
0.407031	1.639259
0.407129	1.639331
0.407227	1.639357
0.407324	1.639228
0.407422	1.639332
0.407520	1.639212
0.407617	1.639290
0.407715	1.639256
0.407812	1.639263
0.407910	1.639287
0.408008	1.639266
0.408105	1.639310
0.408203	1.639216
0.408301	1.639234
0.408398	1.639257
0.408496	1.639237
0.408594	1.639302
0.408691	1.639289
0.408789	1.639262
0.408887	1.639256
0.408984	1.639278
0.409082	1.639251
0.409180	1.639297
0.409277	1.639274
0.409375	1.639361
0.409473	1.639348
0.409570	1.639292
0.409668	1.639317
0.409766	1.639285
0.409863	1.639282
0.409961	1.639285
0.410059	1.639263
0.410156	1.639381
0.410254	1.639359
0.410352	1.639346
0.410449	1.639321
0.410547	1.639375
0.410645	1.639358
0.410742	1.639452
0.410840	1.639345
0.410937	1.639364
0.411035	1.639258
0.411133	1.639325
0.411230	1.639383
0.411328	1.639411
0.411426	1.639434
0.411523	1.639464
0.411621	1.639446
0.411719	1.639393
0.411816	1.639454
0.411914	1.639435
0.412012	1.639381
0.412109	1.639354
0.412207	1.639457
0.412305	1.639448
0.412402	1.639479
0.412500	1.639426
0.412598	1.639545
0.412695	1.639456
0.412793	1.639453
0.412891	1.639500
0.412988	1.639392
0.413086	1.639523
0.413184	1.639448
0.413281	1.639414
0.413379	1.639456
0.413477	1.639429
0.413574	1.639449
0.413672	1.639435
0.413770	1.639278
0.413867	1.639430
0.413965	1.639446
0.414062	1.639528
0.414160	1.639482
0.414258	1.639476
0.414355	1.639523
0.414453	1.639534
0.414551	1.639533
0.414648	1.639437
0.414746	1.639540
0.414844	1.639489
0.414941	1.639508
0.415039	1.639536
0.415137	1.639463
0.415234	1.639516
0.415332	1.639524
0.415430	1.639481
0.415527	1.639545
0.415625	1.639544
0.415723	1.639529
0.415820	1.639571
0.415918	1.639486
0.416016	1.639547
0.416113	1.639569
0.416211	1.639617
0.416309	1.639573
0.416406	1.639533
0.416504	1.639550
0.416602	1.639546
0.416699	1.639506
0.416797	1.639609
0.416895	1.639573
0.416992	1.639583
0.417090	1.639520
0.417187	1.639560
0.417285	1.639530
0.417383	1.639498
0.417480	1.639468
0.417578	1.639503
0.417676	1.639539
0.417773	1.639549
0.417871	1.639454
0.417969	1.639521
0.418066	1.639486
0.418164	1.639522
0.418262	1.639489
0.418359	1.639489
0.418457	1.639553
0.418555	1.639483
0.418652	1.639451
0.418750	1.639462
0.418848	1.639507
0.418945	1.639466
0.419043	1.639506
0.419141	1.639562
0.419238	1.639513
0.419336	1.639418
0.419434	1.639505
0.419531	1.639475
0.419629	1.639528
0.419727	1.639511
0.419824	1.639562
0.419922	1.639508
0.420020	1.639538
0.420117	1.639533
0.420215	1.639628
0.420312	1.639579
0.420410	1.639547
0.420508	1.639590
0.420605	1.639597
0.420703	1.639648
0.420801	1.639570
0.420898	1.639580
0.420996	1.639519
0.421094	1.639467
0.421191	1.639530
0.421289	1.639506
0.421387	1.639598
0.421484	1.639572
0.421582	1.639627
0.421680	1.639478
0.421777	1.639530
0.421875	1.639505
0.421973	1.639559
0.422070	1.639562
0.422168	1.639537
0.422266	1.639598
0.422363	1.639594
0.422461	1.639572
0.422559	1.639440
0.422656	1.639542
0.422754	1.639604
0.422852	1.639570
0.422949	1.639583
0.423047	1.639562
0.423145	1.639554
0.423242	1.639563
0.423340	1.639484
0.423437	1.639529
0.423535	1.639537
0.423633	1.639452
0.423730	1.639352
0.423828	1.639569
0.423926	1.639528
0.424023	1.639547
0.424121	1.639527
0.424219	1.639539
0.424316	1.639556
0.424414	1.639473
0.424512	1.639523
0.424609	1.639494
0.424707	1.639543
0.424805	1.639525
0.424902	1.639559
0.425000	1.639512
0.425098	1.639584
0.425195	1.639529
0.425293	1.639514
0.425391	1.639558
0.425488	1.639505
0.425586	1.639651
0.425684	1.639554
0.425781	1.639636
0.425879	1.639550
0.425977	1.639600
0.426074	1.639578
0.426172	1.639497
0.426270	1.639535
0.426367	1.639590
0.426465	1.639541
0.426562	1.639608
0.426660	1.639514
0.426758	1.639556
0.426855	1.639560
0.426953	1.639536
0.427051	1.639552
0.427148	1.639556
0.427246	1.639557
0.427344	1.639567
0.427441	1.639624
0.427539	1.639539
0.427637	1.639669
0.427734	1.639565
0.427832	1.639686
0.427930	1.639612
0.428027	1.639659
0.428125	1.639656
0.428223	1.639589
0.428320	1.639651
0.428418	1.639625
0.428516	1.639612
0.428613	1.639552
0.428711	1.639670
0.428809	1.639593
0.428906	1.639583
0.429004	1.639603
0.429102	1.639616
0.429199	1.639573
0.429297	1.639640
0.429395	1.639651
0.429492	1.639572
0.429590	1.639571
0.429687	1.639608
0.429785	1.639653
0.429883	1.639611
0.429980	1.639641
0.430078	1.639662
0.430176	1.639618
0.430273	1.639586
0.430371	1.639699
0.430469	1.639630
0.430566	1.639662
0.430664	1.639720
0.430762	1.639651
0.430859	1.639439
0.430957	1.639512
0.431055	1.639398
0.431152	1.639461
0.431250	1.639524
0.431348	1.639429
0.431445	1.639482
0.431543	1.639448
0.431641	1.639479
0.431738	1.639478
0.431836	1.639427
0.431934	1.639374
0.432031	1.639461
0.432129	1.639348
0.432227	1.639438
0.432324	1.639434
0.432422	1.639395
0.432520	1.639367
0.432617	1.639357
0.432715	1.639397
0.432812	1.639434
0.432910	1.639464
0.433008	1.639439
0.433105	1.639428
0.433203	1.639411
0.433301	1.639404
0.433398	1.639362
0.433496	1.639352
0.433594	1.639307
0.433691	1.639280
0.433789	1.639277
0.433887	1.639306
0.433984	1.639334
0.434082	1.639432
0.434180	1.639350
0.434277	1.639381
0.434375	1.639377
0.434473	1.639437
0.434570	1.639378
0.434668	1.639473
0.434766	1.639436
0.434863	1.639473
0.434961	1.639517
0.435059	1.639469
0.435156	1.639523
0.435254	1.639458
0.435352	1.639420
0.435449	1.639499
0.435547	1.639474
0.435645	1.639484
0.435742	1.639488
0.435840	1.639447
0.435937	1.639463
0.436035	1.639415
0.436133	1.639504
0.436230	1.639483
0.436328	1.639470
0.436426	1.639454
0.436523	1.639555
0.436621	1.639478
0.436719	1.639515
0.436816	1.639460
0.436914	1.639566
0.437012	1.639496
0.437109	1.639555
0.437207	1.639536
0.437305	1.639558
0.437402	1.639563
0.437500	1.639601
0.437598	1.639595
0.437695	1.639569
0.437793	1.639586
0.437891	1.639648
0.437988	1.639600
0.438086	1.639602
0.438184	1.639597
0.438281	1.639671
0.438379	1.639633
0.438477	1.639567
0.438574	1.639722
0.438672	1.639623
0.438770	1.639653
0.438867	1.639612
0.438965	1.639669
0.439062	1.639677
0.439160	1.639722
0.439258	1.639719
0.439355	1.639691
0.439453	1.639730
0.439551	1.639767
0.439648	1.639791
0.439746	1.639852
0.439844	1.639799
0.439941	1.639886
0.440039	1.639811
0.440137	1.639875
0.440234	1.639843
0.440332	1.639918
0.440430	1.639875
0.440527	1.639841
0.440625	1.639937
0.440723	1.639872
0.440820	1.639840
0.440918	1.639822
0.441016	1.639789
0.441113	1.639752
0.441211	1.639778
0.441309	1.639886
0.441406	1.639829
0.441504	1.639891
0.441602	1.639847
0.441699	1.639863
0.441797	1.639736
0.441895	1.639781
0.441992	1.639777
0.442090	1.639844
0.442187	1.639763
0.442285	1.639752
0.442383	1.639714
0.442480	1.639753
0.442578	1.639720
0.442676	1.639732
0.442773	1.639691
0.442871	1.639669
0.442969	1.639717
0.443066	1.639675
0.443164	1.639659
0.443262	1.639556
0.443359	1.639538
0.443457	1.639581
0.443555	1.639501
0.443652	1.639475
0.443750	1.639340
0.443848	1.639492
0.443945	1.639473
0.444043	1.639484
0.444141	1.639503
0.444238	1.639528
0.444336	1.639468
0.444434	1.639468
0.444531	1.639415
0.444629	1.639420
0.444727	1.639436
0.444824	1.639426
0.444922	1.639436
0.445020	1.639440
0.445117	1.639426
0.445215	1.639439
0.445312	1.639457
0.445410	1.639447
0.445508	1.639447
0.445605	1.639396
0.445703	1.639422
0.445801	1.639376
0.445898	1.639387
0.445996	1.639321
0.446094	1.639393
0.446191	1.639450
0.446289	1.639359
0.446387	1.639374
0.446484	1.639387
0.446582	1.639392
0.446680	1.639440
0.446777	1.639390
0.446875	1.639379
0.446973	1.639472
0.447070	1.639442
0.447168	1.639531
0.447266	1.639396
0.447363	1.639425
0.447461	1.639411
0.447559	1.639448
0.447656	1.639437
0.447754	1.639473
0.447852	1.639459
0.447949	1.639443
0.448047	1.639464
0.448145	1.639425
0.448242	1.639472
0.448340	1.639525
0.448437	1.639405
0.448535	1.639500
0.448633	1.639506
0.448730	1.639482
0.448828	1.639471
0.448926	1.639508
0.449023	1.639444
0.449121	1.639587
0.449219	1.639477
0.449316	1.639536
0.449414	1.639513
0.449512	1.639490
0.449609	1.639591
0.449707	1.639601
0.449805	1.639606
0.449902	1.639655
0.450000	1.639634
0.450098	1.639692
0.450195	1.639669
0.450293	1.639656
0.450391	1.639741
0.450488	1.639622
0.450586	1.639726
0.450684	1.639700
0.450781	1.639787
0.450879	1.639655
0.450977	1.639662
0.451074	1.639627
0.451172	1.639702
0.451270	1.639664
0.451367	1.639750
0.451465	1.639764
0.451562	1.639730
0.451660	1.639819
0.451758	1.639749
0.451855	1.639755
0.451953	1.639706
0.452051	1.639783
0.452148	1.639742
0.452246	1.639761
0.452344	1.639738
0.452441	1.639696
0.452539	1.639716
0.452637	1.639761
0.452734	1.639669
0.452832	1.639788
0.452930	1.639805
0.453027	1.639727
0.453125	1.639752
0.453223	1.639695
0.453320	1.639686
0.453418	1.639795
0.453516	1.639675
0.453613	1.639694
0.453711	1.639608
0.453809	1.639678
0.453906	1.639786
0.454004	1.639658
0.454102	1.639833
0.454199	1.639682
0.454297	1.639805
0.454395	1.639706
0.454492	1.639750
0.454590	1.639811
0.454687	1.639671
0.454785	1.639792
0.454883	1.639744
0.454980	1.639727
0.455078	1.639836
0.455176	1.639768
0.455273	1.639726
0.455371	1.639783
0.455469	1.639769
0.455566	1.639754
0.455664	1.639711
0.455762	1.639718
0.455859	1.639709
0.455957	1.639758
0.456055	1.639732
0.456152	1.639742
0.456250	1.639699
0.456348	1.639695
0.456445	1.639647
0.456543	1.639659
0.456641	1.639647
0.456738	1.639622
0.456836	1.639618
0.456934	1.639549
0.457031	1.639587
0.457129	1.639549
0.457227	1.639595
0.457324	1.639573
0.457422	1.639520
0.457520	1.639524
0.457617	1.639425
0.457715	1.639559
0.457812	1.639509
0.457910	1.639435
0.458008	1.639382
0.458105	1.639455
0.458203	1.639414
0.458301	1.639386
0.458398	1.639385
0.458496	1.639357
0.458594	1.639408
0.458691	1.639418
0.458789	1.639343
0.458887	1.639378
0.458984	1.639272
0.459082	1.639277
0.459180	1.639310
0.459277	1.639268
0.459375	1.639350
0.459473	1.639301
0.459570	1.639297
0.459668	1.639340
0.459766	1.639341
0.459863	1.639341
0.459961	1.639326
0.460059	1.639279
0.460156	1.639338
0.460254	1.639407
0.460352	1.639369
0.460449	1.639351
0.460547	1.639296
0.460645	1.639373
0.460742	1.639333
0.460840	1.639301
0.460937	1.639262
0.461035	1.639324
0.461133	1.639290
0.461230	1.639269
0.461328	1.639296
0.461426	1.639337
0.461523	1.639406
0.461621	1.639316
0.461719	1.639389
0.461816	1.639370
0.461914	1.639374
0.462012	1.639400
0.462109	1.639384
0.462207	1.639410
0.462305	1.639393
0.462402	1.639309
0.462500	1.639429
0.462598	1.639426
0.462695	1.639419
0.462793	1.639428
0.462891	1.639431
0.462988	1.639442
0.463086	1.639396
0.463184	1.639501
0.463281	1.639451
0.463379	1.639522
0.463477	1.639474
0.463574	1.639453
0.463672	1.639429
0.463770	1.639439
0.463867	1.639484
0.463965	1.639487
0.464062	1.639550
0.464160	1.639516
0.464258	1.639537
0.464355	1.639509
0.464453	1.639506
0.464551	1.639580
0.464648	1.639543
0.464746	1.639497
0.464844	1.639562
0.464941	1.639481
0.465039	1.639525
0.465137	1.639528
0.465234	1.639482
0.465332	1.639572
0.465430	1.639536
0.465527	1.639578
0.465625	1.639507
0.465723	1.639468
0.465820	1.639517
0.465918	1.639512
0.466016	1.639565
0.466113	1.639500
0.466211	1.639531
0.466309	1.639512
0.466406	1.639487
0.466504	1.639540
0.466602	1.639457
0.466699	1.639498
0.466797	1.639443
0.466895	1.639398
0.466992	1.639498
0.467090	1.639440
0.467187	1.639416
0.467285	1.639335
0.467383	1.639347
0.467480	1.639446
0.467578	1.639373
0.467676	1.639390
0.467773	1.639371
0.467871	1.639394
0.467969	1.639451
0.468066	1.639391
0.468164	1.639351
0.468262	1.639436
0.468359	1.639396
0.468457	1.639346
0.468555	1.639415
0.468652	1.639384
0.468750	1.639373
0.468848	1.639361
0.468945	1.639382
0.469043	1.639353
0.469141	1.639290
0.469238	1.639342
0.469336	1.639328
0.469434	1.639346
0.469531	1.639307
0.469629	1.639342
0.469727	1.639372
0.469824	1.639423
0.469922	1.639343
0.470020	1.639389
0.470117	1.639372
0.470215	1.639404
0.470312	1.639419
0.470410	1.639318
0.470508	1.639371
0.470605	1.639399
0.470703	1.639447
0.470801	1.639360
0.470898	1.639316
0.470996	1.639281
0.471094	1.639362
0.471191	1.639268
0.471289	1.639391
0.471387	1.639310
0.471484	1.639393
0.471582	1.639382
0.471680	1.639368
0.471777	1.639282
0.471875	1.639308
0.471973	1.639410
0.472070	1.639356
0.472168	1.639454
0.472266	1.639390
0.472363	1.639349
0.472461	1.639352
0.472559	1.639309
0.472656	1.639400
0.472754	1.639379
0.472852	1.639412
0.472949	1.639343
0.473047	1.639365
0.473145	1.639412
0.473242	1.639293
0.473340	1.639410
0.473437	1.639410
0.473535	1.639390
0.473633	1.639334
0.473730	1.639255
0.473828	1.639398
0.473926	1.639417
0.474023	1.639396
0.474121	1.639383
0.474219	1.639375
0.474316	1.639453
0.474414	1.639407
0.474512	1.639376
0.474609	1.639427
0.474707	1.639426
0.474805	1.639385
0.474902	1.639468
0.475000	1.639502
0.475098	1.639440
0.475195	1.639480
0.475293	1.639347
0.475391	1.639536
0.475488	1.639465
0.475586	1.639471
0.475684	1.639520
0.475781	1.639440
0.475879	1.639519
0.475977	1.639522
0.476074	1.639439
0.476172	1.639551
0.476270	1.639548
0.476367	1.639556
0.476465	1.639537
0.476562	1.639501
0.476660	1.639471
0.476758	1.639464
0.476855	1.639541
0.476953	1.639531
0.477051	1.639491
0.477148	1.639543
0.477246	1.639555
0.477344	1.639523
0.477441	1.639574
0.477539	1.639479
0.477637	1.639604
0.477734	1.639462
0.477832	1.639522
0.477930	1.639522
0.478027	1.639515
0.478125	1.639492
0.478223	1.639523
0.478320	1.639534
0.478418	1.639509
0.478516	1.639416
0.478613	1.639514
0.478711	1.639535
0.478809	1.639475
0.478906	1.639533
0.479004	1.639384
0.479102	1.639415
0.479199	1.639459
0.479297	1.639490
0.479395	1.639418
0.479492	1.639435
0.479590	1.639474
0.479687	1.639412
0.479785	1.639394
0.479883	1.639457
0.479980	1.639418
0.480078	1.639478
0.480176	1.639468
0.480273	1.639435
0.480371	1.639396
0.480469	1.639446
0.480566	1.639495
0.480664	1.639432
0.480762	1.639395
0.480859	1.639285
0.480957	1.639288
0.481055	1.639252
0.481152	1.639253
0.481250	1.639342
0.481348	1.639288
0.481445	1.639297
0.481543	1.639256
0.481641	1.639329
0.481738	1.639259
0.481836	1.639270
0.481934	1.639262
0.482031	1.639241
0.482129	1.639313
0.482227	1.639331
0.482324	1.639323
0.482422	1.639291
0.482520	1.639296
0.482617	1.639270
0.482715	1.639321
0.482812	1.639268
0.482910	1.639335
0.483008	1.639274
0.483105	1.639320
0.483203	1.639261
0.483301	1.639214
0.483398	1.639263
0.483496	1.639240
0.483594	1.639207
0.483691	1.639092
0.483789	1.639119
0.483887	1.639250
0.483984	1.639255
0.484082	1.639263
0.484180	1.639198
0.484277	1.639267
0.484375	1.639287
0.484473	1.639302
0.484570	1.639276
0.484668	1.639342
0.484766	1.639266
0.484863	1.639293
0.484961	1.639230
0.485059	1.639310
0.485156	1.639196
0.485254	1.639276
0.485352	1.639243
0.485449	1.639318
0.485547	1.639279
0.485645	1.639309
0.485742	1.639342
0.485840	1.639251
0.485937	1.639387
0.486035	1.639299
0.486133	1.639283
0.486230	1.639320
0.486328	1.639358
0.486426	1.639279
0.486523	1.639321
0.486621	1.639241
0.486719	1.639290
0.486816	1.639394
0.486914	1.639327
0.487012	1.639353
0.487109	1.639362
0.487207	1.639307
0.487305	1.639316
0.487402	1.639325
0.487500	1.639275
0.487598	1.639316
0.487695	1.639272
0.487793	1.639340
0.487891	1.639305
0.487988	1.639282
0.488086	1.639343
0.488184	1.639224
0.488281	1.639296
0.488379	1.639274
0.488477	1.639234
0.488574	1.639332
0.488672	1.639257
0.488770	1.639262
0.488867	1.639248
0.488965	1.639235
0.489062	1.639255
0.489160	1.639273
0.489258	1.639171
0.489355	1.639214
0.489453	1.639223
0.489551	1.639278
0.489648	1.639236
0.489746	1.639271
0.489844	1.639290
0.489941	1.639306
0.490039	1.639323
0.490137	1.639216
0.490234	1.639290
0.490332	1.639329
0.490430	1.639327
0.490527	1.639374
0.490625	1.639360
0.490723	1.639343
0.490820	1.639301
0.490918	1.639296
0.491016	1.639254
0.491113	1.639203
0.491211	1.639277
0.491309	1.639273
0.491406	1.639360
0.491504	1.639304
0.491602	1.639392
0.491699	1.639358
0.491797	1.639257
0.491895	1.639342
0.491992	1.639376
0.492090	1.639378
0.492187	1.639415
0.492285	1.639448
0.492383	1.639436
0.492480	1.639380
0.492578	1.639356
0.492676	1.639434
0.492773	1.639479
0.492871	1.639378
0.492969	1.639430
0.493066	1.639379
0.493164	1.639356
0.493262	1.639390
0.493359	1.639464
0.493457	1.639403
0.493555	1.639435
0.493652	1.639321
0.493750	1.639311
0.493848	1.639434
0.493945	1.639428
0.494043	1.639418
0.494141	1.639419
0.494238	1.639409
0.494336	1.639384
0.494434	1.639437
0.494531	1.639419
0.494629	1.639418
0.494727	1.639395
0.494824	1.639377
0.494922	1.639392
0.495020	1.639448
0.495117	1.639428
0.495215	1.639403
0.495312	1.639451
0.495410	1.639360
0.495508	1.639354
0.495605	1.639303
0.495703	1.639359
0.495801	1.639363
0.495898	1.639329
0.495996	1.639321
0.496094	1.639342
0.496191	1.639320
0.496289	1.639342
0.496387	1.639374
0.496484	1.639363
0.496582	1.639396
0.496680	1.639288
0.496777	1.639230
0.496875	1.639221
0.496973	1.639238
0.497070	1.639323
0.497168	1.639285
0.497266	1.639243
0.497363	1.639307
0.497461	1.639301
0.497559	1.639265
0.497656	1.639354
0.497754	1.639288
0.497852	1.639308
0.497949	1.639318
0.498047	1.639199
0.498145	1.639283
0.498242	1.639292
0.498340	1.639233
0.498437	1.639263
0.498535	1.639224
0.498633	1.639286
0.498730	1.639224
0.498828	1.639187
0.498926	1.639205
0.499023	1.639295
0.499121	1.639306
0.499219	1.639340
0.499316	1.639254
0.499414	1.639257
0.499512	1.639280
0.499609	1.639232
0.499707	1.639192
0.499805	1.639246
0.499902	1.639249
0.500000	1.639308
0.500098	1.639355
0.500195	1.639293
0.500293	1.639312
0.500391	1.639303
0.500488	1.639289
0.500586	1.639323
0.500684	1.639289
0.500781	1.639305
0.500879	1.639292
0.500977	1.639194
0.501074	1.639185
0.501172	1.639165
0.501270	1.639188
0.501367	1.639273
0.501465	1.639286
0.501562	1.639251
0.501660	1.639312
0.501758	1.639201
0.501855	1.639187
0.501953	1.639236
0.502051	1.639259
0.502148	1.639187
0.502246	1.639207
0.502344	1.639188
0.502441	1.639244
0.502539	1.639197
0.502637	1.639218
0.502734	1.639187
0.502832	1.639210
0.502930	1.639183
0.503027	1.639119
0.503125	1.639190
0.503223	1.639237
0.503320	1.639163
0.503418	1.639190
0.503516	1.639133
0.503613	1.639092
0.503711	1.638955
0.503809	1.639084
0.503906	1.639131
0.504004	1.639163
0.504102	1.639250
0.504199	1.639112
0.504297	1.639298
0.504395	1.639170
0.504492	1.639243
0.504590	1.639280
0.504687	1.639140
0.504785	1.639183
0.504883	1.639166
0.504980	1.639199
0.505078	1.639273
0.505176	1.639223
0.505273	1.639224
0.505371	1.639185
0.505469	1.639226
0.505566	1.639223
0.505664	1.639298
0.505762	1.639194
0.505859	1.639330
0.505957	1.639215
0.506055	1.639227
0.506152	1.639227
0.506250	1.639168
0.506348	1.639244
0.506445	1.639157
0.506543	1.639248
0.506641	1.639301
0.506738	1.639293
0.506836	1.639299
0.506934	1.639254
0.507031	1.639259
0.507129	1.639256
0.507227	1.639243
0.507324	1.639212
0.507422	1.639268
0.507520	1.639184
0.507617	1.639257
0.507715	1.639238
0.507812	1.639245
0.507910	1.639260
0.508008	1.639264
0.508105	1.639202
0.508203	1.639294
0.508301	1.639200
0.508398	1.639274
0.508496	1.639278
0.508594	1.639310
0.508691	1.639324
0.508789	1.639284
0.508887	1.639271
0.508984	1.639296
0.509082	1.639351
0.509180	1.639334
0.509277	1.639329
0.509375	1.639237
0.509473	1.639338
0.509570	1.639279
0.509668	1.639342
0.509766	1.639298
0.509863	1.639442
0.509961	1.639391
0.510059	1.639454
0.510156	1.639447
0.510254	1.639422
0.510352	1.639485
0.510449	1.639435
0.510547	1.639520
0.510645	1.639527
0.510742	1.639481
0.510840	1.639427
0.510937	1.639465
0.511035	1.639365
0.511133	1.639395
0.511230	1.639448
0.511328	1.639514
0.511426	1.639455
0.511523	1.639572
0.511621	1.639495
0.511719	1.639385
0.511816	1.639387
0.511914	1.639440
0.512012	1.639375
0.512109	1.639436
0.512207	1.639389
0.512305	1.639494
0.512402	1.639407
0.512500	1.639433
0.512598	1.639457
0.512695	1.639460
0.512793	1.639437
0.512891	1.639357
0.512988	1.639385
0.513086	1.639384
0.513184	1.639395
0.513281	1.639323
0.513379	1.639378
0.513477	1.639323
0.513574	1.639316
0.513672	1.639263
0.513770	1.639176
0.513867	1.639373
0.513965	1.639287
0.514062	1.639340
0.514160	1.639284
0.514258	1.639371
0.514355	1.639328
0.514453	1.639284
0.514551	1.639309
0.514648	1.639320
0.514746	1.639276
0.514844	1.639296
0.514941	1.639316
0.515039	1.639281
0.515137	1.639321
0.515234	1.639323
0.515332	1.639274
0.515430	1.639311
0.515527	1.639296
0.515625	1.639230
0.515723	1.639227
0.515820	1.639286
0.515918	1.639273
0.516016	1.639255
0.516113	1.639271
0.516211	1.639259
0.516309	1.639326
0.516406	1.639306
0.516504	1.639301
0.516602	1.639266
0.516699	1.639298
0.516797	1.639246
0.516895	1.639210
0.516992	1.639298
0.517090	1.639293
0.517187	1.639382
0.517285	1.639375
0.517383	1.639282
0.517480	1.639324
0.517578	1.639362
0.517676	1.639290
0.517773	1.639362
0.517871	1.639312
0.517969	1.639373
0.518066	1.639429
0.518164	1.639462
0.518262	1.639423
0.518359	1.639450
0.518457	1.639439
0.518555	1.639398
0.518652	1.639446
0.518750	1.639487
0.518848	1.639489
0.518945	1.639494
0.519043	1.639578
0.519141	1.639512
0.519238	1.639459
0.519336	1.639479
0.519434	1.639534
0.519531	1.639595
0.519629	1.639567
0.519727	1.639535
0.519824	1.639586
0.519922	1.639602
0.520020	1.639558
0.520117	1.639608
0.520215	1.639622
0.520312	1.639560
0.520410	1.639675
0.520508	1.639559
0.520605	1.639648
0.520703	1.639641
0.520801	1.639539
0.520898	1.639565
0.520996	1.639519
0.521094	1.639411
0.521191	1.639455
0.521289	1.639441
0.521387	1.639538
0.521484	1.639520
0.521582	1.639484
0.521680	1.639475
0.521777	1.639356
0.521875	1.639378
0.521973	1.639365
0.522070	1.639385
0.522168	1.639338
0.522266	1.639407
0.522363	1.639321
0.522461	1.639301
0.522559	1.639284
0.522656	1.639313
0.522754	1.639307
0.522852	1.639299
0.522949	1.639257
0.523047	1.639225
0.523145	1.639251
0.523242	1.639197
0.523340	1.639224
0.523437	1.639187
0.523535	1.639120
0.523633	1.639046
0.523730	1.639036
0.523828	1.639128
0.523926	1.639143
0.524023	1.639181
0.524121	1.639055
0.524219	1.639210
0.524316	1.639205
0.524414	1.639117
0.524512	1.639088
0.524609	1.639070
0.524707	1.639144
0.524805	1.639134
0.524902	1.639129
0.525000	1.639224
0.525098	1.639180
0.525195	1.639204
0.525293	1.639147
0.525391	1.639169
0.525488	1.639160
0.525586	1.639180
0.525684	1.639122
0.525781	1.639198
0.525879	1.639025
0.525977	1.639169
0.526074	1.639122
0.526172	1.639097
0.526270	1.639133
0.526367	1.639154
0.526465	1.639160
0.526562	1.639152
0.526660	1.639094
0.526758	1.639111
0.526855	1.639132
0.526953	1.639081
0.527051	1.639177
0.527148	1.639051
0.527246	1.639043
0.527344	1.639096
0.527441	1.639087
0.527539	1.639116
0.527637	1.639126
0.527734	1.639140
0.527832	1.639156
0.527930	1.639149
0.528027	1.639102
0.528125	1.639168
0.528223	1.639126
0.528320	1.639183
0.528418	1.639095
0.528516	1.639145
0.528613	1.639120
0.528711	1.639187
0.528809	1.639102
0.528906	1.639168
0.529004	1.639207
0.529102	1.639198
0.529199	1.639133
0.529297	1.639182
0.529395	1.639230
0.529492	1.639268
0.529590	1.639253
0.529687	1.639228
0.529785	1.639249
0.529883	1.639188
0.529980	1.639308
0.530078	1.639305
0.530176	1.639329
0.530273	1.639260
0.530371	1.639337
0.530469	1.639356
0.530566	1.639386
0.530664	1.639345
0.530762	1.639406
0.530859	1.639269
0.530957	1.639349
0.531055	1.639277
0.531152	1.639356
0.531250	1.639324
0.531348	1.639328
0.531445	1.639370
0.531543	1.639348
0.531641	1.639342
0.531738	1.639388
0.531836	1.639411
0.531934	1.639374
0.532031	1.639359
0.532129	1.639410
0.532227	1.639423
0.532324	1.639410
0.532422	1.639443
0.532520	1.639454
0.532617	1.639404
0.532715	1.639455
0.532812	1.639375
0.532910	1.639407
0.533008	1.639475
0.533105	1.639352
0.533203	1.639426
0.533301	1.639387
0.533398	1.639500
0.533496	1.639354
0.533594	1.639355
0.533691	1.639201
0.533789	1.639306
0.533887	1.639486
0.533984	1.639345
0.534082	1.639439
0.534180	1.639454
0.534277	1.639393
0.534375	1.639407
0.534473	1.639442
0.534570	1.639321
0.534668	1.639422
0.534766	1.639397
0.534863	1.639366
0.534961	1.639425
0.535059	1.639404
0.535156	1.639349
0.535254	1.639385
0.535352	1.639333
0.535449	1.639368
0.535547	1.639365
0.535645	1.639379
0.535742	1.639297
0.535840	1.639354
0.535937	1.639370
0.536035	1.639361
0.536133	1.639345
0.536230	1.639384
0.536328	1.639395
0.536426	1.639388
0.536523	1.639371
0.536621	1.639362
0.536719	1.639370
0.536816	1.639404
0.536914	1.639370
0.537012	1.639375
0.537109	1.639415
0.537207	1.639358
0.537305	1.639425
0.537402	1.639390
0.537500	1.639403
0.537598	1.639368
0.537695	1.639470
0.537793	1.639323
0.537891	1.639393
0.537988	1.639384
0.538086	1.639378
0.538184	1.639387
0.538281	1.639379
0.538379	1.639368
0.538477	1.639426
0.538574	1.639376
0.538672	1.639345
0.538770	1.639384
0.538867	1.639404
0.538965	1.639464
0.539062	1.639352
0.539160	1.639453
0.539258	1.639376
0.539355	1.639386
0.539453	1.639364
0.539551	1.639376
0.539648	1.639410
0.539746	1.639450
0.539844	1.639479
0.539941	1.639401
0.540039	1.639478
0.540137	1.639406
0.540234	1.639426
0.540332	1.639406
0.540430	1.639403
0.540527	1.639405
0.540625	1.639299
0.540723	1.639407
0.540820	1.639291
0.540918	1.639448
0.541016	1.639276
0.541113	1.639240
0.541211	1.639319
0.541309	1.639398
0.541406	1.639393
0.541504	1.639385
0.541602	1.639362
0.541699	1.639340
0.541797	1.639329
0.541895	1.639304
0.541992	1.639334
0.542090	1.639319
0.542187	1.639288
0.542285	1.639343
0.542383	1.639351
0.542480	1.639331
0.542578	1.639314
0.542676	1.639296
0.542773	1.639307
0.542871	1.639299
0.542969	1.639276
0.543066	1.639323
0.543164	1.639247
0.543262	1.639232
0.543359	1.639339
0.543457	1.639274
0.543555	1.639190
0.543652	1.639110
0.543750	1.639135
0.543848	1.639251
0.543945	1.639285
0.544043	1.639274
0.544141	1.639307
0.544238	1.639340
0.544336	1.639372
0.544434	1.639315
0.544531	1.639241
0.544629	1.639297
0.544727	1.639331
0.544824	1.639345
0.544922	1.639346
0.545020	1.639300
0.545117	1.639326
0.545215	1.639367
0.545312	1.639316
0.545410	1.639296
0.545508	1.639363
0.545605	1.639372
0.545703	1.639329
0.545801	1.639404
0.545898	1.639304
0.545996	1.639308
0.546094	1.639330
0.546191	1.639329
0.546289	1.639309
0.546387	1.639403
0.546484	1.639410
0.546582	1.639425
0.546680	1.639385
0.546777	1.639401
0.546875	1.639404
0.546973	1.639457
0.547070	1.639397
0.547168	1.639435
0.547266	1.639409
0.547363	1.639455
0.547461	1.639401
0.547559	1.639386
0.547656	1.639350
0.547754	1.639410
0.547852	1.639375
0.547949	1.639382
0.548047	1.639428
0.548145	1.639391
0.548242	1.639378
0.548340	1.639362
0.548437	1.639373
0.548535	1.639341
0.548633	1.639368
0.548730	1.639314
0.548828	1.639366
0.548926	1.639329
0.549023	1.639318
0.549121	1.639425
0.549219	1.639354
0.549316	1.639324
0.549414	1.639359
0.549512	1.639355
0.549609	1.639371
0.549707	1.639329
0.549805	1.639357
0.549902	1.639341
0.550000	1.639397
0.550098	1.639371
0.550195	1.639339
0.550293	1.639321
0.550391	1.639429
0.550488	1.639428
0.550586	1.639356
0.550684	1.639481
0.550781	1.639326
0.550879	1.639247
0.550977	1.639304
0.551074	1.639212
0.551172	1.639301
0.551270	1.639276
0.551367	1.639348
0.551465	1.639362
0.551562	1.639373
0.551660	1.639260
0.551758	1.639226
0.551855	1.639293
0.551953	1.639343
0.552051	1.639304
0.552148	1.639345
0.552246	1.639300
0.552344	1.639288
0.552441	1.639263
0.552539	1.639224
0.552637	1.639262
0.552734	1.639274
0.552832	1.639273
0.552930	1.639295
0.553027	1.639287
0.553125	1.639259
0.553223	1.639290
0.553320	1.639219
0.553418	1.639288
0.553516	1.639241
0.553613	1.639133
0.553711	1.639149
0.553809	1.639221
0.553906	1.639277
0.554004	1.639242
0.554102	1.639197
0.554199	1.639163
0.554297	1.639218
0.554395	1.639228
0.554492	1.639231
0.554590	1.639271
0.554687	1.639252
0.554785	1.639272
0.554883	1.639195
0.554980	1.639258
0.555078	1.639219
0.555176	1.639244
0.555273	1.639277
0.555371	1.639229
0.555469	1.639280
0.555566	1.639283
0.555664	1.639246
0.555762	1.639263
0.555859	1.639291
0.555957	1.639306
0.556055	1.639299
0.556152	1.639344
0.556250	1.639259
0.556348	1.639349
0.556445	1.639278
0.556543	1.639274
0.556641	1.639395
0.556738	1.639254
0.556836	1.639304
0.556934	1.639301
0.557031	1.639312
0.557129	1.639279
0.557227	1.639326
0.557324	1.639306
0.557422	1.639345
0.557520	1.639286
0.557617	1.639316
0.557715	1.639362
0.557812	1.639329
0.557910	1.639349
0.558008	1.639282
0.558105	1.639344
0.558203	1.639333
0.558301	1.639314
0.558398	1.639215
0.558496	1.639329
0.558594	1.639399
0.558691	1.639426
0.558789	1.639368
0.558887	1.639318
0.558984	1.639340
0.559082	1.639362
0.559180	1.639372
0.559277	1.639305
0.559375	1.639379
0.559473	1.639363
0.559570	1.639416
0.559668	1.639469
0.559766	1.639445
0.559863	1.639499
0.559961	1.639484
0.560059	1.639494
0.560156	1.639455
0.560254	1.639503
0.560352	1.639511
0.560449	1.639500
0.560547	1.639539
0.560645	1.639543
0.560742	1.639492
0.560840	1.639501
0.560937	1.639423
0.561035	1.639454
0.561133	1.639369
0.561230	1.639471
0.561328	1.639529
0.561426	1.639583
0.561523	1.639514
0.561621	1.639511
0.561719	1.639495
0.561816	1.639410
0.561914	1.639497
0.562012	1.639448
0.562109	1.639507
0.562207	1.639486
0.562305	1.639515
0.562402	1.639509
0.562500	1.639481
0.562598	1.639470
0.562695	1.639517
0.562793	1.639493
0.562891	1.639554
0.562988	1.639412
0.563086	1.639500
0.563184	1.639442
0.563281	1.639440
0.563379	1.639422
0.563477	1.639428
0.563574	1.639388
0.563672	1.639243
0.563770	1.639351
0.563867	1.639318
0.563965	1.639397
0.564062	1.639410
0.564160	1.639366
0.564258	1.639391
0.564355	1.639369
0.564453	1.639326
0.564551	1.639252
0.564648	1.639288
0.564746	1.639287
0.564844	1.639336
0.564941	1.639255
0.565039	1.639261
0.565137	1.639346
0.565234	1.639334
0.565332	1.639276
0.565430	1.639370
0.565527	1.639304
0.565625	1.639320
0.565723	1.639243
0.565820	1.639212
0.565918	1.639260
0.566016	1.639195
0.566113	1.639177
0.566211	1.639174
0.566309	1.639177
0.566406	1.639141
0.566504	1.639187
0.566602	1.639160
0.566699	1.639152
0.566797	1.639153
0.566895	1.639096
0.566992	1.639100
0.567090	1.639032
0.567187	1.639057
0.567285	1.639035
0.567383	1.639040
0.567480	1.639063
0.567578	1.639022
0.567676	1.639055
0.567773	1.638971
0.567871	1.639063
0.567969	1.638981
0.568066	1.639017
0.568164	1.639017
0.568262	1.639010
0.568359	1.638929
0.568457	1.638950
0.568555	1.639002
0.568652	1.638944
0.568750	1.638909
0.568848	1.638967
0.568945	1.638898
0.569043	1.638928
0.569141	1.639010
0.569238	1.638909
0.569336	1.638956
0.569434	1.638951
0.569531	1.639003
0.569629	1.638928
0.569727	1.639000
0.569824	1.639103
0.569922	1.639036
0.570020	1.639061
0.570117	1.638966
0.570215	1.639028
0.570312	1.639096
0.570410	1.639060
0.570508	1.639013
0.570605	1.639013
0.570703	1.639102
0.570801	1.639039
0.570898	1.638973
0.570996	1.638976
0.571094	1.638925
0.571191	1.638985
0.571289	1.639039
0.571387	1.638963
0.571484	1.639074
0.571582	1.639066
0.571680	1.639049
0.571777	1.639032
0.571875	1.639019
0.571973	1.638973
0.572070	1.639102
0.572168	1.639068
0.572266	1.639138
0.572363	1.639041
0.572461	1.639083
0.572559	1.639046
0.572656	1.639088
0.572754	1.639127
0.572852	1.639137
0.572949	1.639100
0.573047	1.639100
0.573145	1.639157
0.573242	1.639100
0.573340	1.639176
0.573437	1.639063
0.573535	1.639042
0.573633	1.639030
0.573730	1.638977
0.573828	1.639133
0.573926	1.639115
0.574023	1.639108
0.574121	1.639088
0.574219	1.639094
0.574316	1.639121
0.574414	1.639052
0.574512	1.639163
0.574609	1.639113
0.574707	1.639176
0.574805	1.639091
0.574902	1.639149
0.575000	1.639110
0.575098	1.639055
0.575195	1.639049
0.575293	1.639154
0.575391	1.639072
0.575488	1.639046
0.575586	1.639052
0.575684	1.638971
0.575781	1.638980
0.575879	1.638992
0.575977	1.638989
0.576074	1.638986
0.576172	1.639026
0.576270	1.638979
0.576367	1.638931
0.576465	1.638983
0.576562	1.638908
0.576660	1.638958
0.576758	1.638927
0.576855	1.638847
0.576953	1.638935
0.577051	1.638929
0.577148	1.638936
0.577246	1.638914
0.577344	1.638812
0.577441	1.638885
0.577539	1.638858
0.577637	1.638880
0.577734	1.638803
0.577832	1.638794
0.577930	1.638826
0.578027	1.638830
0.578125	1.638755
0.578223	1.638733
0.578320	1.638736
0.578418	1.638740
0.578516	1.638729
0.578613	1.638731
0.578711	1.638779
0.578809	1.638777
0.578906	1.638716
0.579004	1.638744
0.579102	1.638804
0.579199	1.638809
0.579297	1.638729
0.579395	1.638754
0.579492	1.638701
0.579590	1.638665
0.579687	1.638770
0.579785	1.638701
0.579883	1.638803
0.579980	1.638800
0.580078	1.638814
0.580176	1.638773
0.580273	1.638816
0.580371	1.638822
0.580469	1.638873
0.580566	1.638828
0.580664	1.638842
0.580762	1.638785
0.580859	1.638784
0.580957	1.638702
0.581055	1.638703
0.581152	1.638776
0.581250	1.638765
0.581348	1.638724
0.581445	1.638866
0.581543	1.638856
0.581641	1.638781
0.581738	1.638837
0.581836	1.638846
0.581934	1.638889
0.582031	1.638825
0.582129	1.638825
0.582227	1.638871
0.582324	1.638850
0.582422	1.638894
0.582520	1.638844
0.582617	1.638905
0.582715	1.638948
0.582812	1.638818
0.582910	1.638873
0.583008	1.638817
0.583105	1.638870
0.583203	1.638856
0.583301	1.638872
0.583398	1.638817
0.583496	1.638842
0.583594	1.638793
0.583691	1.638722
0.583789	1.638709
0.583887	1.638847
0.583984	1.638839
0.584082	1.638866
0.584180	1.638861
0.584277	1.638860
0.584375	1.638881
0.584473	1.638804
0.584570	1.638833
0.584668	1.638873
0.584766	1.638798
0.584863	1.638878
0.584961	1.638847
0.585059	1.638815
0.585156	1.638819
0.585254	1.638856
0.585352	1.638784
0.585449	1.638816
0.585547	1.638883
0.585645	1.638839
0.585742	1.638829
0.585840	1.638881
0.585937	1.638861
0.586035	1.638862
0.586133	1.638855
0.586230	1.638831
0.586328	1.638855
0.586426	1.638871
0.586523	1.638873
0.586621	1.638943
0.586719	1.638903
0.586816	1.638913
0.586914	1.638952
0.587012	1.638913
0.587109	1.638909
0.587207	1.638908
0.587305	1.638864
0.587402	1.638953
0.587500	1.638884
0.587598	1.638971
0.587695	1.638917
0.587793	1.639032
0.587891	1.638975
0.587988	1.638992
0.588086	1.639025
0.588184	1.638946
0.588281	1.638994
0.588379	1.638965
0.588477	1.639025
0.588574	1.639060
0.588672	1.638997
0.588770	1.638996
0.588867	1.638941
0.588965	1.638988
0.589062	1.638960
0.589160	1.638979
0.589258	1.638938
0.589355	1.639027
0.589453	1.639076
0.589551	1.639011
0.589648	1.639007
0.589746	1.639020
0.589844	1.639000
0.589941	1.639135
0.590039	1.639095
0.590137	1.639116
0.590234	1.639165
0.590332	1.639075
0.590430	1.639134
0.590527	1.639109
0.590625	1.639125
0.590723	1.639108
0.590820	1.639028
0.590918	1.639047
0.591016	1.639038
0.591113	1.639036
0.591211	1.639094
0.591309	1.639109
0.591406	1.639163
0.591504	1.639163
0.591602	1.639119
0.591699	1.639123
0.591797	1.639042
0.591895	1.639080
0.591992	1.639104
0.592090	1.639075
0.592187	1.639129
0.592285	1.639044
0.592383	1.639069
0.592480	1.639122
0.592578	1.639061
0.592676	1.639074
0.592773	1.639031
0.592871	1.639023
0.592969	1.638950
0.593066	1.639021
0.593164	1.638988
0.593262	1.639027
0.593359	1.639025
0.593457	1.639050
0.593555	1.638954
0.593652	1.638908
0.593750	1.638901
0.593848	1.638992
0.593945	1.638982
0.594043	1.638974
0.594141	1.638942
0.594238	1.638967
0.594336	1.638977
0.594434	1.638893
0.594531	1.638939
0.594629	1.638936
0.594727	1.638975
0.594824	1.638922
0.594922	1.638873
0.595020	1.638911
0.595117	1.638971
0.595215	1.638866
0.595312	1.639002
0.595410	1.638914
0.595508	1.638861
0.595605	1.638884
0.595703	1.638903
0.595801	1.638980
0.595898	1.638858
0.595996	1.638896
0.596094	1.638825
0.596191	1.638843
0.596289	1.638931
0.596387	1.638864
0.596484	1.638931
0.596582	1.638924
0.596680	1.638860
0.596777	1.638892
0.596875	1.638831
0.596973	1.638787
0.597070	1.638913
0.597168	1.638889
0.597266	1.638937
0.597363	1.638870
0.597461	1.638855
0.597559	1.638862
0.597656	1.638819
0.597754	1.638886
0.597852	1.638822
0.597949	1.638928
0.598047	1.638926
0.598145	1.638863
0.598242	1.638959
0.598340	1.638890
0.598437	1.638918
0.598535	1.638900
0.598633	1.638941
0.598730	1.638911
0.598828	1.638913
0.598926	1.638951
0.599023	1.638890
0.599121	1.638939
0.599219	1.638894
0.599316	1.638931
0.599414	1.639021
0.599512	1.638952
0.599609	1.639053
0.599707	1.638926
0.599805	1.638962
0.599902	1.638983
0.600000	1.639018
0.600098	1.639002
0.600195	1.638995
0.600293	1.639058
0.600391	1.639022
0.600488	1.639074
0.600586	1.639130
0.600684	1.639077
0.600781	1.638977
0.600879	1.638930
0.600977	1.639082
0.601074	1.639019
0.601172	1.639021
0.601270	1.639050
0.601367	1.639058
0.601465	1.639144
0.601562	1.639071
0.601660	1.639069
0.601758	1.639109
0.601855	1.639076
0.601953	1.639072
0.602051	1.639121
0.602148	1.639143
0.602246	1.639097
0.602344	1.639103
0.602441	1.639092
0.602539	1.639135
0.602637	1.639144
0.602734	1.639164
0.602832	1.639146
0.602930	1.639145
0.603027	1.639169
0.603125	1.639195
0.603223	1.639118
0.603320	1.639155
0.603418	1.639178
0.603516	1.639168
0.603613	1.639098
0.603711	1.639036
0.603809	1.639213
0.603906	1.639197
0.604004	1.639243
0.604102	1.639202
0.604199	1.639197
0.604297	1.639148
0.604395	1.639130
0.604492	1.639267
0.604590	1.639224
0.604687	1.639262
0.604785	1.639249
0.604883	1.639208
0.604980	1.639218
0.605078	1.639249
0.605176	1.639203
0.605273	1.639245
0.605371	1.639200
0.605469	1.639320
0.605566	1.639309
0.605664	1.639260
0.605762	1.639309
0.605859	1.639307
0.605957	1.639226
0.606055	1.639227
0.606152	1.639282
0.606250	1.639223
0.606348	1.639215
0.606445	1.639240
0.606543	1.639254
0.606641	1.639218
0.606738	1.639218
0.606836	1.639180
0.606934	1.639227
0.607031	1.639242
0.607129	1.639226
0.607227	1.639226
0.607324	1.639281
0.607422	1.639245
0.607520	1.639235
0.607617	1.639274
0.607715	1.639244
0.607812	1.639187
0.607910	1.639222
0.608008	1.639280
0.608105	1.639303
0.608203	1.639257
0.608301	1.639286
0.608398	1.639369
0.608496	1.639374
0.608594	1.639302
0.608691	1.639335
0.608789	1.639291
0.608887	1.639379
0.608984	1.639322
0.609082	1.639350
0.609180	1.639329
0.609277	1.639330
0.609375	1.639292
0.609473	1.639277
0.609570	1.639276
0.609668	1.639315
0.609766	1.639324
0.609863	1.639416
0.609961	1.639371
0.610059	1.639384
0.610156	1.639474
0.610254	1.639399
0.610352	1.639511
0.610449	1.639485
0.610547	1.639473
0.610645	1.639498
0.610742	1.639432
0.610840	1.639420
0.610937	1.639398
0.611035	1.639372
0.611133	1.639338
0.611230	1.639415
0.611328	1.639401
0.611426	1.639480
0.611523	1.639481
0.611621	1.639471
0.611719	1.639413
0.611816	1.639396
0.611914	1.639427
0.612012	1.639403
0.612109	1.639394
0.612207	1.639373
0.612305	1.639403
0.612402	1.639399
0.612500	1.639442
0.612598	1.639415
0.612695	1.639453
0.612793	1.639456
0.612891	1.639370
0.612988	1.639410
0.613086	1.639442
0.613184	1.639415
0.613281	1.639438
0.613379	1.639404
0.613477	1.639339
0.613574	1.639392
0.613672	1.639207
0.613770	1.639265
0.613867	1.639354
0.613965	1.639304
0.614062	1.639397
0.614160	1.639347
0.614258	1.639370
0.614355	1.639319
0.614453	1.639301
0.614551	1.639329
0.614648	1.639261
0.614746	1.639248
0.614844	1.639283
0.614941	1.639273
0.615039	1.639302
0.615137	1.639334
0.615234	1.639295
0.615332	1.639238
0.615430	1.639291
0.615527	1.639238
0.615625	1.639221
0.615723	1.639294
0.615820	1.639233
0.615918	1.639185
0.616016	1.639223
0.616113	1.639168
0.616211	1.639205
0.616309	1.639221
0.616406	1.639086
0.616504	1.639204
0.616602	1.639157
0.616699	1.639177
0.616797	1.639080
0.616895	1.639183
0.616992	1.639168
0.617090	1.639177
0.617187	1.639232
0.617285	1.639210
0.617383	1.639171
0.617480	1.639165
0.617578	1.639198
0.617676	1.639213
0.617773	1.639190
0.617871	1.639193
0.617969	1.639200
0.618066	1.639166
0.618164	1.639180
0.618262	1.639154
0.618359	1.639201
0.618457	1.639160
0.618555	1.639149
0.618652	1.639200
0.618750	1.639181
0.618848	1.639171
0.618945	1.639186
0.619043	1.639185
0.619141	1.639169
0.619238	1.639183
0.619336	1.639169
0.619434	1.639190
0.619531	1.639219
0.619629	1.639151
0.619727	1.639212
0.619824	1.639210
0.619922	1.639217
0.620020	1.639284
0.620117	1.639198
0.620215	1.639263
0.620312	1.639288
0.620410	1.639257
0.620508	1.639310
0.620605	1.639313
0.620703	1.639332
0.620801	1.639182
0.620898	1.639211
0.620996	1.639204
0.621094	1.639113
0.621191	1.639167
0.621289	1.639187
0.621387	1.639252
0.621484	1.639244
0.621582	1.639266
0.621680	1.639190
0.621777	1.639233
0.621875	1.639263
0.621973	1.639219
0.622070	1.639315
0.622168	1.639263
0.622266	1.639238
0.622363	1.639313
0.622461	1.639232
0.622559	1.639348
0.622656	1.639265
0.622754	1.639239
0.622852	1.639326
0.622949	1.639192
0.623047	1.639338
0.623145	1.639247
0.623242	1.639202
0.623340	1.639280
0.623437	1.639210
0.623535	1.639138
0.623633	1.639138
0.623730	1.638987
0.623828	1.639227
0.623926	1.639221
0.624023	1.639219
0.624121	1.639179
0.624219	1.639182
0.624316	1.639235
0.624414	1.639120
0.624512	1.639166
0.624609	1.639220
0.624707	1.639241
0.624805	1.639191
0.624902	1.639214
0.625000	1.639242
0.625098	1.639275
0.625195	1.639194
0.625293	1.639301
0.625391	1.639160
0.625488	1.639249
0.625586	1.639266
0.625684	1.639278
0.625781	1.639257
0.625879	1.639190
0.625977	1.639260
0.626074	1.639288
0.626172	1.639273
0.626270	1.639349
0.626367	1.639284
0.626465	1.639289
0.626562	1.639330
0.626660	1.639340
0.626758	1.639336
0.626855	1.639370
0.626953	1.639301
0.627051	1.639371
0.627148	1.639365
0.627246	1.639310
0.627344	1.639386
0.627441	1.639414
0.627539	1.639343
0.627637	1.639435
0.627734	1.639364
0.627832	1.639432
0.627930	1.639422
0.628027	1.639440
0.628125	1.639479
0.628223	1.639429
0.628320	1.639396
0.628418	1.639362
0.628516	1.639371
0.628613	1.639384
0.628711	1.639413
0.628809	1.639412
0.628906	1.639403
0.629004	1.639431
0.629102	1.639387
0.629199	1.639415
0.629297	1.639347
0.629395	1.639381
0.629492	1.639389
0.629590	1.639376
0.629687	1.639421
0.629785	1.639415
0.629883	1.639396
0.629980	1.639425
0.630078	1.639475
0.630176	1.639461
0.630273	1.639414
0.630371	1.639448
0.630469	1.639450
0.630566	1.639451
0.630664	1.639433
0.630762	1.639415
0.630859	1.639362
0.630957	1.639284
0.631055	1.639228
0.631152	1.639371
0.631250	1.639360
0.631348	1.639265
0.631445	1.639417
0.631543	1.639326
0.631641	1.639454
0.631738	1.639378
0.631836	1.639384
0.631934	1.639366
0.632031	1.639351
0.632129	1.639408
0.632227	1.639362
0.632324	1.639325
0.632422	1.639338
0.632520	1.639365
0.632617	1.639370
0.632715	1.639433
0.632812	1.639398
0.632910	1.639366
0.633008	1.639433
0.633105	1.639356
0.633203	1.639326
0.633301	1.639361
0.633398	1.639354
0.633496	1.639327
0.633594	1.639275
0.633691	1.639235
0.633789	1.639257
0.633887	1.639299
0.633984	1.639327
0.634082	1.639324
0.634180	1.639420
0.634277	1.639403
0.634375	1.639337
0.634473	1.639396
0.634570	1.639229
0.634668	1.639329
0.634766	1.639337
0.634863	1.639320
0.634961	1.639301
0.635059	1.639384
0.635156	1.639272
0.635254	1.639324
0.635352	1.639239
0.635449	1.639281
0.635547	1.639259
0.635645	1.639293
0.635742	1.639243
0.635840	1.639242
0.635937	1.639325
0.636035	1.639268
0.636133	1.639216
0.636230	1.639280
0.636328	1.639357
0.636426	1.639268
0.636523	1.639232
0.636621	1.639331
0.636719	1.639211
0.636816	1.639254
0.636914	1.639191
0.637012	1.639272
0.637109	1.639255
0.637207	1.639222
0.637305	1.639204
0.637402	1.639255
0.637500	1.639243
0.637598	1.639180
0.637695	1.639142
0.637793	1.639188
0.637891	1.639196
0.637988	1.639194
0.638086	1.639165
0.638184	1.639169
0.638281	1.639170
0.638379	1.639107
0.638477	1.639155
0.638574	1.639162
0.638672	1.639208
0.638770	1.639125
0.638867	1.639189
0.638965	1.639188
0.639062	1.639215
0.639160	1.639197
0.639258	1.639162
0.639355	1.639183
0.639453	1.639210
0.639551	1.639191
0.639648	1.639179
0.639746	1.639192
0.639844	1.639281
0.639941	1.639246
0.640039	1.639271
0.640137	1.639264
0.640234	1.639176
0.640332	1.639260
0.640430	1.639221
0.640527	1.639277
0.640625	1.639325
0.640723	1.639204
0.640820	1.639229
0.640918	1.639237
0.641016	1.639292
0.641113	1.639169
0.641211	1.639256
0.641309	1.639254
0.641406	1.639337
0.641504	1.639275
0.641602	1.639349
0.641699	1.639238
0.641797	1.639224
0.641895	1.639263
0.641992	1.639268
0.642090	1.639254
0.642187	1.639295
0.642285	1.639196
0.642383	1.639299
0.642480	1.639285
0.642578	1.639270
0.642676	1.639290
0.642773	1.639318
0.642871	1.639261
0.642969	1.639219
0.643066	1.639295
0.643164	1.639292
0.643262	1.639284
0.643359	1.639297
0.643457	1.639317
0.643555	1.639238
0.643652	1.639188
0.643750	1.639248
0.643848	1.639327
0.643945	1.639335
0.644043	1.639306
0.644141	1.639304
0.644238	1.639389
0.644336	1.639325
0.644434	1.639316
0.644531	1.639323
0.644629	1.639367
0.644727	1.639325
0.644824	1.639330
0.644922	1.639319
0.645020	1.639349
0.645117	1.639351
0.645215	1.639415
0.645312	1.639435
0.645410	1.639471
0.645508	1.639440
0.645605	1.639426
0.645703	1.639473
0.645801	1.639432
0.645898	1.639404
0.645996	1.639428
0.646094	1.639508
0.646191	1.639487
0.646289	1.639473
0.646387	1.639513
0.646484	1.639560
0.646582	1.639543
0.646680	1.639508
0.646777	1.639522
0.646875	1.639560
0.646973	1.639536
0.647070	1.639534
0.647168	1.639541
0.647266	1.639524
0.647363	1.639475
0.647461	1.639539
0.647559	1.639558
0.647656	1.639597
0.647754	1.639503
0.647852	1.639541
0.647949	1.639518
0.648047	1.639537
0.648145	1.639549
0.648242	1.639614
0.648340	1.639583
0.648437	1.639561
0.648535	1.639543
0.648633	1.639570
0.648730	1.639583
0.648828	1.639506
0.648926	1.639641
0.649023	1.639598
0.649121	1.639556
0.649219	1.639561
0.649316	1.639548
0.649414	1.639484
0.649512	1.639545
0.649609	1.639572
0.649707	1.639552
0.649805	1.639611
0.649902	1.639477
0.650000	1.639606
0.650098	1.639535
0.650195	1.639563
0.650293	1.639605
0.650391	1.639545
0.650488	1.639591
0.650586	1.639658
0.650684	1.639563
0.650781	1.639474
0.650879	1.639558
0.650977	1.639478
0.651074	1.639492
0.651172	1.639412
0.651270	1.639475
0.651367	1.639535
0.651465	1.639520
0.651562	1.639440
0.651660	1.639472
0.651758	1.639476
0.651855	1.639490
0.651953	1.639543
0.652051	1.639398
0.652148	1.639459
0.652246	1.639484
0.652344	1.639424
0.652441	1.639469
0.652539	1.639433
0.652637	1.639485
0.652734	1.639449
0.652832	1.639512
0.652930	1.639495
0.653027	1.639441
0.653125	1.639471
0.653223	1.639472
0.653320	1.639446
0.653418	1.639461
0.653516	1.639429
0.653613	1.639389
0.653711	1.639312
0.653809	1.639506
0.653906	1.639515
0.654004	1.639429
0.654102	1.639431
0.654199	1.639521
0.654297	1.639406
0.654395	1.639503
0.654492	1.639421
0.654590	1.639428
0.654687	1.639504
0.654785	1.639425
0.654883	1.639470
0.654980	1.639408
0.655078	1.639399
0.655176	1.639367
0.655273	1.639428
0.655371	1.639420
0.655469	1.639431
0.655566	1.639414
0.655664	1.639417
0.655762	1.639392
0.655859	1.639415
0.655957	1.639434
0.656055	1.639467
0.656152	1.639435
0.656250	1.639486
0.656348	1.639445
0.656445	1.639409
0.656543	1.639423
0.656641	1.639359
0.656738	1.639299
0.656836	1.639396
0.656934	1.639360
0.657031	1.639404
0.657129	1.639374
0.657227	1.639375
0.657324	1.639394
0.657422	1.639381
0.657520	1.639442
0.657617	1.639416
0.657715	1.639417
0.657812	1.639400
0.657910	1.639447
0.658008	1.639356
0.658105	1.639484
0.658203	1.639402
0.658301	1.639445
0.658398	1.639401
0.658496	1.639372
0.658594	1.639472
0.658691	1.639372
0.658789	1.639345
0.658887	1.639391
0.658984	1.639354
0.659082	1.639383
0.659180	1.639324
0.659277	1.639374
0.659375	1.639262
0.659473	1.639271
0.659570	1.639326
0.659668	1.639334
0.659766	1.639350
0.659863	1.639365
0.659961	1.639399
0.660059	1.639387
0.660156	1.639314
0.660254	1.639320
0.660352	1.639338
0.660449	1.639292
0.660547	1.639308
0.660645	1.639273
0.660742	1.639244
0.660840	1.639207
0.660937	1.639180
0.661035	1.639212
0.661133	1.639179
0.661230	1.639229
0.661328	1.639232
0.661426	1.639243
0.661523	1.639168
0.661621	1.639187
0.661719	1.639055
0.661816	1.639121
0.661914	1.639135
0.662012	1.639172
0.662109	1.639095
0.662207	1.639074
0.662305	1.639160
0.662402	1.639188
0.662500	1.639138
0.662598	1.639104
0.662695	1.639140
0.662793	1.639091
0.662891	1.639135
0.662988	1.639068
0.663086	1.639209
0.663184	1.639138
0.663281	1.639087
0.663379	1.639119
0.663477	1.639077
0.663574	1.639041
0.663672	1.638968
0.663770	1.639055
0.663867	1.639079
0.663965	1.639036
0.664062	1.639112
0.664160	1.639020
0.664258	1.639094
0.664355	1.639107
0.664453	1.639107
0.664551	1.638959
0.664648	1.639048
0.664746	1.639070
0.664844	1.639082
0.664941	1.639162
0.665039	1.639099
0.665137	1.639039
0.665234	1.639082
0.665332	1.639102
0.665430	1.639105
0.665527	1.639107
0.665625	1.639144
0.665723	1.639119
0.665820	1.639210
0.665918	1.639070
0.666016	1.639189
0.666113	1.639154
0.666211	1.639063
0.666309	1.639146
0.666406	1.639183
0.666504	1.639188
0.666602	1.639113
0.666699	1.639225
0.666797	1.639148
0.666895	1.639234
0.666992	1.639170
0.667090	1.639187
0.667187	1.639205
0.667285	1.639238
0.667383	1.639243
0.667480	1.639150
0.667578	1.639319
0.667676	1.639195
0.667773	1.639304
0.667871	1.639291
0.667969	1.639295
0.668066	1.639231
0.668164	1.639260
0.668262	1.639281
0.668359	1.639216
0.668457	1.639213
0.668555	1.639299
0.668652	1.639318
0.668750	1.639308
0.668848	1.639243
0.668945	1.639299
0.669043	1.639271
0.669141	1.639333
0.669238	1.639251
0.669336	1.639320
0.669434	1.639266
0.669531	1.639226
0.669629	1.639287
0.669727	1.639358
0.669824	1.639341
0.669922	1.639330
0.670020	1.639244
0.670117	1.639334
0.670215	1.639316
0.670312	1.639315
0.670410	1.639396
0.670508	1.639387
0.670605	1.639471
0.670703	1.639347
0.670801	1.639382
0.670898	1.639213
0.670996	1.639309
0.671094	1.639263
0.671191	1.639283
0.671289	1.639342
0.671387	1.639321
0.671484	1.639354
0.671582	1.639340
0.671680	1.639275
0.671777	1.639333
0.671875	1.639314
0.671973	1.639257
0.672070	1.639188
0.672168	1.639316
0.672266	1.639219
0.672363	1.639365
0.672461	1.639283
0.672559	1.639284
0.672656	1.639240
0.672754	1.639257
0.672852	1.639227
0.672949	1.639185
0.673047	1.639256
0.673145	1.639171
0.673242	1.639208
0.673340	1.639199
0.673437	1.639145
0.673535	1.639100
0.673633	1.638978
0.673730	1.639039
0.673828	1.639035
0.673926	1.639016
0.674023	1.639009
0.674121	1.639069
0.674219	1.639088
0.674316	1.639039
0.674414	1.638986
0.674512	1.639086
0.674609	1.638953
0.674707	1.639046
0.674805	1.638974
0.674902	1.638976
0.675000	1.639011
0.675098	1.638991
0.675195	1.638986
0.675293	1.639009
0.675391	1.638972
0.675488	1.638931
0.675586	1.638967
0.675684	1.638920
0.675781	1.638930
0.675879	1.638961
0.675977	1.638894
0.676074	1.638996
0.676172	1.638953
0.676270	1.638992
0.676367	1.639041
0.676465	1.638911
0.676562	1.638947
0.676660	1.638949
0.676758	1.638985
0.676855	1.638924
0.676953	1.638939
0.677051	1.639023
0.677148	1.639016
0.677246	1.639005
0.677344	1.638938
0.677441	1.639020
0.677539	1.638980
0.677637	1.639011
0.677734	1.639055
0.677832	1.638988
0.677930	1.639086
0.678027	1.638975
0.678125	1.639030
0.678223	1.638995
0.678320	1.639104
0.678418	1.639125
0.678516	1.639046
0.678613	1.639085
0.678711	1.639067
0.678809	1.639030
0.678906	1.639044
0.679004	1.639011
0.679102	1.639035
0.679199	1.639060
0.679297	1.639004
0.679395	1.639133
0.679492	1.639061
0.679590	1.639064
0.679687	1.639094
0.679785	1.639118
0.679883	1.639170
0.679980	1.639096
0.680078	1.639113
0.680176	1.639172
0.680273	1.639227
0.680371	1.639162
0.680469	1.639216
0.680566	1.639179
0.680664	1.639127
0.680762	1.639088
0.680859	1.639061
0.680957	1.638980
0.681055	1.639049
0.681152	1.639060
0.681250	1.638996
0.681348	1.639088
0.681445	1.639116
0.681543	1.639044
0.681641	1.639029
0.681738	1.639032
0.681836	1.639041
0.681934	1.639072
0.682031	1.639094
0.682129	1.639086
0.682227	1.639039
0.682324	1.638978
0.682422	1.639046
0.682520	1.638959
0.682617	1.639027
0.682715	1.638982
0.682812	1.638967
0.682910	1.638932
0.683008	1.638885
0.683105	1.638951
0.683203	1.638867
0.683301	1.638876
0.683398	1.638814
0.683496	1.638888
0.683594	1.638842
0.683691	1.638654
0.683789	1.638812
0.683887	1.638796
0.683984	1.638874
0.684082	1.638855
0.684180	1.638866
0.684277	1.638837
0.684375	1.638863
0.684473	1.638822
0.684570	1.638866
0.684668	1.638878
0.684766	1.638860
0.684863	1.638746
0.684961	1.638797
0.685059	1.638775
0.685156	1.638811
0.685254	1.638889
0.685352	1.638780
0.685449	1.638877
0.685547	1.638836
0.685645	1.638890
0.685742	1.638830
0.685840	1.638867
0.685937	1.638878
0.686035	1.638873
0.686133	1.638904
0.686230	1.638868
0.686328	1.638790
0.686426	1.638839
0.686523	1.638884
0.686621	1.638890
0.686719	1.638914
0.686816	1.638880
0.686914	1.638841
0.687012	1.638889
0.687109	1.638830
0.687207	1.638798
0.687305	1.638803
0.687402	1.638799
0.687500	1.638825
0.687598	1.638817
0.687695	1.638845
0.687793	1.638851
0.687891	1.638830
0.687988	1.638891
0.688086	1.638922
0.688184	1.638905
0.688281	1.638830
0.688379	1.638917
0.688477	1.638886
0.688574	1.638919
0.688672	1.638842
0.688770	1.638897
0.688867	1.638896
0.688965	1.638890
0.689062	1.638946
0.689160	1.638878
0.689258	1.638906
0.689355	1.639008
0.689453	1.638970
0.689551	1.639025
0.689648	1.639016
0.689746	1.638991
0.689844	1.639010
0.689941	1.639005
0.690039	1.639105
0.690137	1.639118
0.690234	1.639151
0.690332	1.639168
0.690430	1.639121
0.690527	1.639208
0.690625	1.639190
0.690723	1.639221
0.690820	1.639130
0.690918	1.639124
0.691016	1.639104
0.691113	1.639172
0.691211	1.639223
0.691309	1.639195
0.691406	1.639312
0.691504	1.639246
0.691602	1.639271
0.691699	1.639240
0.691797	1.639228
0.691895	1.639227
0.691992	1.639266
0.692090	1.639237
0.692187	1.639275
0.692285	1.639316
0.692383	1.639303
0.692480	1.639257
0.692578	1.639306
0.692676	1.639334
0.692773	1.639284
0.692871	1.639312
0.692969	1.639278
0.693066	1.639319
0.693164	1.639277
0.693262	1.639297
0.693359	1.639312
0.693457	1.639287
0.693555	1.639252
0.693652	1.639163
0.693750	1.639249
0.693848	1.639275
0.693945	1.639288
0.694043	1.639304
0.694141	1.639301
0.694238	1.639273
0.694336	1.639262
0.694434	1.639327
0.694531	1.639259
0.694629	1.639216
0.694727	1.639332
0.694824	1.639223
0.694922	1.639249
0.695020	1.639263
0.695117	1.639288
0.695215	1.639252
0.695312	1.639270
0.695410	1.639293
0.695508	1.639251
0.695605	1.639247
0.695703	1.639243
0.695801	1.639238
0.695898	1.639249
0.695996	1.639244
0.696094	1.639265
0.696191	1.639253
0.696289	1.639265
0.696387	1.639285
0.696484	1.639162
0.696582	1.639340
0.696680	1.639230
0.696777	1.639332
0.696875	1.639273
0.696973	1.639270
0.697070	1.639225
0.697168	1.639258
0.697266	1.639252
0.697363	1.639291
0.697461	1.639338
0.697559	1.639280
0.697656	1.639326
0.697754	1.639322
0.697852	1.639312
0.697949	1.639341
0.698047	1.639274
0.698145	1.639313
0.698242	1.639262
0.698340	1.639325
0.698437	1.639347
0.698535	1.639267
0.698633	1.639349
0.698730	1.639326
0.698828	1.639325
0.698926	1.639313
0.699023	1.639279
0.699121	1.639340
0.699219	1.639334
0.699316	1.639299
0.699414	1.639314
0.699512	1.639349
0.699609	1.639295
0.699707	1.639315
0.699805	1.639368
0.699902	1.639327
0.700000	1.639422
0.700098	1.639356
0.700195	1.639415
0.700293	1.639414
0.700391	1.639386
0.700488	1.639430
0.700586	1.639372
0.700684	1.639351
0.700781	1.639249
0.700879	1.639243
0.700977	1.639251
0.701074	1.639152
0.701172	1.639285
0.701270	1.639237
0.701367	1.639241
0.701465	1.639262
0.701562	1.639234
0.701660	1.639213
0.701758	1.639154
0.701855	1.639237
0.701953	1.639162
0.702051	1.639243
0.702148	1.639146
0.702246	1.639110
0.702344	1.639104
0.702441	1.639136
0.702539	1.639091
0.702637	1.639229
0.702734	1.639094
0.702832	1.639157
0.702930	1.639149
0.703027	1.639044
0.703125	1.639046
0.703223	1.639119
0.703320	1.639024
0.703418	1.639027
0.703516	1.639144
0.703613	1.638967
0.703711	1.638920
0.703809	1.639060
0.703906	1.639022
0.704004	1.639027
0.704102	1.639083
0.704199	1.639059
0.704297	1.639032
0.704395	1.639075
0.704492	1.639043
0.704590	1.639084
0.704687	1.638995
0.704785	1.639079
0.704883	1.639091
0.704980	1.639046
0.705078	1.639020
0.705176	1.639048
0.705273	1.639034
0.705371	1.639104
0.705469	1.639095
0.705566	1.639115
0.705664	1.639150
0.705762	1.639126
0.705859	1.639115
0.705957	1.639147
0.706055	1.639224
0.706152	1.639249
0.706250	1.639173
0.706348	1.639187
0.706445	1.639176
0.706543	1.639211
0.706641	1.639178
0.706738	1.639198
0.706836	1.639238
0.706934	1.639298
0.707031	1.639287
0.707129	1.639321
0.707227	1.639373
0.707324	1.639306
0.707422	1.639275
0.707520	1.639285
0.707617	1.639350
0.707715	1.639404
0.707812	1.639297
0.707910	1.639442
0.708008	1.639368
0.708105	1.639409
0.708203	1.639453
0.708301	1.639401
0.708398	1.639409
0.708496	1.639465
0.708594	1.639434
0.708691	1.639437
0.708789	1.639493
0.708887	1.639540
0.708984	1.639450
0.709082	1.639482
0.709180	1.639418
0.709277	1.639462
0.709375	1.639522
0.709473	1.639504
0.709570	1.639541
0.709668	1.639528
0.709766	1.639569
0.709863	1.639561
0.709961	1.639598
0.710059	1.639609
0.710156	1.639599
0.710254	1.639583
0.710352	1.639550
0.710449	1.639611
0.710547	1.639696
0.710645	1.639666
0.710742	1.639602
0.710840	1.639589
0.710937	1.639599
0.711035	1.639584
0.711133	1.639536
0.711230	1.639598
0.711328	1.639594
0.711426	1.639673
0.711523	1.639645
0.711621	1.639641
0.711719	1.639571
0.711816	1.639591
0.711914	1.639612
0.712012	1.639547
0.712109	1.639567
0.712207	1.639592
0.712305	1.639535
0.712402	1.639596
0.712500	1.639556
0.712598	1.639637
0.712695	1.639629
0.712793	1.639697
0.712891	1.639551
0.712988	1.639519
0.713086	1.639590
0.713184	1.639539
0.713281	1.639516
0.713379	1.639504
0.713477	1.639454
0.713574	1.639499
0.713672	1.639365
0.713770	1.639510
0.713867	1.639488
0.713965	1.639459
0.714062	1.639540
0.714160	1.639456
0.714258	1.639526
0.714355	1.639473
0.714453	1.639514
0.714551	1.639472
0.714648	1.639537
0.714746	1.639581
0.714844	1.639500
0.714941	1.639496
0.715039	1.639501
0.715137	1.639536
0.715234	1.639479
0.715332	1.639496
0.715430	1.639486
0.715527	1.639434
0.715625	1.639428
0.715723	1.639511
0.715820	1.639415
0.715918	1.639495
0.716016	1.639525
0.716113	1.639476
0.716211	1.639460
0.716309	1.639569
0.716406	1.639439
0.716504	1.639476
0.716602	1.639482
0.716699	1.639445
0.716797	1.639508
0.716895	1.639470
0.716992	1.639497
0.717090	1.639454
0.717187	1.639509
0.717285	1.639493
0.717383	1.639473
0.717480	1.639463
0.717578	1.639476
0.717676	1.639480
0.717773	1.639536
0.717871	1.639499
0.717969	1.639444
0.718066	1.639514
0.718164	1.639474
0.718262	1.639454
0.718359	1.639426
0.718457	1.639470
0.718555	1.639429
0.718652	1.639480
0.718750	1.639480
0.718848	1.639513
0.718945	1.639535
0.719043	1.639507
0.719141	1.639498
0.719238	1.639465
0.719336	1.639452
0.719434	1.639507
0.719531	1.639529
0.719629	1.639479
0.719727	1.639551
0.719824	1.639520
0.719922	1.639580
0.720020	1.639593
0.720117	1.639559
0.720215	1.639529
0.720312	1.639637
0.720410	1.639587
0.720508	1.639631
0.720605	1.639625
0.720703	1.639575
0.720801	1.639519
0.720898	1.639593
0.720996	1.639501
0.721094	1.639511
0.721191	1.639532
0.721289	1.639575
0.721387	1.639646
0.721484	1.639620
0.721582	1.639560
0.721680	1.639589
0.721777	1.639606
0.721875	1.639577
0.721973	1.639622
0.722070	1.639606
0.722168	1.639573
0.722266	1.639548
0.722363	1.639580
0.722461	1.639612
0.722559	1.639580
0.722656	1.639575
0.722754	1.639655
0.722852	1.639586
0.722949	1.639508
0.723047	1.639636
0.723145	1.639571
0.723242	1.639571
0.723340	1.639534
0.723437	1.639603
0.723535	1.639636
0.723633	1.639434
0.723730	1.639564
0.723828	1.639558
0.723926	1.639563
0.724023	1.639676
0.724121	1.639650
0.724219	1.639646
0.724316	1.639636
0.724414	1.639680
0.724512	1.639582
0.724609	1.639763
0.724707	1.639564
0.724805	1.639667
0.724902	1.639645
0.725000	1.639620
0.725098	1.639686
0.725195	1.639683
0.725293	1.639700
0.725391	1.639707
0.725488	1.639640
0.725586	1.639658
0.725684	1.639649
0.725781	1.639724
0.725879	1.639695
0.725977	1.639677
0.726074	1.639700
0.726172	1.639800
0.726270	1.639760
0.726367	1.639717
0.726465	1.639700
0.726562	1.639693
0.726660	1.639730
0.726758	1.639758
0.726855	1.639722
0.726953	1.639716
0.727051	1.639678
0.727148	1.639681
0.727246	1.639749
0.727344	1.639657
0.727441	1.639755
0.727539	1.639705
0.727637	1.639765
0.727734	1.639654
0.727832	1.639669
0.727930	1.639590
0.728027	1.639642
0.728125	1.639665
0.728223	1.639615
0.728320	1.639637
0.728418	1.639625
0.728516	1.639644
0.728613	1.639634
0.728711	1.639578
0.728809	1.639663
0.728906	1.639538
0.729004	1.639611
0.729102	1.639533
0.729199	1.639542
0.729297	1.639624
0.729395	1.639504
0.729492	1.639563
0.729590	1.639603
0.729687	1.639596
0.729785	1.639633
0.729883	1.639618
0.729980	1.639685
0.730078	1.639577
0.730176	1.639653
0.730273	1.639614
0.730371	1.639648
0.730469	1.639619
0.730566	1.639681
0.730664	1.639667
0.730762	1.639534
0.730859	1.639616
0.730957	1.639554
0.731055	1.639491
0.731152	1.639511
0.731250	1.639508
0.731348	1.639584
0.731445	1.639599
0.731543	1.639573
0.731641	1.639601
0.731738	1.639534
0.731836	1.639636
0.731934	1.639547
0.732031	1.639586
0.732129	1.639576
0.732227	1.639620
0.732324	1.639615
0.732422	1.639546
0.732520	1.639518
0.732617	1.639534
0.732715	1.639602
0.732812	1.639603
0.732910	1.639567
0.733008	1.639578
0.733105	1.639608
0.733203	1.639626
0.733301	1.639574
0.733398	1.639603
0.733496	1.639567
0.733594	1.639517
0.733691	1.639486
0.733789	1.639580
0.733887	1.639559
0.733984	1.639603
0.734082	1.639631
0.734180	1.639619
0.734277	1.639682
0.734375	1.639597
0.734473	1.639667
0.734570	1.639650
0.734668	1.639647
0.734766	1.639672
0.734863	1.639678
0.734961	1.639669
0.735059	1.639691
0.735156	1.639677
0.735254	1.639685
0.735352	1.639671
0.735449	1.639583
0.735547	1.639657
0.735645	1.639656
0.735742	1.639706
0.735840	1.639578
0.735937	1.639728
0.736035	1.639758
0.736133	1.639656
0.736230	1.639662
0.736328	1.639678
0.736426	1.639606
0.736523	1.639661
0.736621	1.639665
0.736719	1.639639
0.736816	1.639669
0.736914	1.639694
0.737012	1.639766
0.737109	1.639654
0.737207	1.639675
0.737305	1.639648
0.737402	1.639665
0.737500	1.639653
0.737598	1.639700
0.737695	1.639630
0.737793	1.639718
0.737891	1.639661
0.737988	1.639758
0.738086	1.639722
0.738184	1.639680
0.738281	1.639705
0.738379	1.639689
0.738477	1.639671
0.738574	1.639698
0.738672	1.639741
0.738770	1.639686
0.738867	1.639760
0.738965	1.639655
0.739062	1.639744
0.739160	1.639810
0.739258	1.639727
0.739355	1.639770
0.739453	1.639794
0.739551	1.639790
0.739648	1.639783
0.739746	1.639824
0.739844	1.639805
0.739941	1.639806
0.740039	1.639814
0.740137	1.639839
0.740234	1.639799
0.740332	1.639846
0.740430	1.639832
0.740527	1.639886
0.740625	1.639883
0.740723	1.639839
0.740820	1.639835
0.740918	1.639850
0.741016	1.639744
0.741113	1.639799
0.741211	1.639816
0.741309	1.639852
0.741406	1.639821
0.741504	1.639814
0.741602	1.639757
0.741699	1.639817
0.741797	1.639766
0.741895	1.639828
0.741992	1.639889
0.742090	1.639825
0.742187	1.639837
0.742285	1.639830
0.742383	1.639813
0.742480	1.639834
0.742578	1.639824
0.742676	1.639860
0.742773	1.639823
0.742871	1.639810
0.742969	1.639866
0.743066	1.639780
0.743164	1.639765
0.743262	1.639806
0.743359	1.639866
0.743457	1.639764
0.743555	1.639761
0.743652	1.639685
0.743750	1.639767
0.743848	1.639844
0.743945	1.639861
0.744043	1.639871
0.744141	1.639827
0.744238	1.639776
0.744336	1.639839
0.744434	1.639843
0.744531	1.639763
0.744629	1.639886
0.744727	1.639817
0.744824	1.639814
0.744922	1.639798
0.745020	1.639779
0.745117	1.639871
0.745215	1.639885
0.745312	1.639788
0.745410	1.639820
0.745508	1.639828
0.745605	1.639891
0.745703	1.639797
0.745801	1.639863
0.745898	1.639822
0.745996	1.639877
0.746094	1.639866
0.746191	1.639877
0.746289	1.639785
0.746387	1.639871
0.746484	1.639863
0.746582	1.639952
0.746680	1.639913
0.746777	1.639879
0.746875	1.639875
0.746973	1.639858
0.747070	1.639920
0.747168	1.639906
0.747266	1.639839
0.747363	1.639929
0.747461	1.639868
0.747559	1.639880
0.747656	1.639881
0.747754	1.639864
0.747852	1.639902
0.747949	1.639862
0.748047	1.639794
0.748145	1.639872
0.748242	1.639817
0.748340	1.639817
0.748437	1.639872
0.748535	1.639900
0.748633	1.639770
0.748730	1.639862
0.748828	1.639742
0.748926	1.639799
0.749023	1.639794
0.749121	1.639799
0.749219	1.639777
0.749316	1.639796
0.749414	1.639760
0.749512	1.639777
0.749609	1.639768
0.749707	1.639804
0.749805	1.639864
0.749902	1.639833
0.750000	1.639830
0.750098	1.639845
0.750195	1.639844
0.750293	1.639725
0.750391	1.639830
0.750488	1.639805
0.750586	1.639771
0.750684	1.639822
0.750781	1.639667
0.750879	1.639776
0.750977	1.639673
0.751074	1.639598
0.751172	1.639651
0.751270	1.639733
0.751367	1.639738
0.751465	1.639785
0.751562	1.639720
0.751660	1.639704
0.751758	1.639757
0.751855	1.639635
0.751953	1.639697
0.752051	1.639733
0.752148	1.639633
0.752246	1.639619
0.752344	1.639639
0.752441	1.639619
0.752539	1.639683
0.752637	1.639679
0.752734	1.639621
0.752832	1.639605
0.752930	1.639567
0.753027	1.639573
0.753125	1.639534
0.753223	1.639589
0.753320	1.639497
0.753418	1.639506
0.753516	1.639429
0.753613	1.639335
0.753711	1.639420
0.753809	1.639493
0.753906	1.639438
0.754004	1.639467
0.754102	1.639472
0.754199	1.639443
0.754297	1.639401
0.754395	1.639500
0.754492	1.639419
0.754590	1.639429
0.754687	1.639346
0.754785	1.639372
0.754883	1.639413
0.754980	1.639353
0.755078	1.639346
0.755176	1.639337
0.755273	1.639354
0.755371	1.639346
0.755469	1.639380
0.755566	1.639328
0.755664	1.639356
0.755762	1.639323
0.755859	1.639348
0.755957	1.639348
0.756055	1.639307
0.756152	1.639357
0.756250	1.639281
0.756348	1.639379
0.756445	1.639359
0.756543	1.639378
0.756641	1.639332
0.756738	1.639382
0.756836	1.639363
0.756934	1.639314
0.757031	1.639343
0.757129	1.639446
0.757227	1.639375
0.757324	1.639428
0.757422	1.639417
0.757520	1.639396
0.757617	1.639373
0.757715	1.639417
0.757812	1.639410
0.757910	1.639412
0.758008	1.639390
0.758105	1.639446
0.758203	1.639414
0.758301	1.639428
0.758398	1.639470
0.758496	1.639492
0.758594	1.639507
0.758691	1.639515
0.758789	1.639460
0.758887	1.639508
0.758984	1.639492
0.759082	1.639515
0.759180	1.639461
0.759277	1.639499
0.759375	1.639534
0.759473	1.639549
0.759570	1.639525
0.759668	1.639545
0.759766	1.639555
0.759863	1.639637
0.759961	1.639578
0.760059	1.639592
0.760156	1.639651
0.760254	1.639647
0.760352	1.639650
0.760449	1.639634
0.760547	1.639670
0.760645	1.639731
0.760742	1.639590
0.760840	1.639635
0.760937	1.639590
0.761035	1.639594
0.761133	1.639560
0.761230	1.639653
0.761328	1.639631
0.761426	1.639688
0.761523	1.639594
0.761621	1.639655
0.761719	1.639606
0.761816	1.639626
0.761914	1.639547
0.762012	1.639600
0.762109	1.639614
0.762207	1.639600
0.762305	1.639540
0.762402	1.639525
0.762500	1.639570
0.762598	1.639481
0.762695	1.639515
0.762793	1.639540
0.762891	1.639584
0.762988	1.639502
0.763086	1.639487
0.763184	1.639462
0.763281	1.639511
0.763379	1.639493
0.763477	1.639454
0.763574	1.639425
0.763672	1.639322
0.763770	1.639450
0.763867	1.639379
0.763965	1.639361
0.764062	1.639407
0.764160	1.639417
0.764258	1.639389
0.764355	1.639430
0.764453	1.639457
0.764551	1.639378
0.764648	1.639343
0.764746	1.639412
0.764844	1.639417
0.764941	1.639411
0.765039	1.639389
0.765137	1.639419
0.765234	1.639493
0.765332	1.639442
0.765430	1.639446
0.765527	1.639398
0.765625	1.639418
0.765723	1.639561
0.765820	1.639457
0.765918	1.639479
0.766016	1.639536
0.766113	1.639491
0.766211	1.639493
0.766309	1.639479
0.766406	1.639442
0.766504	1.639602
0.766602	1.639523
0.766699	1.639529
0.766797	1.639563
0.766895	1.639580
0.766992	1.639503
0.767090	1.639589
0.767187	1.639495
0.767285	1.639509
0.767383	1.639567
0.767480	1.639501
0.767578	1.639542
0.767676	1.639536
0.767773	1.639583
0.767871	1.639502
0.767969	1.639572
0.768066	1.639559
0.768164	1.639562
0.768262	1.639537
0.768359	1.639541
0.768457	1.639481
0.768555	1.639515
0.768652	1.639504
0.768750	1.639511
0.768848	1.639526
0.768945	1.639482
0.769043	1.639481
0.769141	1.639463
0.769238	1.639504
0.769336	1.639443
0.769434	1.639541
0.769531	1.639462
0.769629	1.639492
0.769727	1.639487
0.769824	1.639483
0.769922	1.639533
0.770020	1.639539
0.770117	1.639500
0.770215	1.639653
0.770312	1.639615
0.770410	1.639612
0.770508	1.639642
0.770605	1.639597
0.770703	1.639548
0.770801	1.639547
0.770898	1.639468
0.770996	1.639428
0.771094	1.639589
0.771191	1.639471
0.771289	1.639575
0.771387	1.639499
0.771484	1.639554
0.771582	1.639540
0.771680	1.639529
0.771777	1.639548
0.771875	1.639482
0.771973	1.639569
0.772070	1.639479
0.772168	1.639550
0.772266	1.639528
0.772363	1.639431
0.772461	1.639517
0.772559	1.639476
0.772656	1.639499
0.772754	1.639548
0.772852	1.639533
0.772949	1.639503
0.773047	1.639481
0.773145	1.639468
0.773242	1.639526
0.773340	1.639435
0.773437	1.639478
0.773535	1.639443
0.773633	1.639363
0.773730	1.639421
0.773828	1.639463
0.773926	1.639465
0.774023	1.639457
0.774121	1.639435
0.774219	1.639512
0.774316	1.639425
0.774414	1.639519
0.774512	1.639425
0.774609	1.639438
0.774707	1.639538
0.774805	1.639452
0.774902	1.639550
0.775000	1.639471
0.775098	1.639586
0.775195	1.639509
0.775293	1.639498
0.775391	1.639476
0.775488	1.639443
0.775586	1.639474
0.775684	1.639522
0.775781	1.639493
0.775879	1.639427
0.775977	1.639464
0.776074	1.639491
0.776172	1.639529
0.776270	1.639478
0.776367	1.639471
0.776465	1.639450
0.776562	1.639456
0.776660	1.639419
0.776758	1.639451
0.776855	1.639476
0.776953	1.639471
0.777051	1.639484
0.777148	1.639471
0.777246	1.639567
0.777344	1.639458
0.777441	1.639519
0.777539	1.639467
0.777637	1.639453
0.777734	1.639482
0.777832	1.639433
0.777930	1.639450
0.778027	1.639461
0.778125	1.639379
0.778223	1.639461
0.778320	1.639401
0.778418	1.639440
0.778516	1.639461
0.778613	1.639467
0.778711	1.639430
0.778809	1.639385
0.778906	1.639412
0.779004	1.639363
0.779102	1.639471
0.779199	1.639419
0.779297	1.639326
0.779395	1.639395
0.779492	1.639431
0.779590	1.639415
0.779687	1.639414
0.779785	1.639513
0.779883	1.639414
0.779980	1.639419
0.780078	1.639461
0.780176	1.639399
0.780273	1.639462
0.780371	1.639488
0.780469	1.639432
0.780566	1.639485
0.780664	1.639411
0.780762	1.639395
0.780859	1.639380
0.780957	1.639333
0.781055	1.639397
0.781152	1.639422
0.781250	1.639392
0.781348	1.639475
0.781445	1.639454
0.781543	1.639444
0.781641	1.639363
0.781738	1.639305
0.781836	1.639342
0.781934	1.639353
0.782031	1.639306
0.782129	1.639326
0.782227	1.639306
0.782324	1.639321
0.782422	1.639376
0.782520	1.639286
0.782617	1.639340
0.782715	1.639343
0.782812	1.639335
0.782910	1.639285
0.783008	1.639262
0.783105	1.639241
0.783203	1.639201
0.783301	1.639298
0.783398	1.639222
0.783496	1.639248
0.783594	1.639163
0.783691	1.639218
0.783789	1.639215
0.783887	1.639259
0.783984	1.639280
0.784082	1.639276
0.784180	1.639249
0.784277	1.639237
0.784375	1.639289
0.784473	1.639282
0.784570	1.639276
0.784668	1.639274
0.784766	1.639284
0.784863	1.639331
0.784961	1.639276
0.785059	1.639303
0.785156	1.639302
0.785254	1.639339
0.785352	1.639335
0.785449	1.639287
0.785547	1.639310
0.785645	1.639391
0.785742	1.639265
0.785840	1.639310
0.785937	1.639304
0.786035	1.639309
0.786133	1.639273
0.786230	1.639398
0.786328	1.639302
0.786426	1.639347
0.786523	1.639410
0.786621	1.639436
0.786719	1.639377
0.786816	1.639391
0.786914	1.639331
0.787012	1.639356
0.787109	1.639431
0.787207	1.639339
0.787305	1.639330
0.787402	1.639378
0.787500	1.639362
0.787598	1.639349
0.787695	1.639331
0.787793	1.639322
0.787891	1.639349
0.787988	1.639308
0.788086	1.639346
0.788184	1.639313
0.788281	1.639327
0.788379	1.639404
0.788477	1.639324
0.788574	1.639301
0.788672	1.639331
0.788770	1.639334
0.788867	1.639356
0.788965	1.639352
0.789062	1.639346
0.789160	1.639304
0.789258	1.639301
0.789355	1.639292
0.789453	1.639282
0.789551	1.639270
0.789648	1.639290
0.789746	1.639230
0.789844	1.639281
0.789941	1.639238
0.790039	1.639323
0.790137	1.639291
0.790234	1.639286
0.790332	1.639324
0.790430	1.639401
0.790527	1.639278
0.790625	1.639326
0.790723	1.639262
0.790820	1.639302
0.790918	1.639193
0.791016	1.639190
0.791113	1.639177
0.791211	1.639257
0.791309	1.639187
0.791406	1.639249
0.791504	1.639239
0.791602	1.639238
0.791699	1.639214
0.791797	1.639252
0.791895	1.639274
0.791992	1.639255
0.792090	1.639257
0.792187	1.639238
0.792285	1.639272
0.792383	1.639311
0.792480	1.639314
0.792578	1.639276
0.792676	1.639234
0.792773	1.639216
0.792871	1.639277
0.792969	1.639215
0.793066	1.639298
0.793164	1.639155
0.793262	1.639319
0.793359	1.639250
0.793457	1.639300
0.793555	1.639174
0.793652	1.639133
0.793750	1.639207
0.793848	1.639230
0.793945	1.639235
0.794043	1.639274
0.794141	1.639252
0.794238	1.639226
0.794336	1.639299
0.794434	1.639162
0.794531	1.639250
0.794629	1.639337
0.794727	1.639305
0.794824	1.639316
0.794922	1.639319
0.795020	1.639241
0.795117	1.639344
0.795215	1.639202
0.795312	1.639224
0.795410	1.639226
0.795508	1.639224
0.795605	1.639240
0.795703	1.639246
0.795801	1.639281
0.795898	1.639280
0.795996	1.639296
0.796094	1.639287
0.796191	1.639241
0.796289	1.639278
0.796387	1.639200
0.796484	1.639234
0.796582	1.639193
0.796680	1.639218
0.796777	1.639210
0.796875	1.639215
0.796973	1.639171
0.797070	1.639242
0.797168	1.639198
0.797266	1.639249
0.797363	1.639260
0.797461	1.639208
0.797559	1.639304
0.797656	1.639225
0.797754	1.639173
0.797852	1.639255
0.797949	1.639254
0.798047	1.639187
0.798145	1.639186
0.798242	1.639194
0.798340	1.639155
0.798437	1.639227
0.798535	1.639230
0.798633	1.639237
0.798730	1.639147
0.798828	1.639099
0.798926	1.639162
0.799023	1.639072
0.799121	1.639204
0.799219	1.639108
0.799316	1.639130
0.799414	1.639041
0.799512	1.639064
0.799609	1.639110
0.799707	1.639121
0.799805	1.639129
0.799902	1.639116
0.800000	1.639099
0.800098	1.639141
0.800195	1.639147
0.800293	1.639086
0.800391	1.639168
0.800488	1.639160
0.800586	1.639103
0.800684	1.639100
0.800781	1.639121
0.800879	1.639105
0.800977	1.639029
0.801074	1.638982
0.801172	1.639033
0.801270	1.639107
0.801367	1.639064
0.801465	1.639085
0.801562	1.639043
0.801660	1.639073
0.801758	1.639113
0.801855	1.639034
0.801953	1.639069
0.802051	1.639103
0.802148	1.639082
0.802246	1.639050
0.802344	1.639017
0.802441	1.639040
0.802539	1.639047
0.802637	1.638955
0.802734	1.638991
0.802832	1.638980
0.802930	1.638933
0.803027	1.638957
0.803125	1.638908
0.803223	1.638978
0.803320	1.638882
0.803418	1.638971
0.803516	1.638878
0.803613	1.638797
0.803711	1.638811
0.803809	1.638869
0.803906	1.638897
0.804004	1.638869
0.804102	1.638889
0.804199	1.638851
0.804297	1.638926
0.804395	1.638873
0.804492	1.638811
0.804590	1.638872
0.804687	1.638795
0.804785	1.638812
0.804883	1.638839
0.804980	1.638864
0.805078	1.638744
0.805176	1.638815
0.805273	1.638807
0.805371	1.638798
0.805469	1.638868
0.805566	1.638793
0.805664	1.638809
0.805762	1.638930
0.805859	1.638745
0.805957	1.638906
0.806055	1.638789
0.806152	1.638825
0.806250	1.638806
0.806348	1.638802
0.806445	1.638770
0.806543	1.638837
0.806641	1.638834
0.806738	1.638865
0.806836	1.638856
0.806934	1.638903
0.807031	1.638819
0.807129	1.638844
0.807227	1.638826
0.807324	1.638813
0.807422	1.638846
0.807520	1.638822
0.807617	1.638900
0.807715	1.638842
0.807812	1.638818
0.807910	1.638874
0.808008	1.638889
0.808105	1.638886
0.808203	1.638895
0.808301	1.638866
0.808398	1.638916
0.808496	1.638889
0.808594	1.638899
0.808691	1.638929
0.808789	1.638758
0.808887	1.638845
0.808984	1.638867
0.809082	1.638875
0.809180	1.638941
0.809277	1.638989
0.809375	1.638985
0.809473	1.638978
0.809570	1.638916
0.809668	1.638892
0.809766	1.638930
0.809863	1.638935
0.809961	1.639022
0.810059	1.639035
0.810156	1.639025
0.810254	1.639055
0.810352	1.639011
0.810449	1.639046
0.810547	1.639050
0.810645	1.639049
0.810742	1.638991
0.810840	1.639054
0.810937	1.639007
0.811035	1.638924
0.811133	1.639011
0.811230	1.639017
0.811328	1.639033
0.811426	1.639056
0.811523	1.639064
0.811621	1.639007
0.811719	1.639071
0.811816	1.639011
0.811914	1.639037
0.812012	1.639029
0.812109	1.639037
0.812207	1.639089
0.812305	1.639021
0.812402	1.639079
0.812500	1.639058
0.812598	1.639016
0.812695	1.639058
0.812793	1.639049
0.812891	1.639079
0.812988	1.639055
0.813086	1.639083
0.813184	1.639079
0.813281	1.639028
0.813379	1.639099
0.813477	1.638972
0.813574	1.638996
0.813672	1.638988
0.813770	1.639078
0.813867	1.639108
0.813965	1.639124
0.814062	1.639048
0.814160	1.639157
0.814258	1.639128
0.814355	1.639165
0.814453	1.639079
0.814551	1.639071
0.814648	1.639163
0.814746	1.639206
0.814844	1.639215
0.814941	1.639213
0.815039	1.639126
0.815137	1.639181
0.815234	1.639207
0.815332	1.639169
0.815430	1.639116
0.815527	1.639118
0.815625	1.639159
0.815723	1.639130
0.815820	1.639224
0.815918	1.639195
0.816016	1.639270
0.816113	1.639156
0.816211	1.639223
0.816309	1.639210
0.816406	1.639197
0.816504	1.639254
0.816602	1.639243
0.816699	1.639212
0.816797	1.639196
0.816895	1.639198
0.816992	1.639164
0.817090	1.639174
0.817187	1.639227
0.817285	1.639196
0.817383	1.639176
0.817480	1.639188
0.817578	1.639069
0.817676	1.639218
0.817773	1.639168
0.817871	1.639158
0.817969	1.639223
0.818066	1.639163
0.818164	1.639113
0.818262	1.639137
0.818359	1.639145
0.818457	1.639150
0.818555	1.639092
0.818652	1.639155
0.818750	1.639102
0.818848	1.639125
0.818945	1.639097
0.819043	1.639053
0.819141	1.639118
0.819238	1.639019
0.819336	1.639049
0.819434	1.639093
0.819531	1.639100
0.819629	1.639127
0.819727	1.639076
0.819824	1.639084
0.819922	1.639032
0.820020	1.639126
0.820117	1.639114
0.820215	1.639102
0.820312	1.639136
0.820410	1.639147
0.820508	1.639193
0.820605	1.639134
0.820703	1.639150
0.820801	1.639021
0.820898	1.639030
0.820996	1.639058
0.821094	1.639017
0.821191	1.639074
0.821289	1.639039
0.821387	1.639046
0.821484	1.639149
0.821582	1.639051
0.821680	1.639126
0.821777	1.639069
0.821875	1.639155
0.821973	1.639037
0.822070	1.639115
0.822168	1.639075
0.822266	1.639075
0.822363	1.639101
0.822461	1.639107
0.822559	1.639079
0.822656	1.639102
0.822754	1.639121
0.822852	1.639013
0.822949	1.639070
0.823047	1.639117
0.823145	1.639117
0.823242	1.639039
0.823340	1.639091
0.823437	1.639064
0.823535	1.638987
0.823633	1.638820
0.823730	1.638958
0.823828	1.638979
0.823926	1.639057
0.824023	1.639033
0.824121	1.639084
0.824219	1.639035
0.824316	1.639041
0.824414	1.638979
0.824512	1.638957
0.824609	1.639018
0.824707	1.639023
0.824805	1.639058
0.824902	1.639028
0.825000	1.639039
0.825098	1.639030
0.825195	1.639035
0.825293	1.639036
0.825391	1.638983
0.825488	1.639090
0.825586	1.639056
0.825684	1.639055
0.825781	1.639066
0.825879	1.639132
0.825977	1.639024
0.826074	1.639021
0.826172	1.639083
0.826270	1.639121
0.826367	1.639040
0.826465	1.639083
0.826562	1.638989
0.826660	1.639042
0.826758	1.639093
0.826855	1.639121
0.826953	1.639135
0.827051	1.639111
0.827148	1.639099
0.827246	1.639094
0.827344	1.639045
0.827441	1.639097
0.827539	1.639126
0.827637	1.639105
0.827734	1.639142
0.827832	1.639121
0.827930	1.639123
0.828027	1.639114
0.828125	1.639051
0.828223	1.639176
0.828320	1.639059
0.828418	1.639144
0.828516	1.639158
0.828613	1.639136
0.828711	1.639146
0.828809	1.639150
0.828906	1.639147
0.829004	1.639171
0.829102	1.639182
0.829199	1.639155
0.829297	1.639176
0.829395	1.639222
0.829492	1.639151
0.829590	1.639155
0.829687	1.639222
0.829785	1.639155
0.829883	1.639270
0.829980	1.639273
0.830078	1.639249
0.830176	1.639253
0.830273	1.639307
0.830371	1.639207
0.830469	1.639310
0.830566	1.639272
0.830664	1.639302
0.830762	1.639229
0.830859	1.639240
0.830957	1.639251
0.831055	1.639210
0.831152	1.639281
0.831250	1.639214
0.831348	1.639276
0.831445	1.639243
0.831543	1.639328
0.831641	1.639235
0.831738	1.639191
0.831836	1.639241
0.831934	1.639174
0.832031	1.639179
0.832129	1.639174
0.832227	1.639285
0.832324	1.639266
0.832422	1.639313
0.832520	1.639248
0.832617	1.639209
0.832715	1.639226
0.832812	1.639212
0.832910	1.639146
0.833008	1.639235
0.833105	1.639147
0.833203	1.639219
0.833301	1.639115
0.833398	1.639146
0.833496	1.639119
0.833594	1.639092
0.833691	1.639039
0.833789	1.639163
0.833887	1.639159
0.833984	1.639216
0.834082	1.639150
0.834180	1.639253
0.834277	1.639138
0.834375	1.639218
0.834473	1.639201
0.834570	1.639189
0.834668	1.639207
0.834766	1.639207
0.834863	1.639172
0.834961	1.639259
0.835059	1.639157
0.835156	1.639231
0.835254	1.639230
0.835352	1.639220
0.835449	1.639218
0.835547	1.639249
0.835645	1.639168
0.835742	1.639230
0.835840	1.639219
0.835937	1.639195
0.836035	1.639296
0.836133	1.639220
0.836230	1.639305
0.836328	1.639327
0.836426	1.639201
0.836523	1.639335
0.836621	1.639287
0.836719	1.639293
0.836816	1.639291
0.836914	1.639301
0.837012	1.639268
0.837109	1.639300
0.837207	1.639336
0.837305	1.639321
0.837402	1.639384
0.837500	1.639345
0.837598	1.639376
0.837695	1.639344
0.837793	1.639302
0.837891	1.639327
0.837988	1.639435
0.838086	1.639387
0.838184	1.639354
0.838281	1.639288
0.838379	1.639402
0.838477	1.639312
0.838574	1.639304
0.838672	1.639293
0.838770	1.639406
0.838867	1.639423
0.838965	1.639421
0.839062	1.639425
0.839160	1.639332
0.839258	1.639410
0.839355	1.639377
0.839453	1.639406
0.839551	1.639413
0.839648	1.639412
0.839746	1.639359
0.839844	1.639420
0.839941	1.639351
0.840039	1.639432
0.840137	1.639385
0.840234	1.639456
0.840332	1.639485
0.840430	1.639418
0.840527	1.639488
0.840625	1.639417
0.840723	1.639357
0.840820	1.639368
0.840918	1.639375
0.841016	1.639349
0.841113	1.639276
0.841211	1.639394
0.841309	1.639403
0.841406	1.639445
0.841504	1.639409
0.841602	1.639364
0.841699	1.639338
0.841797	1.639421
0.841895	1.639429
0.841992	1.639381
0.842090	1.639370
0.842187	1.639447
0.842285	1.639446
0.842383	1.639425
0.842480	1.639382
0.842578	1.639398
0.842676	1.639431
0.842773	1.639430
0.842871	1.639415
0.842969	1.639451
0.843066	1.639428
0.843164	1.639395
0.843262	1.639511
0.843359	1.639396
0.843457	1.639410
0.843555	1.639421
0.843652	1.639237
0.843750	1.639447
0.843848	1.639395
0.843945	1.639567
0.844043	1.639478
0.844141	1.639417
0.844238	1.639509
0.844336	1.639495
0.844434	1.639434
0.844531	1.639441
0.844629	1.639489
0.844727	1.639499
0.844824	1.639449
0.844922	1.639533
0.845020	1.639476
0.845117	1.639479
0.845215	1.639482
0.845312	1.639486
0.845410	1.639529
0.845508	1.639544
0.845605	1.639512
0.845703	1.639568
0.845801	1.639516
0.845898	1.639593
0.845996	1.639576
0.846094	1.639597
0.846191	1.639565
0.846289	1.639661
0.846387	1.639610
0.846484	1.639595
0.846582	1.639637
0.846680	1.639628
0.846777	1.639519
0.846875	1.639606
0.846973	1.639580
0.847070	1.639647
0.847168	1.639651
0.847266	1.639571
0.847363	1.639582
0.847461	1.639597
0.847559	1.639583
0.847656	1.639633
0.847754	1.639561
0.847852	1.639562
0.847949	1.639578
0.848047	1.639611
0.848145	1.639600
0.848242	1.639583
0.848340	1.639549
0.848437	1.639617
0.848535	1.639542
0.848633	1.639587
0.848730	1.639536
0.848828	1.639558
0.848926	1.639493
0.849023	1.639510
0.849121	1.639551
0.849219	1.639492
0.849316	1.639493
0.849414	1.639523
0.849512	1.639462
0.849609	1.639482
0.849707	1.639496
0.849805	1.639486
0.849902	1.639564
0.850000	1.639538
0.850098	1.639543
0.850195	1.639488
0.850293	1.639529
0.850391	1.639497
0.850488	1.639504
0.850586	1.639600
0.850684	1.639525
0.850781	1.639420
0.850879	1.639506
0.850977	1.639442
0.851074	1.639439
0.851172	1.639432
0.851270	1.639521
0.851367	1.639475
0.851465	1.639495
0.851562	1.639482
0.851660	1.639474
0.851758	1.639420
0.851855	1.639453
0.851953	1.639488
0.852051	1.639428
0.852148	1.639421
0.852246	1.639408
0.852344	1.639354
0.852441	1.639409
0.852539	1.639418
0.852637	1.639430
0.852734	1.639409
0.852832	1.639415
0.852930	1.639403
0.853027	1.639337
0.853125	1.639362
0.853223	1.639376
0.853320	1.639354
0.853418	1.639328
0.853516	1.639300
0.853613	1.639211
0.853711	1.639297
0.853809	1.639263
0.853906	1.639346
0.854004	1.639274
0.854102	1.639321
0.854199	1.639363
0.854297	1.639323
0.854395	1.639399
0.854492	1.639402
0.854590	1.639316
0.854687	1.639348
0.854785	1.639318
0.854883	1.639344
0.854980	1.639335
0.855078	1.639410
0.855176	1.639302
0.855273	1.639361
0.855371	1.639383
0.855469	1.639396
0.855566	1.639363
0.855664	1.639368
0.855762	1.639413
0.855859	1.639390
0.855957	1.639459
0.856055	1.639442
0.856152	1.639473
0.856250	1.639477
0.856348	1.639465
0.856445	1.639473
0.856543	1.639429
0.856641	1.639451
0.856738	1.639482
0.856836	1.639428
0.856934	1.639532
0.857031	1.639453
0.857129	1.639468
0.857227	1.639471
0.857324	1.639541
0.857422	1.639532
0.857520	1.639486
0.857617	1.639488
0.857715	1.639517
0.857812	1.639528
0.857910	1.639578
0.858008	1.639577
0.858105	1.639551
0.858203	1.639434
0.858301	1.639525
0.858398	1.639507
0.858496	1.639485
0.858594	1.639494
0.858691	1.639538
0.858789	1.639464
0.858887	1.639456
0.858984	1.639436
0.859082	1.639441
0.859180	1.639439
0.859277	1.639432
0.859375	1.639440
0.859473	1.639411
0.859570	1.639470
0.859668	1.639406
0.859766	1.639454
0.859863	1.639448
0.859961	1.639423
0.860059	1.639461
0.860156	1.639484
0.860254	1.639548
0.860352	1.639479
0.860449	1.639467
0.860547	1.639431
0.860645	1.639473
0.860742	1.639424
0.860840	1.639410
0.860937	1.639409
0.861035	1.639368
0.861133	1.639363
0.861230	1.639379
0.861328	1.639388
0.861426	1.639436
0.861523	1.639398
0.861621	1.639368
0.861719	1.639383
0.861816	1.639351
0.861914	1.639483
0.862012	1.639359
0.862109	1.639418
0.862207	1.639421
0.862305	1.639381
0.862402	1.639398
0.862500	1.639342
0.862598	1.639389
0.862695	1.639394
0.862793	1.639448
0.862891	1.639345
0.862988	1.639326
0.863086	1.639322
0.863184	1.639331
0.863281	1.639396
0.863379	1.639277
0.863477	1.639342
0.863574	1.639299
0.863672	1.639255
0.863770	1.639330
0.863867	1.639341
0.863965	1.639433
0.864062	1.639309
0.864160	1.639359
0.864258	1.639403
0.864355	1.639349
0.864453	1.639419
0.864551	1.639386
0.864648	1.639405
0.864746	1.639383
0.864844	1.639413
0.864941	1.639404
0.865039	1.639376
0.865137	1.639467
0.865234	1.639339
0.865332	1.639509
0.865430	1.639418
0.865527	1.639417
0.865625	1.639450
0.865723	1.639382
0.865820	1.639426
0.865918	1.639432
0.866016	1.639355
0.866113	1.639459
0.866211	1.639422
0.866309	1.639443
0.866406	1.639359
0.866504	1.639465
0.866602	1.639410
0.866699	1.639453
0.866797	1.639456
0.866895	1.639428
0.866992	1.639370
0.867090	1.639296
0.867187	1.639378
0.867285	1.639298
0.867383	1.639338
0.867480	1.639334
0.867578	1.639348
0.867676	1.639366
0.867773	1.639371
0.867871	1.639333
0.867969	1.639319
0.868066	1.639356
0.868164	1.639347
0.868262	1.639337
0.868359	1.639296
0.868457	1.639349
0.868555	1.639345
0.868652	1.639309
0.868750	1.639256
0.868848	1.639334
0.868945	1.639303
0.869043	1.639397
0.869141	1.639324
0.869238	1.639352
0.869336	1.639322
0.869434	1.639318
0.869531	1.639338
0.869629	1.639404
0.869727	1.639376
0.869824	1.639429
0.869922	1.639392
0.870020	1.639443
0.870117	1.639437
0.870215	1.639490
0.870312	1.639441
0.870410	1.639447
0.870508	1.639426
0.870605	1.639493
0.870703	1.639516
0.870801	1.639374
0.870898	1.639439
0.870996	1.639282
0.871094	1.639338
0.871191	1.639432
0.871289	1.639435
0.871387	1.639472
0.871484	1.639447
0.871582	1.639396
0.871680	1.639403
0.871777	1.639425
0.871875	1.639403
0.871973	1.639479
0.872070	1.639398
0.872168	1.639450
0.872266	1.639376
0.872363	1.639462
0.872461	1.639416
0.872559	1.639450
0.872656	1.639357
0.872754	1.639469
0.872852	1.639359
0.872949	1.639420
0.873047	1.639426
0.873145	1.639326
0.873242	1.639362
0.873340	1.639325
0.873437	1.639390
0.873535	1.639278
0.873633	1.639216
0.873730	1.639254
0.873828	1.639343
0.873926	1.639382
0.874023	1.639377
0.874121	1.639365
0.874219	1.639399
0.874316	1.639348
0.874414	1.639322
0.874512	1.639389
0.874609	1.639371
0.874707	1.639379
0.874805	1.639355
0.874902	1.639349
0.875000	1.639291
0.875098	1.639389
0.875195	1.639325
0.875293	1.639363
0.875391	1.639270
0.875488	1.639301
0.875586	1.639353
0.875684	1.639281
0.875781	1.639269
0.875879	1.639370
0.875977	1.639306
0.876074	1.639367
0.876172	1.639346
0.876270	1.639270
0.876367	1.639295
0.876465	1.639270
0.876562	1.639363
0.876660	1.639244
0.876758	1.639318
0.876855	1.639243
0.876953	1.639252
0.877051	1.639416
0.877148	1.639311
0.877246	1.639311
0.877344	1.639352
0.877441	1.639251
0.877539	1.639283
0.877637	1.639237
0.877734	1.639212
0.877832	1.639266
0.877930	1.639252
0.878027	1.639210
0.878125	1.639287
0.878223	1.639294
0.878320	1.639244
0.878418	1.639250
0.878516	1.639174
0.878613	1.639259
0.878711	1.639203
0.878809	1.639273
0.878906	1.639262
0.879004	1.639207
0.879102	1.639327
0.879199	1.639207
0.879297	1.639155
0.879395	1.639212
0.879492	1.639235
0.879590	1.639205
0.879687	1.639229
0.879785	1.639224
0.879883	1.639155
0.879980	1.639281
0.880078	1.639206
0.880176	1.639116
0.880273	1.639299
0.880371	1.639218
0.880469	1.639202
0.880566	1.639202
0.880664	1.639265
0.880762	1.639148
0.880859	1.639147
0.880957	1.639107
0.881055	1.639140
0.881152	1.639051
0.881250	1.639190
0.881348	1.639213
0.881445	1.639201
0.881543	1.639183
0.881641	1.639168
0.881738	1.639138
0.881836	1.639183
0.881934	1.639148
0.882031	1.639165
0.882129	1.639147
0.882227	1.639149
0.882324	1.639218
0.882422	1.639199
0.882520	1.639141
0.882617	1.639182
0.882715	1.639151
0.882812	1.639169
0.882910	1.639151
0.883008	1.639192
0.883105	1.639094
0.883203	1.639130
0.883301	1.639119
0.883398	1.639075
0.883496	1.639187
0.883594	1.638952
0.883691	1.639044
0.883789	1.639070
0.883887	1.639132
0.883984	1.639168
0.884082	1.639072
0.884180	1.639071
0.884277	1.639128
0.884375	1.639138
0.884473	1.639045
0.884570	1.639158
0.884668	1.639110
0.884766	1.639097
0.884863	1.639066
0.884961	1.639071
0.885059	1.639047
0.885156	1.639087
0.885254	1.639060
0.885352	1.639097
0.885449	1.639043
0.885547	1.639019
0.885645	1.639043
0.885742	1.638914
0.885840	1.638966
0.885937	1.638942
0.886035	1.638913
0.886133	1.638989
0.886230	1.639084
0.886328	1.638906
0.886426	1.639008
0.886523	1.638951
0.886621	1.639046
0.886719	1.638920
0.886816	1.639016
0.886914	1.638967
0.887012	1.638947
0.887109	1.638900
0.887207	1.638966
0.887305	1.638938
0.887402	1.638863
0.887500	1.638941
0.887598	1.638911
0.887695	1.638955
0.887793	1.638897
0.887891	1.638902
0.887988	1.638889
0.888086	1.638903
0.888184	1.638902
0.888281	1.638858
0.888379	1.638850
0.888477	1.638888
0.888574	1.638891
0.888672	1.638909
0.888770	1.638908
0.888867	1.638773
0.888965	1.638856
0.889062	1.638865
0.889160	1.638891
0.889258	1.638843
0.889355	1.638882
0.889453	1.638833
0.889551	1.638795
0.889648	1.638820
0.889746	1.638796
0.889844	1.638791
0.889941	1.638772
0.890039	1.638810
0.890137	1.638842
0.890234	1.638854
0.890332	1.638850
0.890430	1.638888
0.890527	1.638814
0.890625	1.638866
0.890723	1.638800
0.890820	1.638782
0.890918	1.638794
0.891016	1.638726
0.891113	1.638781
0.891211	1.638742
0.891309	1.638800
0.891406	1.638748
0.891504	1.638797
0.891602	1.638734
0.891699	1.638747
0.891797	1.638755
0.891895	1.638793
0.891992	1.638792
0.892090	1.638760
0.892187	1.638799
0.892285	1.638722
0.892383	1.638781
0.892480	1.638769
0.892578	1.638731
0.892676	1.638768
0.892773	1.638817
0.892871	1.638750
0.892969	1.638806
0.893066	1.638794
0.893164	1.638846
0.893262	1.638873
0.893359	1.638783
0.893457	1.638778
0.893555	1.638817
0.893652	1.638710
0.893750	1.638788
0.893848	1.638812
0.893945	1.638798
0.894043	1.638837
0.894141	1.638812
0.894238	1.638863
0.894336	1.638829
0.894434	1.638871
0.894531	1.638907
0.894629	1.638896
0.894727	1.638892
0.894824	1.638900
0.894922	1.638964
0.895020	1.638995
0.895117	1.638933
0.895215	1.638968
0.895312	1.639020
0.895410	1.638971
0.895508	1.638977
0.895605	1.638966
0.895703	1.639046
0.895801	1.638986
0.895898	1.639014
0.895996	1.639058
0.896094	1.639058
0.896191	1.639023
0.896289	1.639001
0.896387	1.639104
0.896484	1.639035
0.896582	1.639017
0.896680	1.638905
0.896777	1.639031
0.896875	1.639019
0.896973	1.639079
0.897070	1.639060
0.897168	1.639066
0.897266	1.639057
0.897363	1.639122
0.897461	1.639019
0.897559	1.639119
0.897656	1.639080
0.897754	1.639079
0.897852	1.639184
0.897949	1.639125
0.898047	1.639078
0.898145	1.639045
0.898242	1.639085
0.898340	1.639046
0.898437	1.639130
0.898535	1.639067
0.898633	1.639041
0.898730	1.639084
0.898828	1.639035
0.898926	1.638996
0.899023	1.639049
0.899121	1.639048
0.899219	1.638991
0.899316	1.638964
0.899414	1.638941
0.899512	1.639000
0.899609	1.639100
0.899707	1.639055
0.899805	1.639028
0.899902	1.639041
0.900000	1.639079
0.900098	1.639121
0.900195	1.639073
0.900293	1.639055
0.900391	1.639053
0.900488	1.638988
0.900586	1.639108
0.900684	1.638952
0.900781	1.638979
0.900879	1.638965
0.900977	1.638931
0.901074	1.638881
0.901172	1.638939
0.901270	1.638987
0.901367	1.638952
0.901465	1.639008
0.901562	1.638936
0.901660	1.639000
0.901758	1.638870
0.901855	1.638912
0.901953	1.638859
0.902051	1.638884
0.902148	1.638878
0.902246	1.638917
0.902344	1.638816
0.902441	1.638925
0.902539	1.638936
0.902637	1.638946
0.902734	1.639002
0.902832	1.638876
0.902930	1.638848
0.903027	1.638845
0.903125	1.638919
0.903223	1.638844
0.903320	1.638806
0.903418	1.638862
0.903516	1.638913
0.903613	1.638682
0.903711	1.638852
0.903809	1.638868
0.903906	1.638908
0.904004	1.638867
0.904102	1.638873
0.904199	1.638915
0.904297	1.638866
0.904395	1.638938
0.904492	1.638852
0.904590	1.638882
0.904687	1.638949
0.904785	1.638951
0.904883	1.638832
0.904980	1.638968
0.905078	1.638994
0.905176	1.638995
0.905273	1.638979
0.905371	1.639005
0.905469	1.639037
0.905566	1.639013
0.905664	1.638914
0.905762	1.639005
0.905859	1.638959
0.905957	1.639061
0.906055	1.639009
0.906152	1.639040
0.906250	1.639024
0.906348	1.639046
0.906445	1.639046
0.906543	1.639050
0.906641	1.639086
0.906738	1.639107
0.906836	1.639093
0.906934	1.639092
0.907031	1.639066
0.907129	1.639096
0.907227	1.639110
0.907324	1.638978
0.907422	1.639115
0.907520	1.639068
0.907617	1.639095
0.907715	1.639094
0.907812	1.639048
0.907910	1.639082
0.908008	1.639052
0.908105	1.639139
0.908203	1.639148
0.908301	1.639148
0.908398	1.639078
0.908496	1.639100
0.908594	1.639135
0.908691	1.639100
0.908789	1.639061
0.908887	1.639055
0.908984	1.639173
0.909082	1.639066
0.909180	1.639132
0.909277	1.639201
0.909375	1.639143
0.909473	1.639161
0.909570	1.639183
0.909668	1.639250
0.909766	1.639180
0.909863	1.639288
0.909961	1.639234
0.910059	1.639322
0.910156	1.639288
0.910254	1.639319
0.910352	1.639277
0.910449	1.639306
0.910547	1.639291
0.910645	1.639321
0.910742	1.639247
0.910840	1.639233
0.910937	1.639271
0.911035	1.639188
0.911133	1.639213
0.911230	1.639323
0.911328	1.639284
0.911426	1.639318
0.911523	1.639291
0.911621	1.639263
0.911719	1.639221
0.911816	1.639298
0.911914	1.639288
0.912012	1.639286
0.912109	1.639324
0.912207	1.639196
0.912305	1.639264
0.912402	1.639207
0.912500	1.639201
0.912598	1.639190
0.912695	1.639149
0.912793	1.639257
0.912891	1.639202
0.912988	1.639230
0.913086	1.639187
0.913184	1.639215
0.913281	1.639226
0.913379	1.639126
0.913477	1.639246
0.913574	1.639111
0.913672	1.639072
0.913770	1.639262
0.913867	1.639227
0.913965	1.639248
0.914062	1.639259
0.914160	1.639224
0.914258	1.639264
0.914355	1.639277
0.914453	1.639222
0.914551	1.639219
0.914648	1.639291
0.914746	1.639263
0.914844	1.639188
0.914941	1.639220
0.915039	1.639323
0.915137	1.639216
0.915234	1.639288
0.915332	1.639267
0.915430	1.639295
0.915527	1.639269
0.915625	1.639274
0.915723	1.639266
0.915820	1.639270
0.915918	1.639227
0.916016	1.639345
0.916113	1.639281
0.916211	1.639266
0.916309	1.639282
0.916406	1.639251
0.916504	1.639204
0.916602	1.639202
0.916699	1.639196
0.916797	1.639253
0.916895	1.639306
0.916992	1.639212
0.917090	1.639321
0.917187	1.639244
0.917285	1.639296
0.917383	1.639312
0.917480	1.639274
0.917578	1.639213
0.917676	1.639266
0.917773	1.639271
0.917871	1.639235
0.917969	1.639262
0.918066	1.639234
0.918164	1.639250
0.918262	1.639212
0.918359	1.639179
0.918457	1.639197
0.918555	1.639284
0.918652	1.639267
0.918750	1.639283
0.918848	1.639238
0.918945	1.639283
0.919043	1.639208
0.919141	1.639302
0.919238	1.639238
0.919336	1.639231
0.919434	1.639299
0.919531	1.639239
0.919629	1.639253
0.919727	1.639303
0.919824	1.639300
0.919922	1.639292
0.920020	1.639377
0.920117	1.639338
0.920215	1.639273
0.920312	1.639263
0.920410	1.639299
0.920508	1.639234
0.920605	1.639352
0.920703	1.639279
0.920801	1.639241
0.920898	1.639241
0.920996	1.639263
0.921094	1.639216
0.921191	1.639299
0.921289	1.639314
0.921387	1.639320
0.921484	1.639326
0.921582	1.639292
0.921680	1.639216
0.921777	1.639256
0.921875	1.639293
0.921973	1.639290
0.922070	1.639244
0.922168	1.639315
0.922266	1.639323
0.922363	1.639283
0.922461	1.639264
0.922559	1.639298
0.922656	1.639280
0.922754	1.639249
0.922852	1.639285
0.922949	1.639271
0.923047	1.639266
0.923145	1.639350
0.923242	1.639294
0.923340	1.639308
0.923437	1.639323
0.923535	1.639198
0.923633	1.639277
0.923730	1.639248
0.923828	1.639351
0.923926	1.639230
0.924023	1.639330
0.924121	1.639323
0.924219	1.639321
0.924316	1.639379
0.924414	1.639322
0.924512	1.639346
0.924609	1.639260
0.924707	1.639355
0.924805	1.639260
0.924902	1.639261
0.925000	1.639324
0.925098	1.639279
0.925195	1.639276
0.925293	1.639348
0.925391	1.639312
0.925488	1.639337
0.925586	1.639308
0.925684	1.639337
0.925781	1.639311
0.925879	1.639315
0.925977	1.639302
0.926074	1.639260
0.926172	1.639259
0.926270	1.639251
0.926367	1.639258
0.926465	1.639219
0.926562	1.639281
0.926660	1.639280
0.926758	1.639268
0.926855	1.639252
0.926953	1.639188
0.927051	1.639238
0.927148	1.639275
0.927246	1.639284
0.927344	1.639295
0.927441	1.639278
0.927539	1.639165
0.927637	1.639272
0.927734	1.639163
0.927832	1.639213
0.927930	1.639231
0.928027	1.639226
0.928125	1.639263
0.928223	1.639266
0.928320	1.639190
0.928418	1.639219
0.928516	1.639285
0.928613	1.639271
0.928711	1.639254
0.928809	1.639245
0.928906	1.639347
0.929004	1.639210
0.929102	1.639282
0.929199	1.639242
0.929297	1.639281
0.929395	1.639247
0.929492	1.639358
0.929590	1.639273
0.929687	1.639296
0.929785	1.639275
0.929883	1.639356
0.929980	1.639334
0.930078	1.639394
0.930176	1.639342
0.930273	1.639321
0.930371	1.639363
0.930469	1.639398
0.930566	1.639350
0.930664	1.639351
0.930762	1.639351
0.930859	1.639249
0.930957	1.639291
0.931055	1.639243
0.931152	1.639335
0.931250	1.639369
0.931348	1.639348
0.931445	1.639399
0.931543	1.639341
0.931641	1.639263
0.931738	1.639356
0.931836	1.639316
0.931934	1.639325
0.932031	1.639418
0.932129	1.639389
0.932227	1.639423
0.932324	1.639368
0.932422	1.639364
0.932520	1.639413
0.932617	1.639378
0.932715	1.639393
0.932812	1.639443
0.932910	1.639485
0.933008	1.639420
0.933105	1.639455
0.933203	1.639470
0.933301	1.639382
0.933398	1.639385
0.933496	1.639301
0.933594	1.639313
0.933691	1.639356
0.933789	1.639466
0.933887	1.639482
0.933984	1.639452
0.934082	1.639497
0.934180	1.639442
0.934277	1.639500
0.934375	1.639468
0.934473	1.639484
0.934570	1.639525
0.934668	1.639552
0.934766	1.639519
0.934863	1.639572
0.934961	1.639502
0.935059	1.639530
0.935156	1.639559
0.935254	1.639564
0.935352	1.639542
0.935449	1.639533
0.935547	1.639647
0.935645	1.639568
0.935742	1.639626
0.935840	1.639598
0.935937	1.639526
0.936035	1.639645
0.936133	1.639603
0.936230	1.639579
0.936328	1.639677
0.936426	1.639612
0.936523	1.639647
0.936621	1.639554
0.936719	1.639624
0.936816	1.639668
0.936914	1.639722
0.937012	1.639588
0.937109	1.639715
0.937207	1.639713
0.937305	1.639685
0.937402	1.639676
0.937500	1.639678
0.937598	1.639749
0.937695	1.639756
0.937793	1.639786
0.937891	1.639732
0.937988	1.639718
0.938086	1.639691
0.938184	1.639766
0.938281	1.639714
0.938379	1.639716
0.938477	1.639702
0.938574	1.639705
0.938672	1.639797
0.938770	1.639743
0.938867	1.639791
0.938965	1.639796
0.939062	1.639774
0.939160	1.639786
0.939258	1.639752
0.939355	1.639738
0.939453	1.639780
0.939551	1.639788
0.939648	1.639758
0.939746	1.639783
0.939844	1.639791
0.939941	1.639779
0.940039	1.639837
0.940137	1.639821
0.940234	1.639827
0.940332	1.639860
0.940430	1.639821
0.940527	1.639860
0.940625	1.639848
0.940723	1.639760
0.940820	1.639720
0.940918	1.639726
0.941016	1.639733
0.941113	1.639659
0.941211	1.639770
0.941309	1.639733
0.941406	1.639732
0.941504	1.639764
0.941602	1.639690
0.941699	1.639715
0.941797	1.639600
0.941895	1.639759
0.941992	1.639653
0.942090	1.639703
0.942187	1.639630
0.942285	1.639628
0.942383	1.639696
0.942480	1.639566
0.942578	1.639615
0.942676	1.639578
0.942773	1.639649
0.942871	1.639628
0.942969	1.639600
0.943066	1.639566
0.943164	1.639580
0.943262	1.639575
0.943359	1.639567
0.943457	1.639506
0.943555	1.639407
0.943652	1.639378
0.943750	1.639453
0.943848	1.639449
0.943945	1.639488
0.944043	1.639437
0.944141	1.639444
0.944238	1.639398
0.944336	1.639444
0.944434	1.639327
0.944531	1.639408
0.944629	1.639348
0.944727	1.639438
0.944824	1.639395
0.944922	1.639403
0.945020	1.639464
0.945117	1.639356
0.945215	1.639400
0.945312	1.639431
0.945410	1.639341
0.945508	1.639410
0.945605	1.639457
0.945703	1.639409
0.945801	1.639421
0.945898	1.639335
0.945996	1.639338
0.946094	1.639400
0.946191	1.639296
0.946289	1.639418
0.946387	1.639343
0.946484	1.639410
0.946582	1.639479
0.946680	1.639374
0.946777	1.639463
0.946875	1.639378
0.946973	1.639387
0.947070	1.639389
0.947168	1.639382
0.947266	1.639403
0.947363	1.639426
0.947461	1.639492
0.947559	1.639437
0.947656	1.639429
0.947754	1.639384
0.947852	1.639435
0.947949	1.639396
0.948047	1.639484
0.948145	1.639463
0.948242	1.639425
0.948340	1.639450
0.948437	1.639428
0.948535	1.639465
0.948633	1.639451
0.948730	1.639465
0.948828	1.639471
0.948926	1.639404
0.949023	1.639421
0.949121	1.639359
0.949219	1.639514
0.949316	1.639531
0.949414	1.639464
0.949512	1.639519
0.949609	1.639556
0.949707	1.639503
0.949805	1.639495
0.949902	1.639572
0.950000	1.639500
0.950098	1.639608
0.950195	1.639601
0.950293	1.639578
0.950391	1.639579
0.950488	1.639577
0.950586	1.639557
0.950684	1.639558
0.950781	1.639503
0.950879	1.639454
0.950977	1.639446
0.951074	1.639562
0.951172	1.639468
0.951270	1.639554
0.951367	1.639554
0.951465	1.639532
0.951562	1.639565
0.951660	1.639506
0.951758	1.639530
0.951855	1.639503
0.951953	1.639560
0.952051	1.639553
0.952148	1.639508
0.952246	1.639578
0.952344	1.639534
0.952441	1.639552
0.952539	1.639548
0.952637	1.639612
0.952734	1.639590
0.952832	1.639577
0.952930	1.639622
0.953027	1.639556
0.953125	1.639590
0.953223	1.639536
0.953320	1.639534
0.953418	1.639422
0.953516	1.639542
0.953613	1.639478
0.953711	1.639567
0.953809	1.639625
0.953906	1.639572
0.954004	1.639686
0.954102	1.639553
0.954199	1.639628
0.954297	1.639542
0.954395	1.639605
0.954492	1.639581
0.954590	1.639639
0.954687	1.639584
0.954785	1.639625
0.954883	1.639565
0.954980	1.639586
0.955078	1.639595
0.955176	1.639575
0.955273	1.639620
0.955371	1.639642
0.955469	1.639641
0.955566	1.639625
0.955664	1.639587
0.955762	1.639634
0.955859	1.639655
0.955957	1.639585
0.956055	1.639523
0.956152	1.639578
0.956250	1.639603
0.956348	1.639637
0.956445	1.639567
0.956543	1.639645
0.956641	1.639547
0.956738	1.639559
0.956836	1.639545
0.956934	1.639504
0.957031	1.639591
0.957129	1.639576
0.957227	1.639509
0.957324	1.639547
0.957422	1.639553
0.957520	1.639537
0.957617	1.639516
0.957715	1.639539
0.957812	1.639531
0.957910	1.639517
0.958008	1.639493
0.958105	1.639561
0.958203	1.639502
0.958301	1.639506
0.958398	1.639529
0.958496	1.639465
0.958594	1.639510
0.958691	1.639533
0.958789	1.639541
0.958887	1.639511
0.958984	1.639489
0.959082	1.639553
0.959180	1.639463
0.959277	1.639512
0.959375	1.639518
0.959473	1.639456
0.959570	1.639568
0.959668	1.639609
0.959766	1.639548
0.959863	1.639526
0.959961	1.639592
0.960059	1.639503
0.960156	1.639671
0.960254	1.639684
0.960352	1.639581
0.960449	1.639616
0.960547	1.639659
0.960645	1.639549
0.960742	1.639517
0.960840	1.639561
0.960937	1.639512
0.961035	1.639515
0.961133	1.639522
0.961230	1.639549
0.961328	1.639591
0.961426	1.639583
0.961523	1.639540
0.961621	1.639553
0.961719	1.639520
0.961816	1.639613
0.961914	1.639672
0.962012	1.639574
0.962109	1.639561
0.962207	1.639637
0.962305	1.639555
0.962402	1.639583
0.962500	1.639612
0.962598	1.639549
0.962695	1.639651
0.962793	1.639648
0.962891	1.639586
0.962988	1.639568
0.963086	1.639635
0.963184	1.639630
0.963281	1.639632
0.963379	1.639559
0.963477	1.639498
0.963574	1.639497
0.963672	1.639558
0.963770	1.639590
0.963867	1.639576
0.963965	1.639593
0.964062	1.639533
0.964160	1.639617
0.964258	1.639600
0.964355	1.639616
0.964453	1.639630
0.964551	1.639641
0.964648	1.639616
0.964746	1.639622
0.964844	1.639631
0.964941	1.639623
0.965039	1.639630
0.965137	1.639580
0.965234	1.639556
0.965332	1.639669
0.965430	1.639600
0.965527	1.639614
0.965625	1.639619
0.965723	1.639639
0.965820	1.639515
0.965918	1.639610
0.966016	1.639606
0.966113	1.639630
0.966211	1.639617
0.966309	1.639645
0.966406	1.639598
0.966504	1.639670
0.966602	1.639582
0.966699	1.639600
0.966797	1.639632
0.966895	1.639575
0.966992	1.639647
0.967090	1.639573
0.967187	1.639566
0.967285	1.639572
0.967383	1.639531
0.967480	1.639586
0.967578	1.639565
0.967676	1.639637
0.967773	1.639589
0.967871	1.639566
0.967969	1.639617
0.968066	1.639589
0.968164	1.639580
0.968262	1.639597
0.968359	1.639543
0.968457	1.639606
0.968555	1.639512
0.968652	1.639556
0.968750	1.639517
0.968848	1.639473
0.968945	1.639525
0.969043	1.639561
0.969141	1.639562
0.969238	1.639510
0.969336	1.639518
0.969434	1.639426
0.969531	1.639580
0.969629	1.639471
0.969727	1.639584
0.969824	1.639494
0.969922	1.639562
0.970020	1.639564
0.970117	1.639484
0.970215	1.639539
0.970312	1.639533
0.970410	1.639577
0.970508	1.639556
0.970605	1.639484
0.970703	1.639431
0.970801	1.639477
0.970898	1.639420
0.970996	1.639306
0.971094	1.639370
0.971191	1.639420
0.971289	1.639434
0.971387	1.639468
0.971484	1.639436
0.971582	1.639359
0.971680	1.639360
0.971777	1.639290
0.971875	1.639309
0.971973	1.639340
0.972070	1.639346
0.972168	1.639327
0.972266	1.639331
0.972363	1.639347
0.972461	1.639350
0.972559	1.639303
0.972656	1.639324
0.972754	1.639199
0.972852	1.639335
0.972949	1.639294
0.973047	1.639263
0.973145	1.639271
0.973242	1.639250
0.973340	1.639265
0.973437	1.639199
0.973535	1.639165
0.973633	1.639174
0.973730	1.639219
0.973828	1.639228
0.973926	1.639276
0.974023	1.639277
0.974121	1.639241
0.974219	1.639278
0.974316	1.639193
0.974414	1.639285
0.974512	1.639236
0.974609	1.639268
0.974707	1.639257
0.974805	1.639277
0.974902	1.639272
0.975000	1.639207
0.975098	1.639285
0.975195	1.639298
0.975293	1.639235
0.975391	1.639270
0.975488	1.639245
0.975586	1.639246
0.975684	1.639286
0.975781	1.639292
0.975879	1.639275
0.975977	1.639347
0.976074	1.639321
0.976172	1.639319
0.976270	1.639299
0.976367	1.639364
0.976465	1.639341

