LabVIEW Measurement	
Writer_Version	2
Reader_Version	2
Separator	Tab
Decimal_Separator	.
Multi_Headings	Yes
X_Columns	One
Time_Pref	Absolute
Operator	W-Tunnel
Date	1904/01/01
Time	01:00:00
***End_of_Header***	
	
Channels	1	
Samples	10000	
Date	2024/05/17	
Time	18:32:45.2267191562498950093	
Y_Unit_Label	Volts	
X_Dimension	Time	
X0	0.0000000000000000E+0	
Delta_X	9.765625E-5	
***End_of_Header***		
X_Value	Voltage	Comment
0.000000	1.497003
9.765625E-5	1.488760
0.000195	1.485049
0.000293	1.491480
0.000391	1.477747
0.000488	1.446659
0.000586	1.459406
0.000684	1.477117
0.000781	1.473230
0.000879	1.456588
0.000977	1.455026
0.001074	1.471516
0.001172	1.461182
0.001270	1.462755
0.001367	1.465766
0.001465	1.449489
0.001562	1.452473
0.001660	1.439471
0.001758	1.416591
0.001855	1.445417
0.001953	1.439586
0.002051	1.465026
0.002148	1.451248
0.002246	1.424961
0.002344	1.451368
0.002441	1.465740
0.002539	1.389919
0.002637	1.325848
0.002734	1.435567
0.002832	1.492645
0.002930	1.503616
0.003027	1.511724
0.003125	1.525016
0.003223	1.571167
0.003320	1.581805
0.003418	1.575847
0.003516	1.556007
0.003613	1.534761
0.003711	1.500462
0.003809	1.484997
0.003906	1.481299
0.004004	1.498596
0.004102	1.493787
0.004199	1.520103
0.004297	1.497261
0.004395	1.513891
0.004492	1.538395
0.004590	1.521710
0.004687	1.564333
0.004785	1.580036
0.004883	1.586586
0.004980	1.597230
0.005078	1.582130
0.005176	1.583921
0.005273	1.591472
0.005371	1.570438
0.005469	1.555410
0.005566	1.543370
0.005664	1.537288
0.005762	1.549851
0.005859	1.580958
0.005957	1.591993
0.006055	1.588660
0.006152	1.575954
0.006250	1.586487
0.006348	1.597643
0.006445	1.590142
0.006543	1.567894
0.006641	1.588151
0.006738	1.611646
0.006836	1.561356
0.006934	1.511168
0.007031	1.501457
0.007129	1.521842
0.007227	1.491330
0.007324	1.462836
0.007422	1.471673
0.007520	1.516549
0.007617	1.529642
0.007715	1.505413
0.007812	1.512829
0.007910	1.523288
0.008008	1.507298
0.008105	1.504362
0.008203	1.518305
0.008301	1.536941
0.008398	1.509015
0.008496	1.472481
0.008594	1.458960
0.008691	1.468053
0.008789	1.438155
0.008887	1.426310
0.008984	1.447016
0.009082	1.481059
0.009180	1.502476
0.009277	1.498464
0.009375	1.500353
0.009473	1.494384
0.009570	1.428004
0.009668	1.334404
0.009766	1.282681
0.009863	1.330109
0.009961	1.354022
0.010059	1.352751
0.010156	1.318507
0.010254	1.291870
0.010352	1.290752
0.010449	1.283521
0.010547	1.280772
0.010645	1.298137
0.010742	1.330140
0.010840	1.360667
0.010937	1.396423
0.011035	1.416501
0.011133	1.403588
0.011230	1.389084
0.011328	1.381705
0.011426	1.378447
0.011523	1.388455
0.011621	1.409702
0.011719	1.421968
0.011816	1.426500
0.011914	1.430994
0.012012	1.440417
0.012109	1.447077
0.012207	1.443102
0.012305	1.431556
0.012402	1.429864
0.012500	1.436653
0.012598	1.450341
0.012695	1.461813
0.012793	1.466491
0.012891	1.474652
0.012988	1.489544
0.013086	1.487142
0.013184	1.498121
0.013281	1.481859
0.013379	1.519030
0.013477	1.549850
0.013574	1.516355
0.013672	1.524905
0.013770	1.574383
0.013867	1.590601
0.013965	1.573376
0.014062	1.576141
0.014160	1.585474
0.014258	1.573837
0.014355	1.546558
0.014453	1.526735
0.014551	1.524057
0.014648	1.550725
0.014746	1.570131
0.014844	1.570823
0.014941	1.562795
0.015039	1.547751
0.015137	1.525658
0.015234	1.565681
0.015332	1.546498
0.015430	1.564242
0.015527	1.580654
0.015625	1.582764
0.015723	1.586603
0.015820	1.566454
0.015918	1.545231
0.016016	1.532700
0.016113	1.505590
0.016211	1.473413
0.016309	1.430650
0.016406	1.374933
0.016504	1.338667
0.016602	1.414110
0.016699	1.429668
0.016797	1.415237
0.016895	1.432233
0.016992	1.355926
0.017090	1.346064
0.017187	1.402156
0.017285	1.418401
0.017383	1.431519
0.017480	1.457225
0.017578	1.432893
0.017676	1.409884
0.017773	1.475555
0.017871	1.451854
0.017969	1.407811
0.018066	1.397113
0.018164	1.448667
0.018262	1.465573
0.018359	1.439226
0.018457	1.421493
0.018555	1.372880
0.018652	1.394827
0.018750	1.446336
0.018848	1.463617
0.018945	1.448758
0.019043	1.407154
0.019141	1.377656
0.019238	1.390660
0.019336	1.448930
0.019434	1.476064
0.019531	1.495637
0.019629	1.485266
0.019727	1.488208
0.019824	1.502187
0.019922	1.495445
0.020020	1.488456
0.020117	1.475392
0.020215	1.443854
0.020312	1.408590
0.020410	1.423082
0.020508	1.429596
0.020605	1.464176
0.020703	1.491808
0.020801	1.452321
0.020898	1.432208
0.020996	1.448990
0.021094	1.460862
0.021191	1.450079
0.021289	1.438797
0.021387	1.426697
0.021484	1.413908
0.021582	1.442590
0.021680	1.510258
0.021777	1.553089
0.021875	1.580034
0.021973	1.618020
0.022070	1.608279
0.022168	1.569343
0.022266	1.583720
0.022363	1.579243
0.022461	1.539289
0.022559	1.534310
0.022656	1.505423
0.022754	1.499300
0.022852	1.482961
0.022949	1.467918
0.023047	1.465185
0.023145	1.462131
0.023242	1.494972
0.023340	1.527460
0.023437	1.544263
0.023535	1.543870
0.023633	1.555879
0.023730	1.565813
0.023828	1.627530
0.023926	1.611623
0.024023	1.586689
0.024121	1.576329
0.024219	1.586426
0.024316	1.543497
0.024414	1.536859
0.024512	1.531002
0.024609	1.527870
0.024707	1.535851
0.024805	1.558480
0.024902	1.555720
0.025000	1.538829
0.025098	1.548017
0.025195	1.504656
0.025293	1.460213
0.025391	1.447149
0.025488	1.473093
0.025586	1.477821
0.025684	1.488415
0.025781	1.538797
0.025879	1.574696
0.025977	1.561950
0.026074	1.550176
0.026172	1.540775
0.026270	1.532420
0.026367	1.519611
0.026465	1.519243
0.026562	1.506350
0.026660	1.499845
0.026758	1.500854
0.026855	1.529597
0.026953	1.560388
0.027051	1.580927
0.027148	1.573483
0.027246	1.554587
0.027344	1.539289
0.027441	1.558875
0.027539	1.542320
0.027637	1.505699
0.027734	1.495097
0.027832	1.479289
0.027930	1.452939
0.028027	1.431079
0.028125	1.422713
0.028223	1.418252
0.028320	1.419536
0.028418	1.430972
0.028516	1.456821
0.028613	1.480763
0.028711	1.503062
0.028809	1.507632
0.028906	1.497525
0.029004	1.476918
0.029102	1.465480
0.029199	1.479577
0.029297	1.495097
0.029395	1.495815
0.029492	1.467682
0.029590	1.418188
0.029687	1.417044
0.029785	1.450245
0.029883	1.493394
0.029980	1.543467
0.030078	1.571311
0.030176	1.592142
0.030273	1.600197
0.030371	1.619970
0.030469	1.598135
0.030566	1.578994
0.030664	1.566598
0.030762	1.544611
0.030859	1.530457
0.030957	1.514871
0.031055	1.522470
0.031152	1.499306
0.031250	1.496737
0.031348	1.483559
0.031445	1.495113
0.031543	1.510846
0.031641	1.515356
0.031738	1.520938
0.031836	1.507416
0.031934	1.546612
0.032031	1.541470
0.032129	1.524808
0.032227	1.537784
0.032324	1.529441
0.032422	1.513317
0.032520	1.492053
0.032617	1.457058
0.032715	1.444944
0.032812	1.519078
0.032910	1.551120
0.033008	1.520744
0.033105	1.489588
0.033203	1.478175
0.033301	1.481051
0.033398	1.478932
0.033496	1.456936
0.033594	1.420754
0.033691	1.393972
0.033789	1.399138
0.033887	1.432802
0.033984	1.436994
0.034082	1.402357
0.034180	1.403767
0.034277	1.425366
0.034375	1.442151
0.034473	1.470196
0.034570	1.482925
0.034668	1.522627
0.034766	1.539912
0.034863	1.521409
0.034961	1.513954
0.035059	1.539051
0.035156	1.545503
0.035254	1.535648
0.035352	1.524824
0.035449	1.518103
0.035547	1.539766
0.035645	1.562696
0.035742	1.563716
0.035840	1.586507
0.035937	1.581331
0.036035	1.546484
0.036133	1.528019
0.036230	1.525149
0.036328	1.564818
0.036426	1.588015
0.036523	1.608853
0.036621	1.603660
0.036719	1.572581
0.036816	1.556518
0.036914	1.565322
0.037012	1.585108
0.037109	1.593746
0.037207	1.612198
0.037305	1.619291
0.037402	1.622973
0.037500	1.615731
0.037598	1.600746
0.037695	1.593377
0.037793	1.595957
0.037891	1.586469
0.037988	1.589942
0.038086	1.573931
0.038184	1.592581
0.038281	1.608714
0.038379	1.604742
0.038477	1.605474
0.038574	1.589462
0.038672	1.586224
0.038770	1.570341
0.038867	1.571632
0.038965	1.578295
0.039062	1.581149
0.039160	1.586309
0.039258	1.580102
0.039355	1.573025
0.039453	1.605691
0.039551	1.631046
0.039648	1.616642
0.039746	1.624555
0.039844	1.659801
0.039941	1.657434
0.040039	1.628594
0.040137	1.580974
0.040234	1.580087
0.040332	1.574646
0.040430	1.553068
0.040527	1.545803
0.040625	1.541451
0.040723	1.548124
0.040820	1.559881
0.040918	1.569482
0.041016	1.561233
0.041113	1.557818
0.041211	1.550574
0.041309	1.519237
0.041406	1.485093
0.041504	1.505211
0.041602	1.553009
0.041699	1.571106
0.041797	1.583222
0.041895	1.575709
0.041992	1.553610
0.042090	1.526935
0.042187	1.519281
0.042285	1.524032
0.042383	1.516326
0.042480	1.513012
0.042578	1.497727
0.042676	1.487834
0.042773	1.486436
0.042871	1.480639
0.042969	1.478174
0.043066	1.488029
0.043164	1.469507
0.043262	1.452620
0.043359	1.441649
0.043457	1.402680
0.043555	1.354130
0.043652	1.336868
0.043750	1.341664
0.043848	1.368470
0.043945	1.387502
0.044043	1.388922
0.044141	1.385689
0.044238	1.370765
0.044336	1.352074
0.044434	1.349277
0.044531	1.365808
0.044629	1.397476
0.044727	1.435965
0.044824	1.438403
0.044922	1.429208
0.045020	1.416988
0.045117	1.396206
0.045215	1.377738
0.045312	1.370001
0.045410	1.351579
0.045508	1.334117
0.045605	1.322565
0.045703	1.310916
0.045801	1.295378
0.045898	1.288354
0.045996	1.305824
0.046094	1.343755
0.046191	1.375929
0.046289	1.398789
0.046387	1.446568
0.046484	1.489168
0.046582	1.509893
0.046680	1.521640
0.046777	1.515954
0.046875	1.499741
0.046973	1.512464
0.047070	1.519161
0.047168	1.539843
0.047266	1.533237
0.047363	1.535665
0.047461	1.553023
0.047559	1.527864
0.047656	1.488885
0.047754	1.506976
0.047852	1.566181
0.047949	1.595405
0.048047	1.608227
0.048145	1.607080
0.048242	1.604973
0.048340	1.582719
0.048437	1.596455
0.048535	1.619387
0.048633	1.591761
0.048730	1.547732
0.048828	1.519777
0.048926	1.546934
0.049023	1.598551
0.049121	1.565984
0.049219	1.547178
0.049316	1.520213
0.049414	1.525913
0.049512	1.512222
0.049609	1.486092
0.049707	1.447478
0.049805	1.413182
0.049902	1.428792
0.050000	1.481860
0.050098	1.512574
0.050195	1.529434
0.050293	1.533653
0.050391	1.492037
0.050488	1.501985
0.050586	1.562823
0.050684	1.600706
0.050781	1.591414
0.050879	1.572598
0.050977	1.533622
0.051074	1.596336
0.051172	1.610206
0.051270	1.585446
0.051367	1.580902
0.051465	1.549026
0.051562	1.582588
0.051660	1.563386
0.051758	1.543289
0.051855	1.502645
0.051953	1.519755
0.052051	1.495412
0.052148	1.476441
0.052246	1.449533
0.052344	1.413162
0.052441	1.455488
0.052539	1.505089
0.052637	1.481099
0.052734	1.554725
0.052832	1.544819
0.052930	1.568794
0.053027	1.553571
0.053125	1.529224
0.053223	1.558629
0.053320	1.552907
0.053418	1.539652
0.053516	1.533851
0.053613	1.526372
0.053711	1.513105
0.053809	1.505958
0.053906	1.515502
0.054004	1.522619
0.054102	1.517541
0.054199	1.519789
0.054297	1.492405
0.054395	1.496204
0.054492	1.487943
0.054590	1.485325
0.054687	1.490854
0.054785	1.477220
0.054883	1.481510
0.054980	1.470708
0.055078	1.500851
0.055176	1.552907
0.055273	1.546886
0.055371	1.537046
0.055469	1.544720
0.055566	1.536821
0.055664	1.533489
0.055762	1.516442
0.055859	1.501515
0.055957	1.474225
0.056055	1.482159
0.056152	1.481219
0.056250	1.449817
0.056348	1.407240
0.056445	1.383466
0.056543	1.376758
0.056641	1.422901
0.056738	1.494223
0.056836	1.548868
0.056934	1.508737
0.057031	1.509994
0.057129	1.543311
0.057227	1.546027
0.057324	1.544007
0.057422	1.538044
0.057520	1.548437
0.057617	1.532260
0.057715	1.499425
0.057812	1.504574
0.057910	1.515775
0.058008	1.519223
0.058105	1.510396
0.058203	1.481356
0.058301	1.455892
0.058398	1.495997
0.058496	1.471798
0.058594	1.474388
0.058691	1.471847
0.058789	1.491958
0.058887	1.478579
0.058984	1.505253
0.059082	1.496773
0.059180	1.499691
0.059277	1.496050
0.059375	1.476712
0.059473	1.457172
0.059570	1.465947
0.059668	1.489456
0.059766	1.548173
0.059863	1.565501
0.059961	1.562984
0.060059	1.565953
0.060156	1.556304
0.060254	1.589052
0.060352	1.591270
0.060449	1.565420
0.060547	1.542281
0.060645	1.524968
0.060742	1.514434
0.060840	1.510548
0.060937	1.518164
0.061035	1.523013
0.061133	1.521147
0.061230	1.522039
0.061328	1.503200
0.061426	1.468850
0.061523	1.438387
0.061621	1.459973
0.061719	1.482211
0.061816	1.488932
0.061914	1.483708
0.062012	1.480113
0.062109	1.490603
0.062207	1.489878
0.062305	1.511252
0.062402	1.495457
0.062500	1.494915
0.062598	1.512713
0.062695	1.525528
0.062793	1.525268
0.062891	1.492975
0.062988	1.503923
0.063086	1.494628
0.063184	1.477226
0.063281	1.465087
0.063379	1.453546
0.063477	1.457151
0.063574	1.471030
0.063672	1.493549
0.063770	1.528059
0.063867	1.536017
0.063965	1.556747
0.064062	1.569855
0.064160	1.573699
0.064258	1.601327
0.064355	1.584341
0.064453	1.603359
0.064551	1.568051
0.064648	1.587347
0.064746	1.601129
0.064844	1.597266
0.064941	1.589360
0.065039	1.592528
0.065137	1.579965
0.065234	1.582692
0.065332	1.588232
0.065430	1.588549
0.065527	1.558326
0.065625	1.524484
0.065723	1.513990
0.065820	1.480522
0.065918	1.505699
0.066016	1.537735
0.066113	1.541904
0.066211	1.544865
0.066309	1.559658
0.066406	1.551965
0.066504	1.531578
0.066602	1.542968
0.066699	1.529766
0.066797	1.528094
0.066895	1.510027
0.066992	1.475351
0.067090	1.477526
0.067187	1.474067
0.067285	1.481465
0.067383	1.505431
0.067480	1.526444
0.067578	1.536124
0.067676	1.543463
0.067773	1.544052
0.067871	1.553496
0.067969	1.593673
0.068066	1.610031
0.068164	1.598012
0.068262	1.592843
0.068359	1.607001
0.068457	1.612352
0.068555	1.605945
0.068652	1.605082
0.068750	1.602986
0.068848	1.578626
0.068945	1.563084
0.069043	1.538727
0.069141	1.499161
0.069238	1.474302
0.069336	1.460351
0.069434	1.475165
0.069531	1.468843
0.069629	1.455704
0.069727	1.472649
0.069824	1.486119
0.069922	1.482425
0.070020	1.469417
0.070117	1.468118
0.070215	1.461307
0.070312	1.449486
0.070410	1.428366
0.070508	1.405953
0.070605	1.373376
0.070703	1.335621
0.070801	1.302473
0.070898	1.284524
0.070996	1.276488
0.071094	1.268558
0.071191	1.266635
0.071289	1.270206
0.071387	1.271579
0.071484	1.270407
0.071582	1.279348
0.071680	1.296748
0.071777	1.316661
0.071875	1.327909
0.071973	1.329639
0.072070	1.328715
0.072168	1.324254
0.072266	1.318074
0.072363	1.310742
0.072461	1.303605
0.072559	1.300255
0.072656	1.298114
0.072754	1.295502
0.072852	1.290408
0.072949	1.280948
0.073047	1.264807
0.073145	1.243762
0.073242	1.223015
0.073340	1.215881
0.073437	1.235061
0.073535	1.276234
0.073633	1.317875
0.073730	1.346597
0.073828	1.366257
0.073926	1.383004
0.074023	1.399320
0.074121	1.421266
0.074219	1.419103
0.074316	1.423729
0.074414	1.439904
0.074512	1.438314
0.074609	1.451332
0.074707	1.455121
0.074805	1.451713
0.074902	1.452921
0.075000	1.475857
0.075098	1.499931
0.075195	1.510584
0.075293	1.509145
0.075391	1.504076
0.075488	1.483451
0.075586	1.497625
0.075684	1.526180
0.075781	1.485852
0.075879	1.500543
0.075977	1.507498
0.076074	1.497635
0.076172	1.492184
0.076270	1.458633
0.076367	1.441264
0.076465	1.428065
0.076562	1.416862
0.076660	1.412021
0.076758	1.403014
0.076855	1.409520
0.076953	1.447725
0.077051	1.457048
0.077148	1.436617
0.077246	1.400133
0.077344	1.396187
0.077441	1.363075
0.077539	1.390653
0.077637	1.430706
0.077734	1.431219
0.077832	1.442895
0.077930	1.498536
0.078027	1.528080
0.078125	1.513701
0.078223	1.477943
0.078320	1.456568
0.078418	1.438790
0.078516	1.443617
0.078613	1.456527
0.078711	1.442202
0.078809	1.444411
0.078906	1.453107
0.079004	1.446934
0.079102	1.431368
0.079199	1.424827
0.079297	1.431454
0.079395	1.442465
0.079492	1.446931
0.079590	1.478325
0.079687	1.470132
0.079785	1.449074
0.079883	1.454220
0.079980	1.402650
0.080078	1.380572
0.080176	1.427700
0.080273	1.476427
0.080371	1.471095
0.080469	1.422036
0.080566	1.392600
0.080664	1.387555
0.080762	1.376597
0.080859	1.389801
0.080957	1.398993
0.081055	1.395658
0.081152	1.405597
0.081250	1.414350
0.081348	1.430211
0.081445	1.436481
0.081543	1.451449
0.081641	1.465083
0.081738	1.486081
0.081836	1.501274
0.081934	1.502730
0.082031	1.510032
0.082129	1.478946
0.082227	1.463945
0.082324	1.468297
0.082422	1.461802
0.082520	1.459335
0.082617	1.447378
0.082715	1.443183
0.082812	1.446302
0.082910	1.428170
0.083008	1.412552
0.083105	1.400865
0.083203	1.392542
0.083301	1.392709
0.083398	1.425552
0.083496	1.478499
0.083594	1.514856
0.083691	1.503601
0.083789	1.471509
0.083887	1.444367
0.083984	1.433668
0.084082	1.439697
0.084180	1.448759
0.084277	1.481325
0.084375	1.511896
0.084473	1.510005
0.084570	1.498912
0.084668	1.482923
0.084766	1.466075
0.084863	1.434007
0.084961	1.410416
0.085059	1.397388
0.085156	1.378685
0.085254	1.350779
0.085352	1.316603
0.085449	1.286695
0.085547	1.270584
0.085645	1.271610
0.085742	1.275362
0.085840	1.268705
0.085937	1.259767
0.086035	1.257484
0.086133	1.271133
0.086230	1.303171
0.086328	1.353488
0.086426	1.403058
0.086523	1.432131
0.086621	1.441164
0.086719	1.442750
0.086816	1.442540
0.086914	1.437628
0.087012	1.427689
0.087109	1.424655
0.087207	1.434554
0.087305	1.456412
0.087402	1.472146
0.087500	1.468679
0.087598	1.468793
0.087695	1.482826
0.087793	1.506487
0.087891	1.533354
0.087988	1.540956
0.088086	1.524379
0.088184	1.512821
0.088281	1.478581
0.088379	1.431227
0.088477	1.437998
0.088574	1.456754
0.088672	1.454552
0.088770	1.452659
0.088867	1.454625
0.088965	1.450349
0.089062	1.441975
0.089160	1.441804
0.089258	1.430382
0.089355	1.401089
0.089453	1.406698
0.089551	1.432784
0.089648	1.450062
0.089746	1.461668
0.089844	1.452313
0.089941	1.453541
0.090039	1.454223
0.090137	1.446520
0.090234	1.469613
0.090332	1.476426
0.090430	1.489925
0.090527	1.499375
0.090625	1.500955
0.090723	1.510642
0.090820	1.517248
0.090918	1.522563
0.091016	1.536665
0.091113	1.523420
0.091211	1.516706
0.091309	1.540143
0.091406	1.546556
0.091504	1.558725
0.091602	1.535175
0.091699	1.516148
0.091797	1.508767
0.091895	1.495574
0.091992	1.510235
0.092090	1.539780
0.092187	1.549114
0.092285	1.530428
0.092383	1.544554
0.092480	1.584634
0.092578	1.593730
0.092676	1.586997
0.092773	1.592391
0.092871	1.598247
0.092969	1.587228
0.093066	1.585471
0.093164	1.572234
0.093262	1.565776
0.093359	1.543528
0.093457	1.536369
0.093555	1.568855
0.093652	1.575999
0.093750	1.583211
0.093848	1.574858
0.093945	1.552893
0.094043	1.536523
0.094141	1.546110
0.094238	1.566336
0.094336	1.585944
0.094434	1.597385
0.094531	1.596122
0.094629	1.586684
0.094727	1.550302
0.094824	1.539302
0.094922	1.524312
0.095020	1.535020
0.095117	1.542451
0.095215	1.517075
0.095312	1.535810
0.095410	1.559416
0.095508	1.581260
0.095605	1.578632
0.095703	1.582593
0.095801	1.596705
0.095898	1.596533
0.095996	1.583773
0.096094	1.573956
0.096191	1.561378
0.096289	1.566770
0.096387	1.568669
0.096484	1.576637
0.096582	1.563533
0.096680	1.532454
0.096777	1.497273
0.096875	1.487117
0.096973	1.494253
0.097070	1.466557
0.097168	1.479482
0.097266	1.478216
0.097363	1.477926
0.097461	1.463618
0.097559	1.480954
0.097656	1.489572
0.097754	1.500144
0.097852	1.520786
0.097949	1.519008
0.098047	1.538223
0.098145	1.533495
0.098242	1.542497
0.098340	1.547600
0.098437	1.525531
0.098535	1.508893
0.098633	1.502582
0.098730	1.465667
0.098828	1.495439
0.098926	1.564290
0.099023	1.572349
0.099121	1.573087
0.099219	1.506083
0.099316	1.512881
0.099414	1.482908
0.099512	1.527675
0.099609	1.605370
0.099707	1.595622
0.099805	1.581731
0.099902	1.582943
0.100000	1.548004
0.100098	1.548716
0.100195	1.546267
0.100293	1.517217
0.100391	1.530979
0.100488	1.559547
0.100586	1.621586
0.100684	1.590756
0.100781	1.520100
0.100879	1.510679
0.100977	1.521868
0.101074	1.516550
0.101172	1.522089
0.101270	1.519564
0.101367	1.537597
0.101465	1.536934
0.101562	1.534859
0.101660	1.531726
0.101758	1.527809
0.101855	1.506142
0.101953	1.479195
0.102051	1.452692
0.102148	1.437610
0.102246	1.440694
0.102344	1.461836
0.102441	1.484937
0.102539	1.514787
0.102637	1.513687
0.102734	1.479640
0.102832	1.458586
0.102930	1.448222
0.103027	1.457009
0.103125	1.478747
0.103223	1.503820
0.103320	1.511372
0.103418	1.499134
0.103516	1.470719
0.103613	1.447793
0.103711	1.439990
0.103809	1.427643
0.103906	1.424137
0.104004	1.456004
0.104102	1.483444
0.104199	1.495601
0.104297	1.501824
0.104395	1.488821
0.104492	1.467653
0.104590	1.455702
0.104687	1.468674
0.104785	1.462537
0.104883	1.472437
0.104980	1.516366
0.105078	1.542176
0.105176	1.508281
0.105273	1.465074
0.105371	1.432536
0.105469	1.419363
0.105566	1.411532
0.105664	1.405513
0.105762	1.410723
0.105859	1.403281
0.105957	1.397963
0.106055	1.391368
0.106152	1.382191
0.106250	1.378968
0.106348	1.381432
0.106445	1.378211
0.106543	1.371668
0.106641	1.380764
0.106738	1.391572
0.106836	1.403426
0.106934	1.431351
0.107031	1.423433
0.107129	1.406845
0.107227	1.390532
0.107324	1.380920
0.107422	1.385139
0.107520	1.404922
0.107617	1.428451
0.107715	1.448561
0.107812	1.482834
0.107910	1.503507
0.108008	1.515886
0.108105	1.509196
0.108203	1.483189
0.108301	1.491351
0.108398	1.527053
0.108496	1.507007
0.108594	1.520805
0.108691	1.561589
0.108789	1.536347
0.108887	1.491494
0.108984	1.492081
0.109082	1.531872
0.109180	1.528897
0.109277	1.516915
0.109375	1.515339
0.109473	1.495172
0.109570	1.486719
0.109668	1.493364
0.109766	1.500177
0.109863	1.502049
0.109961	1.515953
0.110059	1.524487
0.110156	1.504294
0.110254	1.504743
0.110352	1.527271
0.110449	1.536343
0.110547	1.541354
0.110645	1.540274
0.110742	1.527831
0.110840	1.470282
0.110937	1.475835
0.111035	1.501047
0.111133	1.502605
0.111230	1.484958
0.111328	1.497080
0.111426	1.526711
0.111523	1.548441
0.111621	1.563985
0.111719	1.564620
0.111816	1.576304
0.111914	1.573555
0.112012	1.545169
0.112109	1.524177
0.112207	1.501229
0.112305	1.501359
0.112402	1.515722
0.112500	1.536075
0.112598	1.570782
0.112695	1.593504
0.112793	1.590413
0.112891	1.583678
0.112988	1.586755
0.113086	1.582411
0.113184	1.574389
0.113281	1.583732
0.113379	1.583081
0.113477	1.574622
0.113574	1.577013
0.113672	1.567399
0.113770	1.571762
0.113867	1.564795
0.113965	1.542314
0.114062	1.515353
0.114160	1.547544
0.114258	1.549604
0.114355	1.564853
0.114453	1.555615
0.114551	1.559274
0.114648	1.590842
0.114746	1.559708
0.114844	1.539408
0.114941	1.519946
0.115039	1.522612
0.115137	1.533007
0.115234	1.526033
0.115332	1.463009
0.115430	1.441125
0.115527	1.443410
0.115625	1.469997
0.115723	1.509259
0.115820	1.505558
0.115918	1.531106
0.116016	1.576009
0.116113	1.519409
0.116211	1.501112
0.116309	1.476480
0.116406	1.449899
0.116504	1.434113
0.116602	1.425963
0.116699	1.425805
0.116797	1.431918
0.116895	1.458295
0.116992	1.513789
0.117090	1.553211
0.117187	1.519777
0.117285	1.482092
0.117383	1.447674
0.117480	1.445410
0.117578	1.463412
0.117676	1.465508
0.117773	1.472367
0.117871	1.473250
0.117969	1.463957
0.118066	1.478733
0.118164	1.485174
0.118262	1.482086
0.118359	1.489777
0.118457	1.501105
0.118555	1.507550
0.118652	1.507672
0.118750	1.504275
0.118848	1.505852
0.118945	1.482621
0.119043	1.438030
0.119141	1.418410
0.119238	1.403656
0.119336	1.385933
0.119434	1.377716
0.119531	1.389082
0.119629	1.397480
0.119727	1.398459
0.119824	1.387900
0.119922	1.376397
0.120020	1.365289
0.120117	1.350773
0.120215	1.337980
0.120312	1.332784
0.120410	1.319931
0.120508	1.319849
0.120605	1.349621
0.120703	1.380119
0.120801	1.404958
0.120898	1.416054
0.120996	1.412825
0.121094	1.434019
0.121191	1.457973
0.121289	1.461820
0.121387	1.473790
0.121484	1.482612
0.121582	1.485376
0.121680	1.525929
0.121777	1.550916
0.121875	1.559035
0.121973	1.565436
0.122070	1.570439
0.122168	1.544103
0.122266	1.517710
0.122363	1.516162
0.122461	1.514982
0.122559	1.561327
0.122656	1.570218
0.122754	1.551035
0.122852	1.543345
0.122949	1.541591
0.123047	1.551173
0.123145	1.554554
0.123242	1.572500
0.123340	1.546113
0.123437	1.551985
0.123535	1.567978
0.123633	1.579469
0.123730	1.577813
0.123828	1.569867
0.123926	1.549134
0.124023	1.509793
0.124121	1.508769
0.124219	1.497904
0.124316	1.498605
0.124414	1.497553
0.124512	1.532696
0.124609	1.553754
0.124707	1.584613
0.124805	1.581720
0.124902	1.567124
0.125000	1.551491
0.125098	1.541141
0.125195	1.528498
0.125293	1.521550
0.125391	1.518914
0.125488	1.504191
0.125586	1.496243
0.125684	1.474971
0.125781	1.458065
0.125879	1.458439
0.125977	1.461462
0.126074	1.466102
0.126172	1.466897
0.126270	1.472258
0.126367	1.488827
0.126465	1.472550
0.126562	1.460686
0.126660	1.494525
0.126758	1.535735
0.126855	1.552373
0.126953	1.533594
0.127051	1.544814
0.127148	1.544701
0.127246	1.553835
0.127344	1.515580
0.127441	1.514535
0.127539	1.523019
0.127637	1.534132
0.127734	1.522689
0.127832	1.515113
0.127930	1.477804
0.128027	1.479387
0.128125	1.516037
0.128223	1.530319
0.128320	1.537457
0.128418	1.546119
0.128516	1.503051
0.128613	1.491786
0.128711	1.515032
0.128809	1.504759
0.128906	1.508826
0.129004	1.501729
0.129102	1.512348
0.129199	1.539859
0.129297	1.555046
0.129395	1.562934
0.129492	1.580491
0.129590	1.592521
0.129687	1.577533
0.129785	1.552685
0.129883	1.492399
0.129980	1.459137
0.130078	1.509839
0.130176	1.533552
0.130273	1.521383
0.130371	1.524662
0.130469	1.537213
0.130566	1.572878
0.130664	1.583585
0.130762	1.563089
0.130859	1.478175
0.130957	1.462598
0.131055	1.489206
0.131152	1.430693
0.131250	1.390183
0.131348	1.379092
0.131445	1.423568
0.131543	1.459928
0.131641	1.445957
0.131738	1.438340
0.131836	1.428078
0.131934	1.406278
0.132031	1.338741
0.132129	1.344333
0.132227	1.466588
0.132324	1.517258
0.132422	1.520462
0.132520	1.502625
0.132617	1.478325
0.132715	1.462522
0.132812	1.460686
0.132910	1.467691
0.133008	1.464133
0.133105	1.484423
0.133203	1.507718
0.133301	1.526984
0.133398	1.528832
0.133496	1.506039
0.133594	1.491080
0.133691	1.470481
0.133789	1.471041
0.133887	1.466801
0.133984	1.449955
0.134082	1.413561
0.134180	1.371294
0.134277	1.334999
0.134375	1.343525
0.134473	1.397409
0.134570	1.421066
0.134668	1.453249
0.134766	1.459484
0.134863	1.452780
0.134961	1.453977
0.135059	1.452897
0.135156	1.454494
0.135254	1.446021
0.135352	1.412269
0.135449	1.410513
0.135547	1.420048
0.135645	1.428633
0.135742	1.456554
0.135840	1.467472
0.135937	1.506828
0.136035	1.506600
0.136133	1.498083
0.136230	1.485084
0.136328	1.485348
0.136426	1.484571
0.136523	1.462922
0.136621	1.475405
0.136719	1.521438
0.136816	1.491189
0.136914	1.458862
0.137012	1.482272
0.137109	1.516851
0.137207	1.524459
0.137305	1.543492
0.137402	1.516491
0.137500	1.506546
0.137598	1.532597
0.137695	1.571438
0.137793	1.594041
0.137891	1.583783
0.137988	1.559509
0.138086	1.535460
0.138184	1.530658
0.138281	1.529086
0.138379	1.529381
0.138477	1.529661
0.138574	1.529339
0.138672	1.533697
0.138770	1.536736
0.138867	1.541129
0.138965	1.546032
0.139062	1.550636
0.139160	1.552742
0.139258	1.552770
0.139355	1.561630
0.139453	1.566199
0.139551	1.566478
0.139648	1.554059
0.139746	1.580797
0.139844	1.600917
0.139941	1.551585
0.140039	1.535388
0.140137	1.502135
0.140234	1.534854
0.140332	1.546572
0.140430	1.557167
0.140527	1.561101
0.140625	1.559277
0.140723	1.559057
0.140820	1.547534
0.140918	1.547417
0.141016	1.565250
0.141113	1.588806
0.141211	1.587824
0.141309	1.599249
0.141406	1.607522
0.141504	1.613841
0.141602	1.616654
0.141699	1.605007
0.141797	1.598046
0.141895	1.610749
0.141992	1.608402
0.142090	1.609946
0.142187	1.609866
0.142285	1.604556
0.142383	1.604685
0.142480	1.607045
0.142578	1.607814
0.142676	1.610219
0.142773	1.615128
0.142871	1.621862
0.142969	1.634364
0.143066	1.630465
0.143164	1.625451
0.143262	1.610746
0.143359	1.595279
0.143457	1.603149
0.143555	1.611512
0.143652	1.596655
0.143750	1.608370
0.143848	1.635359
0.143945	1.637340
0.144043	1.633978
0.144141	1.633305
0.144238	1.612468
0.144336	1.611017
0.144434	1.622096
0.144531	1.617544
0.144629	1.623658
0.144727	1.607088
0.144824	1.596611
0.144922	1.611257
0.145020	1.603635
0.145117	1.603958
0.145215	1.610678
0.145312	1.619940
0.145410	1.609636
0.145508	1.621789
0.145605	1.593590
0.145703	1.616953
0.145801	1.626150
0.145898	1.622851
0.145996	1.610444
0.146094	1.577471
0.146191	1.617455
0.146289	1.632909
0.146387	1.614965
0.146484	1.597077
0.146582	1.606830
0.146680	1.579309
0.146777	1.540070
0.146875	1.521215
0.146973	1.513075
0.147070	1.528892
0.147168	1.538837
0.147266	1.546492
0.147363	1.524641
0.147461	1.524385
0.147559	1.520204
0.147656	1.487100
0.147754	1.481329
0.147852	1.463824
0.147949	1.461067
0.148047	1.440769
0.148145	1.459613
0.148242	1.509203
0.148340	1.543806
0.148437	1.546315
0.148535	1.533982
0.148633	1.506910
0.148730	1.474814
0.148828	1.457437
0.148926	1.479730
0.149023	1.477872
0.149121	1.451493
0.149219	1.483678
0.149316	1.551541
0.149414	1.564076
0.149512	1.566216
0.149609	1.525636
0.149707	1.530723
0.149805	1.561389
0.149902	1.568309
0.150000	1.551550
0.150098	1.534129
0.150195	1.531401
0.150293	1.527626
0.150391	1.558430
0.150488	1.564638
0.150586	1.571634
0.150684	1.556381
0.150781	1.467542
0.150879	1.466486
0.150977	1.497674
0.151074	1.514869
0.151172	1.492399
0.151270	1.499824
0.151367	1.498455
0.151465	1.508531
0.151562	1.437993
0.151660	1.450292
0.151758	1.432425
0.151855	1.412219
0.151953	1.441126
0.152051	1.460632
0.152148	1.438856
0.152246	1.422328
0.152344	1.465264
0.152441	1.481150
0.152539	1.495619
0.152637	1.468204
0.152734	1.478422
0.152832	1.443847
0.152930	1.390918
0.153027	1.383760
0.153125	1.441884
0.153223	1.498790
0.153320	1.501979
0.153418	1.509234
0.153516	1.540189
0.153613	1.511472
0.153711	1.471232
0.153809	1.459624
0.153906	1.467289
0.154004	1.464062
0.154102	1.459297
0.154199	1.454246
0.154297	1.474003
0.154395	1.459015
0.154492	1.466147
0.154590	1.483185
0.154687	1.473894
0.154785	1.514902
0.154883	1.528444
0.154980	1.508949
0.155078	1.554423
0.155176	1.566527
0.155273	1.607535
0.155371	1.689949
0.155469	1.617228
0.155566	1.595383
0.155664	1.595278
0.155762	1.607635
0.155859	1.624529
0.155957	1.617866
0.156055	1.612433
0.156152	1.595456
0.156250	1.580232
0.156348	1.574979
0.156445	1.573187
0.156543	1.585183
0.156641	1.604822
0.156738	1.611150
0.156836	1.606944
0.156934	1.599940
0.157031	1.592849
0.157129	1.597918
0.157227	1.598224
0.157324	1.598008
0.157422	1.593565
0.157520	1.589930
0.157617	1.593100
0.157715	1.587174
0.157812	1.582284
0.157910	1.567927
0.158008	1.550219
0.158105	1.555288
0.158203	1.549778
0.158301	1.555810
0.158398	1.557799
0.158496	1.571275
0.158594	1.579392
0.158691	1.576060
0.158789	1.567809
0.158887	1.558367
0.158984	1.534076
0.159082	1.502202
0.159180	1.533988
0.159277	1.551332
0.159375	1.542754
0.159473	1.559285
0.159570	1.558362
0.159668	1.531255
0.159766	1.524271
0.159863	1.514263
0.159961	1.504868
0.160059	1.503877
0.160156	1.503960
0.160254	1.495336
0.160352	1.490173
0.160449	1.492265
0.160547	1.519940
0.160645	1.535266
0.160742	1.530652
0.160840	1.514618
0.160937	1.509271
0.161035	1.510479
0.161133	1.513245
0.161230	1.528340
0.161328	1.543419
0.161426	1.528338
0.161523	1.493307
0.161621	1.477010
0.161719	1.466212
0.161816	1.449945
0.161914	1.443162
0.162012	1.444796
0.162109	1.435510
0.162207	1.415528
0.162305	1.393765
0.162402	1.384748
0.162500	1.401959
0.162598	1.430620
0.162695	1.447419
0.162793	1.445315
0.162891	1.454757
0.162988	1.461179
0.163086	1.456942
0.163184	1.463702
0.163281	1.468366
0.163379	1.447830
0.163477	1.444948
0.163574	1.465362
0.163672	1.464712
0.163770	1.455834
0.163867	1.441439
0.163965	1.451082
0.164062	1.459014
0.164160	1.446284
0.164258	1.432056
0.164355	1.421138
0.164453	1.421620
0.164551	1.427877
0.164648	1.433316
0.164746	1.459647
0.164844	1.472818
0.164941	1.468355
0.165039	1.468852
0.165137	1.466027
0.165234	1.457024
0.165332	1.462022
0.165430	1.469524
0.165527	1.470140
0.165625	1.463355
0.165723	1.458759
0.165820	1.461052
0.165918	1.469310
0.166016	1.484544
0.166113	1.493107
0.166211	1.482578
0.166309	1.468817
0.166406	1.455154
0.166504	1.429703
0.166602	1.415260
0.166699	1.422322
0.166797	1.430497
0.166895	1.416257
0.166992	1.386266
0.167090	1.370804
0.167187	1.361997
0.167285	1.345560
0.167383	1.332173
0.167480	1.328967
0.167578	1.357449
0.167676	1.402344
0.167773	1.425529
0.167871	1.434685
0.167969	1.437094
0.168066	1.427531
0.168164	1.431122
0.168262	1.442603
0.168359	1.460900
0.168457	1.463744
0.168555	1.441264
0.168652	1.413594
0.168750	1.402083
0.168848	1.464262
0.168945	1.524958
0.169043	1.528946
0.169141	1.513178
0.169238	1.461922
0.169336	1.449921
0.169434	1.470451
0.169531	1.462190
0.169629	1.463029
0.169727	1.496827
0.169824	1.520869
0.169922	1.505628
0.170020	1.520819
0.170117	1.529665
0.170215	1.505340
0.170312	1.506258
0.170410	1.509474
0.170508	1.504643
0.170605	1.494609
0.170703	1.481831
0.170801	1.478443
0.170898	1.492147
0.170996	1.498095
0.171094	1.471947
0.171191	1.439692
0.171289	1.410977
0.171387	1.384753
0.171484	1.360883
0.171582	1.340050
0.171680	1.323128
0.171777	1.305924
0.171875	1.284914
0.171973	1.265663
0.172070	1.248399
0.172168	1.237996
0.172266	1.231369
0.172363	1.223871
0.172461	1.218607
0.172559	1.216084
0.172656	1.217647
0.172754	1.227696
0.172852	1.241791
0.172949	1.251007
0.173047	1.254657
0.173145	1.255488
0.173242	1.261487
0.173340	1.275672
0.173437	1.285443
0.173535	1.286672
0.173633	1.284263
0.173730	1.296180
0.173828	1.316674
0.173926	1.334356
0.174023	1.354384
0.174121	1.365250
0.174219	1.358055
0.174316	1.342977
0.174414	1.339519
0.174512	1.352690
0.174609	1.377498
0.174707	1.399914
0.174805	1.397073
0.174902	1.386047
0.175000	1.387910
0.175098	1.393887
0.175195	1.396247
0.175293	1.419312
0.175391	1.446925
0.175488	1.446043
0.175586	1.445183
0.175684	1.448682
0.175781	1.442183
0.175879	1.437650
0.175977	1.435698
0.176074	1.418041
0.176172	1.415396
0.176270	1.436909
0.176367	1.456346
0.176465	1.468810
0.176562	1.478050
0.176660	1.479875
0.176758	1.455219
0.176855	1.443284
0.176953	1.452753
0.177051	1.474049
0.177148	1.493032
0.177246	1.508468
0.177344	1.502376
0.177441	1.492623
0.177539	1.483398
0.177637	1.491394
0.177734	1.501994
0.177832	1.492474
0.177930	1.483362
0.178027	1.475554
0.178125	1.475196
0.178223	1.475534
0.178320	1.455775
0.178418	1.457346
0.178516	1.463006
0.178613	1.457241
0.178711	1.440796
0.178809	1.429834
0.178906	1.422774
0.179004	1.410938
0.179102	1.412006
0.179199	1.457564
0.179297	1.486886
0.179395	1.494088
0.179492	1.505321
0.179590	1.513292
0.179687	1.503517
0.179785	1.488948
0.179883	1.469433
0.179980	1.447963
0.180078	1.433632
0.180176	1.434014
0.180273	1.439895
0.180371	1.438306
0.180469	1.439006
0.180566	1.445117
0.180664	1.455498
0.180762	1.461437
0.180859	1.463101
0.180957	1.467146
0.181055	1.463480
0.181152	1.465507
0.181250	1.472490
0.181348	1.477546
0.181445	1.481543
0.181543	1.486940
0.181641	1.497359
0.181738	1.497664
0.181836	1.498231
0.181934	1.503443
0.182031	1.482749
0.182129	1.462306
0.182227	1.456529
0.182324	1.451738
0.182422	1.446938
0.182520	1.460757
0.182617	1.476034
0.182715	1.478975
0.182812	1.486694
0.182910	1.505795
0.183008	1.538465
0.183105	1.563638
0.183203	1.572443
0.183301	1.570541
0.183398	1.554457
0.183496	1.544242
0.183594	1.543942
0.183691	1.528724
0.183789	1.517375
0.183887	1.517644
0.183984	1.523890
0.184082	1.501421
0.184180	1.455468
0.184277	1.420782
0.184375	1.404443
0.184473	1.447744
0.184570	1.453607
0.184668	1.455016
0.184766	1.423092
0.184863	1.427174
0.184961	1.461404
0.185059	1.513368
0.185156	1.550318
0.185254	1.552831
0.185352	1.542908
0.185449	1.540730
0.185547	1.580443
0.185645	1.591795
0.185742	1.564950
0.185840	1.573661
0.185937	1.540632
0.186035	1.571624
0.186133	1.557151
0.186230	1.549419
0.186328	1.572681
0.186426	1.560249
0.186523	1.497985
0.186621	1.468974
0.186719	1.451048
0.186816	1.434131
0.186914	1.461816
0.187012	1.510443
0.187109	1.506154
0.187207	1.521734
0.187305	1.514208
0.187402	1.520180
0.187500	1.525340
0.187598	1.523005
0.187695	1.476961
0.187793	1.420731
0.187891	1.411036
0.187988	1.470262
0.188086	1.480667
0.188184	1.477558
0.188281	1.503144
0.188379	1.489167
0.188477	1.479490
0.188574	1.484997
0.188672	1.490291
0.188770	1.490483
0.188867	1.493800
0.188965	1.468070
0.189062	1.471916
0.189160	1.510125
0.189258	1.530181
0.189355	1.523382
0.189453	1.531388
0.189551	1.525805
0.189648	1.517449
0.189746	1.531548
0.189844	1.550834
0.189941	1.547314
0.190039	1.555745
0.190137	1.537440
0.190234	1.512616
0.190332	1.510528
0.190430	1.507972
0.190527	1.499724
0.190625	1.502556
0.190723	1.506822
0.190820	1.503139
0.190918	1.493548
0.191016	1.481852
0.191113	1.470934
0.191211	1.455223
0.191309	1.439578
0.191406	1.423031
0.191504	1.408362
0.191602	1.391854
0.191699	1.380405
0.191797	1.372108
0.191895	1.374289
0.191992	1.377382
0.192090	1.382263
0.192187	1.387703
0.192285	1.377683
0.192383	1.345198
0.192480	1.326482
0.192578	1.325708
0.192676	1.327048
0.192773	1.322214
0.192871	1.313374
0.192969	1.311368
0.193066	1.314685
0.193164	1.302886
0.193262	1.304428
0.193359	1.310042
0.193457	1.385862
0.193555	1.410034
0.193652	1.421226
0.193750	1.460985
0.193848	1.480704
0.193945	1.467284
0.194043	1.488807
0.194141	1.493861
0.194238	1.473581
0.194336	1.457391
0.194434	1.430420
0.194531	1.388466
0.194629	1.374301
0.194727	1.388139
0.194824	1.385546
0.194922	1.360625
0.195020	1.337097
0.195117	1.328411
0.195215	1.331100
0.195312	1.337867
0.195410	1.343500
0.195508	1.345797
0.195605	1.348384
0.195703	1.357716
0.195801	1.373796
0.195898	1.400988
0.195996	1.413953
0.196094	1.412514
0.196191	1.402458
0.196289	1.393607
0.196387	1.386410
0.196484	1.389116
0.196582	1.455468
0.196680	1.512648
0.196777	1.470035
0.196875	1.422687
0.196973	1.444818
0.197070	1.487995
0.197168	1.525430
0.197266	1.508309
0.197363	1.534737
0.197461	1.535938
0.197559	1.537882
0.197656	1.505171
0.197754	1.463594
0.197852	1.457662
0.197949	1.480898
0.198047	1.479771
0.198145	1.469491
0.198242	1.457735
0.198340	1.513325
0.198437	1.562521
0.198535	1.544330
0.198633	1.465822
0.198730	1.490122
0.198828	1.550612
0.198926	1.569874
0.199023	1.578823
0.199121	1.523258
0.199219	1.504026
0.199316	1.516758
0.199414	1.490316
0.199512	1.453041
0.199609	1.448940
0.199707	1.442555
0.199805	1.454376
0.199902	1.465477
0.200000	1.503777
0.200098	1.537327
0.200195	1.527261
0.200293	1.509498
0.200391	1.500599
0.200488	1.512623
0.200586	1.489602
0.200684	1.456587
0.200781	1.442024
0.200879	1.449484
0.200977	1.451715
0.201074	1.498837
0.201172	1.500404
0.201270	1.532714
0.201367	1.569017
0.201465	1.544510
0.201562	1.480105
0.201660	1.475938
0.201758	1.466796
0.201855	1.463717
0.201953	1.506569
0.202051	1.518083
0.202148	1.529229
0.202246	1.500423
0.202344	1.526972
0.202441	1.498250
0.202539	1.480423
0.202637	1.490058
0.202734	1.502238
0.202832	1.492443
0.202930	1.509504
0.203027	1.532867
0.203125	1.543063
0.203223	1.529027
0.203320	1.502176
0.203418	1.464282
0.203516	1.477988
0.203613	1.530374
0.203711	1.545580
0.203809	1.547654
0.203906	1.554263
0.204004	1.555638
0.204102	1.539773
0.204199	1.550705
0.204297	1.531119
0.204395	1.526782
0.204492	1.552767
0.204590	1.542107
0.204687	1.524004
0.204785	1.502548
0.204883	1.504958
0.204980	1.513539
0.205078	1.501792
0.205176	1.493025
0.205273	1.482339
0.205371	1.470442
0.205469	1.457821
0.205566	1.446618
0.205664	1.483395
0.205762	1.475235
0.205859	1.461934
0.205957	1.445553
0.206055	1.444958
0.206152	1.429576
0.206250	1.397470
0.206348	1.404436
0.206445	1.386815
0.206543	1.378956
0.206641	1.391157
0.206738	1.391057
0.206836	1.390130
0.206934	1.403226
0.207031	1.425942
0.207129	1.449107
0.207227	1.438071
0.207324	1.414633
0.207422	1.390022
0.207520	1.387297
0.207617	1.385340
0.207715	1.384949
0.207812	1.386749
0.207910	1.385465
0.208008	1.377453
0.208105	1.374719
0.208203	1.401312
0.208301	1.439122
0.208398	1.446068
0.208496	1.442973
0.208594	1.440561
0.208691	1.428799
0.208789	1.439756
0.208887	1.466714
0.208984	1.498987
0.209082	1.512225
0.209180	1.510029
0.209277	1.509714
0.209375	1.502284
0.209473	1.516699
0.209570	1.547294
0.209668	1.548145
0.209766	1.559134
0.209863	1.542390
0.209961	1.535591
0.210059	1.529224
0.210156	1.500680
0.210254	1.533355
0.210352	1.552605
0.210449	1.572312
0.210547	1.569638
0.210645	1.579893
0.210742	1.586615
0.210840	1.608418
0.210937	1.619258
0.211035	1.598766
0.211133	1.612994
0.211230	1.621852
0.211328	1.622548
0.211426	1.614845
0.211523	1.612094
0.211621	1.618350
0.211719	1.620869
0.211816	1.622383
0.211914	1.626263
0.212012	1.630385
0.212109	1.629428
0.212207	1.627951
0.212305	1.626243
0.212402	1.628382
0.212500	1.629031
0.212598	1.623677
0.212695	1.615772
0.212793	1.610162
0.212891	1.610781
0.212988	1.600962
0.213086	1.564975
0.213184	1.579888
0.213281	1.531335
0.213379	1.508110
0.213477	1.555955
0.213574	1.563858
0.213672	1.605208
0.213770	1.590191
0.213867	1.560567
0.213965	1.586170
0.214062	1.580682
0.214160	1.562375
0.214258	1.568238
0.214355	1.542205
0.214453	1.552161
0.214551	1.597026
0.214648	1.587846
0.214746	1.550900
0.214844	1.499527
0.214941	1.502113
0.215039	1.533967
0.215137	1.546066
0.215234	1.526046
0.215332	1.560832
0.215430	1.587580
0.215527	1.555919
0.215625	1.555320
0.215723	1.568924
0.215820	1.576225
0.215918	1.568507
0.216016	1.555544
0.216113	1.551552
0.216211	1.553895
0.216309	1.534835
0.216406	1.533002
0.216504	1.539051
0.216602	1.548199
0.216699	1.541422
0.216797	1.519666
0.216895	1.524758
0.216992	1.564489
0.217090	1.570256
0.217187	1.554352
0.217285	1.549176
0.217383	1.560776
0.217480	1.571775
0.217578	1.578945
0.217676	1.596773
0.217773	1.635843
0.217871	1.663176
0.217969	1.655007
0.218066	1.649784
0.218164	1.646266
0.218262	1.637410
0.218359	1.646776
0.218457	1.657512
0.218555	1.655621
0.218652	1.672824
0.218750	1.628683
0.218848	1.607273
0.218945	1.621650
0.219043	1.625591
0.219141	1.612639
0.219238	1.568169
0.219336	1.587270
0.219434	1.650292
0.219531	1.620690
0.219629	1.555032
0.219727	1.544873
0.219824	1.529073
0.219922	1.530712
0.220020	1.574069
0.220117	1.574266
0.220215	1.583000
0.220312	1.579334
0.220410	1.574382
0.220508	1.568107
0.220605	1.563637
0.220703	1.550863
0.220801	1.544970
0.220898	1.560683
0.220996	1.584297
0.221094	1.607957
0.221191	1.624211
0.221289	1.650751
0.221387	1.674232
0.221484	1.666770
0.221582	1.642773
0.221680	1.634660
0.221777	1.628648
0.221875	1.610961
0.221973	1.592255
0.222070	1.598270
0.222168	1.601147
0.222266	1.585490
0.222363	1.574803
0.222461	1.571230
0.222559	1.580895
0.222656	1.597181
0.222754	1.613143
0.222852	1.614078
0.222949	1.608486
0.223047	1.605211
0.223145	1.610349
0.223242	1.610239
0.223340	1.555458
0.223437	1.520268
0.223535	1.517301
0.223633	1.513128
0.223730	1.515112
0.223828	1.572628
0.223926	1.602163
0.224023	1.576555
0.224121	1.561573
0.224219	1.579712
0.224316	1.600505
0.224414	1.593196
0.224512	1.580462
0.224609	1.567703
0.224707	1.583037
0.224805	1.550236
0.224902	1.536391
0.225000	1.514006
0.225098	1.485610
0.225195	1.485394
0.225293	1.487960
0.225391	1.501997
0.225488	1.515811
0.225586	1.541302
0.225684	1.561460
0.225781	1.561189
0.225879	1.550498
0.225977	1.539903
0.226074	1.517567
0.226172	1.509605
0.226270	1.499758
0.226367	1.472040
0.226465	1.468508
0.226562	1.504029
0.226660	1.510144
0.226758	1.517500
0.226855	1.507686
0.226953	1.488029
0.227051	1.462117
0.227148	1.449775
0.227246	1.451993
0.227344	1.440456
0.227441	1.411384
0.227539	1.372431
0.227637	1.386814
0.227734	1.430889
0.227832	1.448418
0.227930	1.412797
0.228027	1.361876
0.228125	1.369343
0.228223	1.416946
0.228320	1.429194
0.228418	1.439384
0.228516	1.455768
0.228613	1.483568
0.228711	1.510244
0.228809	1.464643
0.228906	1.440698
0.229004	1.444536
0.229102	1.460686
0.229199	1.451733
0.229297	1.442003
0.229395	1.409213
0.229492	1.378529
0.229590	1.373747
0.229687	1.401536
0.229785	1.412770
0.229883	1.403884
0.229980	1.412229
0.230078	1.434113
0.230176	1.443733
0.230273	1.449320
0.230371	1.468055
0.230469	1.494578
0.230566	1.488952
0.230664	1.471262
0.230762	1.449730
0.230859	1.441177
0.230957	1.486395
0.231055	1.502707
0.231152	1.532512
0.231250	1.544364
0.231348	1.538508
0.231445	1.529256
0.231543	1.530585
0.231641	1.517981
0.231738	1.484375
0.231836	1.437082
0.231934	1.431400
0.232031	1.445215
0.232129	1.446817
0.232227	1.437019
0.232324	1.424639
0.232422	1.420533
0.232520	1.440190
0.232617	1.460346
0.232715	1.460474
0.232812	1.420635
0.232910	1.423284
0.233008	1.454015
0.233105	1.475171
0.233203	1.473814
0.233301	1.447735
0.233398	1.419920
0.233496	1.427351
0.233594	1.436210
0.233691	1.423264
0.233789	1.413979
0.233887	1.414342
0.233984	1.423630
0.234082	1.466522
0.234180	1.508718
0.234277	1.504770
0.234375	1.471524
0.234473	1.472226
0.234570	1.457599
0.234668	1.462667
0.234766	1.493015
0.234863	1.507719
0.234961	1.534633
0.235059	1.542966
0.235156	1.499697
0.235254	1.455074
0.235352	1.455987
0.235449	1.454401
0.235547	1.474808
0.235645	1.518988
0.235742	1.568842
0.235840	1.552749
0.235937	1.588144
0.236035	1.616634
0.236133	1.597226
0.236230	1.589927
0.236328	1.610095
0.236426	1.606923
0.236523	1.554722
0.236621	1.550934
0.236719	1.516694
0.236816	1.529271
0.236914	1.565037
0.237012	1.551750
0.237109	1.535195
0.237207	1.523055
0.237305	1.508183
0.237402	1.471231
0.237500	1.468802
0.237598	1.499239
0.237695	1.505810
0.237793	1.477419
0.237891	1.452300
0.237988	1.417932
0.238086	1.383228
0.238184	1.344202
0.238281	1.308981
0.238379	1.277592
0.238477	1.257227
0.238574	1.249461
0.238672	1.270425
0.238770	1.304315
0.238867	1.338285
0.238965	1.371862
0.239062	1.408413
0.239160	1.432437
0.239258	1.435660
0.239355	1.446178
0.239453	1.481430
0.239551	1.477065
0.239648	1.460136
0.239746	1.443046
0.239844	1.429720
0.239941	1.427013
0.240039	1.423641
0.240137	1.419024
0.240234	1.408842
0.240332	1.396157
0.240430	1.381262
0.240527	1.357684
0.240625	1.330222
0.240723	1.329407
0.240820	1.338812
0.240918	1.349256
0.241016	1.374816
0.241113	1.397995
0.241211	1.415251
0.241309	1.431253
0.241406	1.426772
0.241504	1.407418
0.241602	1.399946
0.241699	1.397095
0.241797	1.404208
0.241895	1.418941
0.241992	1.429194
0.242090	1.425107
0.242187	1.420479
0.242285	1.414511
0.242383	1.408428
0.242480	1.412438
0.242578	1.415501
0.242676	1.426862
0.242773	1.436248
0.242871	1.463481
0.242969	1.491242
0.243066	1.489736
0.243164	1.489903
0.243262	1.488642
0.243359	1.495533
0.243457	1.469675
0.243555	1.497854
0.243652	1.519888
0.243750	1.518155
0.243848	1.515910
0.243945	1.547152
0.244043	1.560105
0.244141	1.578084
0.244238	1.625828
0.244336	1.631801
0.244434	1.676607
0.244531	1.660828
0.244629	1.635800
0.244727	1.633571
0.244824	1.665390
0.244922	1.657714
0.245020	1.646247
0.245117	1.640346
0.245215	1.636698
0.245312	1.642488
0.245410	1.638225
0.245508	1.631381
0.245605	1.617083
0.245703	1.619009
0.245801	1.631899
0.245898	1.624111
0.245996	1.646077
0.246094	1.650186
0.246191	1.626358
0.246289	1.614143
0.246387	1.583968
0.246484	1.580574
0.246582	1.536687
0.246680	1.543853
0.246777	1.585240
0.246875	1.549427
0.246973	1.500706
0.247070	1.572293
0.247168	1.543697
0.247266	1.465368
0.247363	1.455393
0.247461	1.423847
0.247559	1.428720
0.247656	1.390551
0.247754	1.365767
0.247852	1.388835
0.247949	1.388768
0.248047	1.377419
0.248145	1.388918
0.248242	1.413411
0.248340	1.441982
0.248437	1.470191
0.248535	1.463731
0.248633	1.480679
0.248730	1.509316
0.248828	1.505229
0.248926	1.506011
0.249023	1.496610
0.249121	1.502110
0.249219	1.511932
0.249316	1.532318
0.249414	1.540454
0.249512	1.535389
0.249609	1.557438
0.249707	1.618293
0.249805	1.619400
0.249902	1.600410
0.250000	1.561998
0.250098	1.524808
0.250195	1.521122
0.250293	1.536512
0.250391	1.541405
0.250488	1.566436
0.250586	1.618282
0.250684	1.615452
0.250781	1.602082
0.250879	1.590722
0.250977	1.584817
0.251074	1.572573
0.251172	1.549560
0.251270	1.534145
0.251367	1.526166
0.251465	1.551273
0.251562	1.551641
0.251660	1.553153
0.251758	1.527152
0.251855	1.525937
0.251953	1.541933
0.252051	1.533780
0.252148	1.545565
0.252246	1.554420
0.252344	1.549493
0.252441	1.537115
0.252539	1.521815
0.252637	1.521665
0.252734	1.537519
0.252832	1.532647
0.252930	1.519115
0.253027	1.498614
0.253125	1.532161
0.253223	1.546130
0.253320	1.534181
0.253418	1.528248
0.253516	1.542847
0.253613	1.536985
0.253711	1.529495
0.253809	1.535259
0.253906	1.565482
0.254004	1.566413
0.254102	1.587470
0.254199	1.580180
0.254297	1.573720
0.254395	1.575531
0.254492	1.572168
0.254590	1.578616
0.254687	1.583698
0.254785	1.575377
0.254883	1.555604
0.254980	1.551855
0.255078	1.554485
0.255176	1.539334
0.255273	1.504140
0.255371	1.487258
0.255469	1.495335
0.255566	1.497210
0.255664	1.490378
0.255762	1.496401
0.255859	1.496478
0.255957	1.488364
0.256055	1.483647
0.256152	1.484727
0.256250	1.485540
0.256348	1.481503
0.256445	1.469166
0.256543	1.483754
0.256641	1.497488
0.256738	1.514932
0.256836	1.527339
0.256934	1.534406
0.257031	1.553462
0.257129	1.545759
0.257227	1.551610
0.257324	1.552758
0.257422	1.548364
0.257520	1.538657
0.257617	1.533584
0.257715	1.530131
0.257812	1.528374
0.257910	1.534774
0.258008	1.532393
0.258105	1.510748
0.258203	1.499043
0.258301	1.488478
0.258398	1.477961
0.258496	1.469057
0.258594	1.452844
0.258691	1.430171
0.258789	1.418650
0.258887	1.415850
0.258984	1.410562
0.259082	1.400256
0.259180	1.396342
0.259277	1.414237
0.259375	1.435445
0.259473	1.449398
0.259570	1.446087
0.259668	1.437794
0.259766	1.421962
0.259863	1.406216
0.259961	1.407340
0.260059	1.421275
0.260156	1.425180
0.260254	1.443038
0.260352	1.483841
0.260449	1.511957
0.260547	1.517236
0.260645	1.505573
0.260742	1.494532
0.260840	1.482896
0.260937	1.464865
0.261035	1.455677
0.261133	1.459619
0.261230	1.474420
0.261328	1.492730
0.261426	1.494629
0.261523	1.492730
0.261621	1.496405
0.261719	1.502382
0.261816	1.504595
0.261914	1.513634
0.262012	1.512078
0.262109	1.539757
0.262207	1.539440
0.262305	1.512986
0.262402	1.496418
0.262500	1.463954
0.262598	1.462512
0.262695	1.463552
0.262793	1.455814
0.262891	1.448459
0.262988	1.452809
0.263086	1.447766
0.263184	1.437428
0.263281	1.439318
0.263379	1.444632
0.263477	1.438260
0.263574	1.428400
0.263672	1.409105
0.263770	1.406488
0.263867	1.424626
0.263965	1.435835
0.264062	1.439850
0.264160	1.448576
0.264258	1.457656
0.264355	1.445286
0.264453	1.415178
0.264551	1.376805
0.264648	1.354873
0.264746	1.356330
0.264844	1.345069
0.264941	1.328958
0.265039	1.326768
0.265137	1.360952
0.265234	1.385049
0.265332	1.371445
0.265430	1.349618
0.265527	1.434343
0.265625	1.502887
0.265723	1.510168
0.265820	1.545104
0.265918	1.525353
0.266016	1.526668
0.266113	1.560151
0.266211	1.542144
0.266309	1.470907
0.266406	1.430138
0.266504	1.513020
0.266602	1.508157
0.266699	1.450973
0.266797	1.413566
0.266895	1.351196
0.266992	1.341528
0.267090	1.322295
0.267187	1.325317
0.267285	1.341266
0.267383	1.363091
0.267480	1.417301
0.267578	1.451538
0.267676	1.415643
0.267773	1.426508
0.267871	1.475857
0.267969	1.469936
0.268066	1.459550
0.268164	1.444352
0.268262	1.428674
0.268359	1.406610
0.268457	1.381752
0.268555	1.359294
0.268652	1.359565
0.268750	1.402761
0.268848	1.447459
0.268945	1.452437
0.269043	1.441268
0.269141	1.416017
0.269238	1.393676
0.269336	1.373360
0.269434	1.359076
0.269531	1.348582
0.269629	1.342943
0.269727	1.338959
0.269824	1.355775
0.269922	1.395241
0.270020	1.425796
0.270117	1.438884
0.270215	1.464334
0.270312	1.495999
0.270410	1.508798
0.270508	1.502403
0.270605	1.480026
0.270703	1.469688
0.270801	1.487854
0.270898	1.505110
0.270996	1.519810
0.271094	1.518313
0.271191	1.522115
0.271289	1.575389
0.271387	1.583903
0.271484	1.550171
0.271582	1.542831
0.271680	1.556306
0.271777	1.541797
0.271875	1.522057
0.271973	1.499886
0.272070	1.483215
0.272168	1.477337
0.272266	1.471908
0.272363	1.451980
0.272461	1.464793
0.272559	1.447294
0.272656	1.432013
0.272754	1.446749
0.272852	1.482105
0.272949	1.505755
0.273047	1.500013
0.273145	1.491361
0.273242	1.499234
0.273340	1.527599
0.273437	1.507011
0.273535	1.534309
0.273633	1.544684
0.273730	1.516148
0.273828	1.488972
0.273926	1.488892
0.274023	1.497149
0.274121	1.547975
0.274219	1.525583
0.274316	1.497115
0.274414	1.479235
0.274512	1.448821
0.274609	1.485508
0.274707	1.499013
0.274805	1.474891
0.274902	1.507784
0.275000	1.526391
0.275098	1.478844
0.275195	1.470071
0.275293	1.482964
0.275391	1.481200
0.275488	1.500351
0.275586	1.513687
0.275684	1.556486
0.275781	1.598797
0.275879	1.605659
0.275977	1.604256
0.276074	1.586713
0.276172	1.586667
0.276270	1.590482
0.276367	1.590530
0.276465	1.616321
0.276562	1.604876
0.276660	1.589349
0.276758	1.585218
0.276855	1.583966
0.276953	1.611285
0.277051	1.613399
0.277148	1.629041
0.277246	1.629200
0.277344	1.622840
0.277441	1.641224
0.277539	1.652160
0.277637	1.646623
0.277734	1.635794
0.277832	1.622822
0.277930	1.618729
0.278027	1.618816
0.278125	1.612396
0.278223	1.592087
0.278320	1.579093
0.278418	1.571404
0.278516	1.566736
0.278613	1.580238
0.278711	1.594239
0.278809	1.584766
0.278906	1.566207
0.279004	1.556003
0.279102	1.564120
0.279199	1.563648
0.279297	1.552029
0.279395	1.563279
0.279492	1.556460
0.279590	1.526731
0.279687	1.503617
0.279785	1.504554
0.279883	1.515025
0.279980	1.517998
0.280078	1.550857
0.280176	1.559672
0.280273	1.510590
0.280371	1.521074
0.280469	1.580106
0.280566	1.624261
0.280664	1.627195
0.280762	1.593863
0.280859	1.626714
0.280957	1.602554
0.281055	1.578639
0.281152	1.560066
0.281250	1.540529
0.281348	1.518662
0.281445	1.519653
0.281543	1.514607
0.281641	1.496545
0.281738	1.504966
0.281836	1.502743
0.281934	1.489702
0.282031	1.466994
0.282129	1.449603
0.282227	1.463104
0.282324	1.473366
0.282422	1.459585
0.282520	1.450599
0.282617	1.459898
0.282715	1.484799
0.282812	1.462882
0.282910	1.413814
0.283008	1.429800
0.283105	1.449959
0.283203	1.437028
0.283301	1.457736
0.283398	1.466991
0.283496	1.447989
0.283594	1.477765
0.283691	1.502499
0.283789	1.491489
0.283887	1.483138
0.283984	1.463772
0.284082	1.432814
0.284180	1.430945
0.284277	1.436132
0.284375	1.401047
0.284473	1.404767
0.284570	1.406875
0.284668	1.415707
0.284766	1.555523
0.284863	1.559747
0.284961	1.511442
0.285059	1.485801
0.285156	1.544549
0.285254	1.573700
0.285352	1.546622
0.285449	1.518288
0.285547	1.553712
0.285645	1.549694
0.285742	1.537947
0.285840	1.533782
0.285937	1.518387
0.286035	1.527200
0.286133	1.526709
0.286230	1.510083
0.286328	1.514584
0.286426	1.572593
0.286523	1.544244
0.286621	1.530959
0.286719	1.542686
0.286816	1.544544
0.286914	1.542904
0.287012	1.551329
0.287109	1.568819
0.287207	1.559426
0.287305	1.564290
0.287402	1.592746
0.287500	1.594935
0.287598	1.594765
0.287695	1.612526
0.287793	1.564208
0.287891	1.566737
0.287988	1.548507
0.288086	1.527190
0.288184	1.519099
0.288281	1.518772
0.288379	1.521870
0.288477	1.506519
0.288574	1.501056
0.288672	1.504739
0.288770	1.544170
0.288867	1.618418
0.288965	1.589667
0.289062	1.543459
0.289160	1.496896
0.289258	1.483880
0.289355	1.525205
0.289453	1.542785
0.289551	1.547818
0.289648	1.551282
0.289746	1.564278
0.289844	1.568644
0.289941	1.548489
0.290039	1.521954
0.290137	1.504542
0.290234	1.510104
0.290332	1.527746
0.290430	1.507461
0.290527	1.505919
0.290625	1.555243
0.290723	1.554450
0.290820	1.558376
0.290918	1.544133
0.291016	1.529862
0.291113	1.511252
0.291211	1.507896
0.291309	1.534402
0.291406	1.541262
0.291504	1.524775
0.291602	1.493542
0.291699	1.520419
0.291797	1.517776
0.291895	1.449320
0.291992	1.376330
0.292090	1.340923
0.292187	1.314917
0.292285	1.338772
0.292383	1.368260
0.292480	1.386196
0.292578	1.367968
0.292676	1.366566
0.292773	1.375450
0.292871	1.428838
0.292969	1.477571
0.293066	1.435841
0.293164	1.390586
0.293262	1.353341
0.293359	1.333684
0.293457	1.325110
0.293555	1.289652
0.293652	1.287120
0.293750	1.329927
0.293848	1.353663
0.293945	1.415387
0.294043	1.463975
0.294141	1.496939
0.294238	1.501514
0.294336	1.500731
0.294434	1.498578
0.294531	1.456922
0.294629	1.423982
0.294727	1.411183
0.294824	1.391397
0.294922	1.369311
0.295020	1.351608
0.295117	1.348190
0.295215	1.343276
0.295312	1.310473
0.295410	1.315284
0.295508	1.422283
0.295605	1.447615
0.295703	1.381051
0.295801	1.310734
0.295898	1.355456
0.295996	1.442624
0.296094	1.469159
0.296191	1.506432
0.296289	1.501628
0.296387	1.487345
0.296484	1.483841
0.296582	1.481688
0.296680	1.527286
0.296777	1.527516
0.296875	1.496063
0.296973	1.428158
0.297070	1.417493
0.297168	1.472679
0.297266	1.454315
0.297363	1.511020
0.297461	1.505675
0.297559	1.426281
0.297656	1.448842
0.297754	1.500535
0.297852	1.523304
0.297949	1.534442
0.298047	1.497622
0.298145	1.491790
0.298242	1.515086
0.298340	1.514351
0.298437	1.521384
0.298535	1.531999
0.298633	1.537049
0.298730	1.545974
0.298828	1.544411
0.298926	1.473115
0.299023	1.511325
0.299121	1.541206
0.299219	1.508356
0.299316	1.505074
0.299414	1.547154
0.299512	1.516442
0.299609	1.497863
0.299707	1.517582
0.299805	1.561752
0.299902	1.625332
0.300000	1.537905
0.300098	1.480727
0.300195	1.464613
0.300293	1.494055
0.300391	1.507246
0.300488	1.570785
0.300586	1.632807
0.300684	1.600430
0.300781	1.599795
0.300879	1.606480
0.300977	1.589963
0.301074	1.558765
0.301172	1.534808
0.301270	1.514179
0.301367	1.499905
0.301465	1.475458
0.301562	1.464088
0.301660	1.453195
0.301758	1.438645
0.301855	1.475926
0.301953	1.508208
0.302051	1.507176
0.302148	1.471868
0.302246	1.440640
0.302344	1.395553
0.302441	1.348815
0.302539	1.329318
0.302637	1.317978
0.302734	1.341350
0.302832	1.356400
0.302930	1.384610
0.303027	1.432215
0.303125	1.423560
0.303223	1.406094
0.303320	1.391416
0.303418	1.366217
0.303516	1.365505
0.303613	1.384064
0.303711	1.438175
0.303809	1.512059
0.303906	1.546417
0.304004	1.571801
0.304102	1.575439
0.304199	1.573653
0.304297	1.538851
0.304395	1.524201
0.304492	1.524611
0.304590	1.519831
0.304687	1.500116
0.304785	1.501046
0.304883	1.518590
0.304980	1.498759
0.305078	1.495714
0.305176	1.483319
0.305273	1.458513
0.305371	1.457597
0.305469	1.462725
0.305566	1.432843
0.305664	1.449513
0.305762	1.449833
0.305859	1.441383
0.305957	1.468488
0.306055	1.486968
0.306152	1.460801
0.306250	1.436599
0.306348	1.424799
0.306445	1.432918
0.306543	1.447688
0.306641	1.469906
0.306738	1.475884
0.306836	1.467429
0.306934	1.445832
0.307031	1.437680
0.307129	1.438614
0.307227	1.429965
0.307324	1.420846
0.307422	1.402885
0.307520	1.395885
0.307617	1.422555
0.307715	1.459646
0.307812	1.490776
0.307910	1.550316
0.308008	1.612791
0.308105	1.608700
0.308203	1.575735
0.308301	1.567906
0.308398	1.573174
0.308496	1.570294
0.308594	1.545525
0.308691	1.543499
0.308789	1.540421
0.308887	1.501842
0.308984	1.502642
0.309082	1.510041
0.309180	1.500740
0.309277	1.483293
0.309375	1.486651
0.309473	1.524654
0.309570	1.552126
0.309668	1.526269
0.309766	1.508566
0.309863	1.490378
0.309961	1.474377
0.310059	1.471662
0.310156	1.469780
0.310254	1.442481
0.310352	1.416709
0.310449	1.403973
0.310547	1.419078
0.310645	1.457504
0.310742	1.517118
0.310840	1.551294
0.310937	1.568476
0.311035	1.606181
0.311133	1.621498
0.311230	1.618254
0.311328	1.629844
0.311426	1.627757
0.311523	1.623362
0.311621	1.619377
0.311719	1.615478
0.311816	1.618715
0.311914	1.604846
0.312012	1.600877
0.312109	1.603143
0.312207	1.579967
0.312305	1.562288
0.312402	1.561165
0.312500	1.557782
0.312598	1.551012
0.312695	1.526524
0.312793	1.516702
0.312891	1.499455
0.312988	1.466077
0.313086	1.457935
0.313184	1.474065
0.313281	1.489824
0.313379	1.507509
0.313477	1.509192
0.313574	1.501991
0.313672	1.497250
0.313770	1.490163
0.313867	1.476991
0.313965	1.461821
0.314062	1.454104
0.314160	1.440599
0.314258	1.418098
0.314355	1.379934
0.314453	1.338964
0.314551	1.307878
0.314648	1.285516
0.314746	1.269308
0.314844	1.261209
0.314941	1.260542
0.315039	1.264623
0.315137	1.266576
0.315234	1.263622
0.315332	1.257611
0.315430	1.254390
0.315527	1.256530
0.315625	1.261281
0.315723	1.263323
0.315820	1.263604
0.315918	1.265379
0.316016	1.270603
0.316113	1.274286
0.316211	1.277810
0.316309	1.281341
0.316406	1.279991
0.316504	1.276523
0.316602	1.277449
0.316699	1.282842
0.316797	1.301675
0.316895	1.341434
0.316992	1.411823
0.317090	1.444293
0.317187	1.429163
0.317285	1.421734
0.317383	1.405462
0.317480	1.388599
0.317578	1.368872
0.317676	1.363037
0.317773	1.382698
0.317871	1.391832
0.317969	1.388131
0.318066	1.387212
0.318164	1.379917
0.318262	1.364991
0.318359	1.352586
0.318457	1.359036
0.318555	1.374973
0.318652	1.375609
0.318750	1.361888
0.318848	1.354023
0.318945	1.359826
0.319043	1.372088
0.319141	1.381313
0.319238	1.406865
0.319336	1.453148
0.319434	1.488969
0.319531	1.493481
0.319629	1.479808
0.319727	1.485003
0.319824	1.500010
0.319922	1.522125
0.320020	1.521384
0.320117	1.513415
0.320215	1.510858
0.320312	1.502218
0.320410	1.494462
0.320508	1.490016
0.320605	1.479611
0.320703	1.461388
0.320801	1.456971
0.320898	1.471076
0.320996	1.502751
0.321094	1.516595
0.321191	1.509035
0.321289	1.505216
0.321387	1.499425
0.321484	1.477735
0.321582	1.439725
0.321680	1.403003
0.321777	1.384259
0.321875	1.385305
0.321973	1.413917
0.322070	1.437328
0.322168	1.453377
0.322266	1.462107
0.322363	1.464020
0.322461	1.457985
0.322559	1.449322
0.322656	1.450139
0.322754	1.454034
0.322852	1.454243
0.322949	1.453153
0.323047	1.450884
0.323145	1.447897
0.323242	1.445108
0.323340	1.443906
0.323437	1.444841
0.323535	1.445728
0.323633	1.444409
0.323730	1.438209
0.323828	1.429146
0.323926	1.417488
0.324023	1.403709
0.324121	1.389884
0.324219	1.376635
0.324316	1.365500
0.324414	1.355239
0.324512	1.346277
0.324609	1.340992
0.324707	1.337609
0.324805	1.333919
0.324902	1.329101
0.325000	1.322945
0.325098	1.316630
0.325195	1.310953
0.325293	1.305585
0.325391	1.299510
0.325488	1.292161
0.325586	1.283222
0.325684	1.272494
0.325781	1.259937
0.325879	1.246036
0.325977	1.231627
0.326074	1.218790
0.326172	1.208779
0.326270	1.205011
0.326367	1.209075
0.326465	1.222398
0.326562	1.242220
0.326660	1.267607
0.326758	1.292562
0.326855	1.314956
0.326953	1.331417
0.327051	1.350825
0.327148	1.372633
0.327246	1.402371
0.327344	1.425731
0.327441	1.473832
0.327539	1.494475
0.327637	1.490157
0.327734	1.494254
0.327832	1.480251
0.327930	1.486605
0.328027	1.512842
0.328125	1.528244
0.328223	1.540825
0.328320	1.583466
0.328418	1.566571
0.328516	1.545709
0.328613	1.527000
0.328711	1.478682
0.328809	1.446063
0.328906	1.415889
0.329004	1.427136
0.329102	1.438206
0.329199	1.480262
0.329297	1.505083
0.329395	1.522423
0.329492	1.518328
0.329590	1.510902
0.329687	1.508521
0.329785	1.506306
0.329883	1.527446
0.329980	1.587028
0.330078	1.566784
0.330176	1.518967
0.330273	1.527046
0.330371	1.559215
0.330469	1.520602
0.330566	1.520677
0.330664	1.534740
0.330762	1.541810
0.330859	1.556028
0.330957	1.529556
0.331055	1.539006
0.331152	1.548735
0.331250	1.569970
0.331348	1.576953
0.331445	1.568960
0.331543	1.582513
0.331641	1.596872
0.331738	1.574780
0.331836	1.601244
0.331934	1.629900
0.332031	1.656658
0.332129	1.635569
0.332227	1.633908
0.332324	1.631854
0.332422	1.620017
0.332520	1.613669
0.332617	1.667956
0.332715	1.660085
0.332812	1.652144
0.332910	1.620182
0.333008	1.604528
0.333105	1.626295
0.333203	1.661480
0.333301	1.672380
0.333398	1.668344
0.333496	1.655310
0.333594	1.669316
0.333691	1.674000
0.333789	1.633407
0.333887	1.668071
0.333984	1.712179
0.334082	1.747753
0.334180	1.701683
0.334277	1.664307
0.334375	1.656305
0.334473	1.644816
0.334570	1.687903
0.334668	1.707427
0.334766	1.678774
0.334863	1.689398
0.334961	1.693035
0.335059	1.675622
0.335156	1.665797
0.335254	1.684075
0.335352	1.687183
0.335449	1.660480
0.335547	1.646154
0.335645	1.646521
0.335742	1.650463
0.335840	1.655496
0.335937	1.659649
0.336035	1.649599
0.336133	1.645172
0.336230	1.629902
0.336328	1.602451
0.336426	1.572424
0.336523	1.555671
0.336621	1.558963
0.336719	1.565694
0.336816	1.570763
0.336914	1.569693
0.337012	1.544247
0.337109	1.542808
0.337207	1.539947
0.337305	1.539637
0.337402	1.549484
0.337500	1.541763
0.337598	1.546608
0.337695	1.550927
0.337793	1.546067
0.337891	1.534283
0.337988	1.525216
0.338086	1.501309
0.338184	1.458819
0.338281	1.454676
0.338379	1.470573
0.338477	1.492000
0.338574	1.523574
0.338672	1.534422
0.338770	1.569197
0.338867	1.523285
0.338965	1.448995
0.339062	1.426918
0.339160	1.448094
0.339258	1.477366
0.339355	1.403104
0.339453	1.412764
0.339551	1.396082
0.339648	1.372774
0.339746	1.388170
0.339844	1.393177
0.339941	1.377050
0.340039	1.373223
0.340137	1.461511
0.340234	1.481518
0.340332	1.574748
0.340430	1.593892
0.340527	1.564975
0.340625	1.549193
0.340723	1.532501
0.340820	1.531291
0.340918	1.549756
0.341016	1.544568
0.341113	1.531319
0.341211	1.512569
0.341309	1.488757
0.341406	1.491936
0.341504	1.480090
0.341602	1.437566
0.341699	1.389228
0.341797	1.367667
0.341895	1.400546
0.341992	1.419682
0.342090	1.429731
0.342187	1.448600
0.342285	1.444989
0.342383	1.469451
0.342480	1.470824
0.342578	1.464476
0.342676	1.452557
0.342773	1.449674
0.342871	1.450508
0.342969	1.442648
0.343066	1.429890
0.343164	1.417033
0.343262	1.438325
0.343359	1.421554
0.343457	1.421720
0.343555	1.449257
0.343652	1.451675
0.343750	1.468543
0.343848	1.477790
0.343945	1.483312
0.344043	1.466442
0.344141	1.450055
0.344238	1.458192
0.344336	1.470709
0.344434	1.474732
0.344531	1.470556
0.344629	1.445045
0.344727	1.424122
0.344824	1.449487
0.344922	1.459234
0.345020	1.452951
0.345117	1.441276
0.345215	1.435013
0.345312	1.440577
0.345410	1.437881
0.345508	1.427142
0.345605	1.424268
0.345703	1.420086
0.345801	1.412613
0.345898	1.406252
0.345996	1.402104
0.346094	1.402087
0.346191	1.411065
0.346289	1.426893
0.346387	1.428225
0.346484	1.439440
0.346582	1.445288
0.346680	1.443310
0.346777	1.441538
0.346875	1.424575
0.346973	1.409714
0.347070	1.380369
0.347168	1.354520
0.347266	1.339159
0.347363	1.355938
0.347461	1.366660
0.347559	1.370483
0.347656	1.364937
0.347754	1.372410
0.347852	1.414228
0.347949	1.461300
0.348047	1.474214
0.348145	1.501384
0.348242	1.508192
0.348340	1.527260
0.348437	1.518875
0.348535	1.516656
0.348633	1.537444
0.348730	1.547601
0.348828	1.539976
0.348926	1.519592
0.349023	1.530054
0.349121	1.511668
0.349219	1.491236
0.349316	1.474863
0.349414	1.455328
0.349512	1.459367
0.349609	1.484249
0.349707	1.486766
0.349805	1.503436
0.349902	1.531864
0.350000	1.555038
0.350098	1.541701
0.350195	1.549552
0.350293	1.539308
0.350391	1.525926
0.350488	1.523304
0.350586	1.524539
0.350684	1.529387
0.350781	1.549376
0.350879	1.552664
0.350977	1.558956
0.351074	1.533097
0.351172	1.488386
0.351270	1.471697
0.351367	1.452987
0.351465	1.428261
0.351562	1.417586
0.351660	1.400495
0.351758	1.371192
0.351855	1.371355
0.351953	1.420984
0.352051	1.462533
0.352148	1.471491
0.352246	1.465097
0.352344	1.455887
0.352441	1.453121
0.352539	1.473691
0.352637	1.489342
0.352734	1.491671
0.352832	1.494387
0.352930	1.491057
0.353027	1.492653
0.353125	1.486103
0.353223	1.456714
0.353320	1.439338
0.353418	1.428050
0.353516	1.432419
0.353613	1.431476
0.353711	1.436998
0.353809	1.447396
0.353906	1.455041
0.354004	1.442288
0.354102	1.433576
0.354199	1.446657
0.354297	1.466296
0.354395	1.466802
0.354492	1.458925
0.354590	1.459030
0.354687	1.452279
0.354785	1.451925
0.354883	1.441203
0.354980	1.430489
0.355078	1.446884
0.355176	1.456338
0.355273	1.440080
0.355371	1.431574
0.355469	1.468678
0.355566	1.449409
0.355664	1.437444
0.355762	1.423912
0.355859	1.404249
0.355957	1.394139
0.356055	1.395451
0.356152	1.376263
0.356250	1.347962
0.356348	1.311254
0.356445	1.270421
0.356543	1.249154
0.356641	1.237757
0.356738	1.232321
0.356836	1.248120
0.356934	1.263360
0.357031	1.312514
0.357129	1.383571
0.357227	1.431970
0.357324	1.437010
0.357422	1.423114
0.357520	1.405456
0.357617	1.407366
0.357715	1.373962
0.357812	1.424479
0.357910	1.514012
0.358008	1.503863
0.358105	1.490486
0.358203	1.453516
0.358301	1.441251
0.358398	1.428878
0.358496	1.477654
0.358594	1.520364
0.358691	1.515336
0.358789	1.502775
0.358887	1.482486
0.358984	1.482329
0.359082	1.483136
0.359180	1.467243
0.359277	1.463151
0.359375	1.500983
0.359473	1.553776
0.359570	1.563655
0.359668	1.554868
0.359766	1.541248
0.359863	1.527081
0.359961	1.514063
0.360059	1.485926
0.360156	1.447807
0.360254	1.447783
0.360352	1.458866
0.360449	1.474717
0.360547	1.475385
0.360645	1.456319
0.360742	1.448451
0.360840	1.456701
0.360937	1.450888
0.361035	1.463063
0.361133	1.491972
0.361230	1.502983
0.361328	1.501461
0.361426	1.495759
0.361523	1.473056
0.361621	1.474690
0.361719	1.469282
0.361816	1.480926
0.361914	1.454516
0.362012	1.470919
0.362109	1.466291
0.362207	1.448979
0.362305	1.432062
0.362402	1.438424
0.362500	1.446992
0.362598	1.435957
0.362695	1.434429
0.362793	1.426762
0.362891	1.430638
0.362988	1.422012
0.363086	1.404803
0.363184	1.392585
0.363281	1.380570
0.363379	1.371638
0.363477	1.380197
0.363574	1.385021
0.363672	1.400037
0.363770	1.387218
0.363867	1.354814
0.363965	1.303295
0.364062	1.390756
0.364160	1.452136
0.364258	1.431171
0.364355	1.430799
0.364453	1.416831
0.364551	1.398856
0.364648	1.358114
0.364746	1.318596
0.364844	1.309424
0.364941	1.303661
0.365039	1.318247
0.365137	1.352850
0.365234	1.360857
0.365332	1.367174
0.365430	1.363760
0.365527	1.381377
0.365625	1.403867
0.365723	1.406677
0.365820	1.408052
0.365918	1.397944
0.366016	1.379874
0.366113	1.362043
0.366211	1.375655
0.366309	1.393337
0.366406	1.414243
0.366504	1.442429
0.366602	1.466107
0.366699	1.466593
0.366797	1.459881
0.366895	1.437483
0.366992	1.382642
0.367090	1.410874
0.367187	1.461848
0.367285	1.448248
0.367383	1.427185
0.367480	1.415488
0.367578	1.375312
0.367676	1.351248
0.367773	1.415050
0.367871	1.426602
0.367969	1.391915
0.368066	1.366027
0.368164	1.367711
0.368262	1.391039
0.368359	1.404166
0.368457	1.415061
0.368555	1.414701
0.368652	1.391247
0.368750	1.365909
0.368848	1.337011
0.368945	1.354474
0.369043	1.405703
0.369141	1.435325
0.369238	1.456875
0.369336	1.469906
0.369434	1.478605
0.369531	1.471326
0.369629	1.457039
0.369727	1.423744
0.369824	1.397644
0.369922	1.392465
0.370020	1.383847
0.370117	1.376116
0.370215	1.368395
0.370312	1.410830
0.370410	1.463923
0.370508	1.481939
0.370605	1.498706
0.370703	1.474618
0.370801	1.419477
0.370898	1.394285
0.370996	1.439387
0.371094	1.460935
0.371191	1.436873
0.371289	1.433851
0.371387	1.428898
0.371484	1.423377
0.371582	1.430430
0.371680	1.433878
0.371777	1.440873
0.371875	1.422010
0.371973	1.399629
0.372070	1.427858
0.372168	1.433865
0.372266	1.447599
0.372363	1.465584
0.372461	1.484597
0.372559	1.498364
0.372656	1.516776
0.372754	1.505942
0.372852	1.485533
0.372949	1.467725
0.373047	1.479330
0.373145	1.498871
0.373242	1.483386
0.373340	1.474596
0.373437	1.493005
0.373535	1.535665
0.373633	1.567780
0.373730	1.582455
0.373828	1.589555
0.373926	1.584000
0.374023	1.554386
0.374121	1.545546
0.374219	1.544411
0.374316	1.522642
0.374414	1.514556
0.374512	1.533405
0.374609	1.538978
0.374707	1.541987
0.374805	1.519426
0.374902	1.502173
0.375000	1.487963
0.375098	1.465384
0.375195	1.362521
0.375293	1.371252
0.375391	1.358641
0.375488	1.410407
0.375586	1.511101
0.375684	1.494351
0.375781	1.533391
0.375879	1.487766
0.375977	1.455712
0.376074	1.417724
0.376172	1.446166
0.376270	1.465054
0.376367	1.523461
0.376465	1.569838
0.376562	1.575536
0.376660	1.585161
0.376758	1.600749
0.376855	1.605763
0.376953	1.609350
0.377051	1.591289
0.377148	1.578486
0.377246	1.549133
0.377344	1.556577
0.377441	1.596425
0.377539	1.604746
0.377637	1.594977
0.377734	1.592649
0.377832	1.593130
0.377930	1.519603
0.378027	1.474640
0.378125	1.525121
0.378223	1.531217
0.378320	1.514902
0.378418	1.513377
0.378516	1.523557
0.378613	1.532798
0.378711	1.509515
0.378809	1.515548
0.378906	1.543300
0.379004	1.548328
0.379102	1.519676
0.379199	1.482643
0.379297	1.490657
0.379395	1.498884
0.379492	1.496038
0.379590	1.486876
0.379687	1.473883
0.379785	1.458383
0.379883	1.447931
0.379980	1.442789
0.380078	1.439048
0.380176	1.413268
0.380273	1.405475
0.380371	1.408628
0.380469	1.401840
0.380566	1.392031
0.380664	1.379357
0.380762	1.371994
0.380859	1.370410
0.380957	1.376844
0.381055	1.377737
0.381152	1.373810
0.381250	1.354454
0.381348	1.325771
0.381445	1.298435
0.381543	1.285370
0.381641	1.276112
0.381738	1.267952
0.381836	1.263432
0.381934	1.259258
0.382031	1.258481
0.382129	1.268343
0.382227	1.278523
0.382324	1.289816
0.382422	1.303838
0.382520	1.303639
0.382617	1.290452
0.382715	1.268490
0.382812	1.244162
0.382910	1.233617
0.383008	1.233928
0.383105	1.235528
0.383203	1.234628
0.383301	1.233925
0.383398	1.237256
0.383496	1.248168
0.383594	1.262055
0.383691	1.266840
0.383789	1.265584
0.383887	1.261189
0.383984	1.254978
0.384082	1.249152
0.384180	1.269344
0.384277	1.312837
0.384375	1.332055
0.384473	1.322564
0.384570	1.300616
0.384668	1.281189
0.384766	1.272290
0.384863	1.269635
0.384961	1.257071
0.385059	1.239976
0.385156	1.235901
0.385254	1.246696
0.385352	1.257327
0.385449	1.259121
0.385547	1.258146
0.385645	1.259381
0.385742	1.262537
0.385840	1.271107
0.385937	1.288177
0.386035	1.312691
0.386133	1.337731
0.386230	1.353314
0.386328	1.359248
0.386426	1.363526
0.386523	1.365913
0.386621	1.363322
0.386719	1.359010
0.386816	1.362863
0.386914	1.363228
0.387012	1.350382
0.387109	1.351399
0.387207	1.357421
0.387305	1.357098
0.387402	1.355872
0.387500	1.353718
0.387598	1.331415
0.387695	1.311145
0.387793	1.351236
0.387891	1.369067
0.387988	1.378583
0.388086	1.400700
0.388184	1.439076
0.388281	1.431661
0.388379	1.421972
0.388477	1.426530
0.388574	1.410981
0.388672	1.379355
0.388770	1.375004
0.388867	1.396448
0.388965	1.437759
0.389062	1.446742
0.389160	1.422232
0.389258	1.456398
0.389355	1.471777
0.389453	1.463151
0.389551	1.457343
0.389648	1.426540
0.389746	1.405704
0.389844	1.454954
0.389941	1.490236
0.390039	1.493333
0.390137	1.476049
0.390234	1.430525
0.390332	1.442335
0.390430	1.490727
0.390527	1.484759
0.390625	1.464492
0.390723	1.496571
0.390820	1.510008
0.390918	1.478850
0.391016	1.477523
0.391113	1.487053
0.391211	1.502231
0.391309	1.486315
0.391406	1.486210
0.391504	1.452584
0.391602	1.424159
0.391699	1.463035
0.391797	1.449298
0.391895	1.372496
0.391992	1.374716
0.392090	1.373423
0.392187	1.324781
0.392285	1.330555
0.392383	1.414692
0.392480	1.426245
0.392578	1.441458
0.392676	1.443918
0.392773	1.441245
0.392871	1.452413
0.392969	1.505042
0.393066	1.577347
0.393164	1.544247
0.393262	1.467846
0.393359	1.463362
0.393457	1.494768
0.393555	1.497117
0.393652	1.488758
0.393750	1.476535
0.393848	1.461481
0.393945	1.454603
0.394043	1.426499
0.394141	1.389742
0.394238	1.373065
0.394336	1.381481
0.394434	1.359454
0.394531	1.357952
0.394629	1.365866
0.394727	1.412109
0.394824	1.464051
0.394922	1.458929
0.395020	1.462884
0.395117	1.445540
0.395215	1.422200
0.395312	1.407730
0.395410	1.402914
0.395508	1.412428
0.395605	1.413469
0.395703	1.423120
0.395801	1.422120
0.395898	1.416340
0.395996	1.433039
0.396094	1.438430
0.396191	1.455248
0.396289	1.453979
0.396387	1.443025
0.396484	1.455698
0.396582	1.464789
0.396680	1.409972
0.396777	1.391328
0.396875	1.424694
0.396973	1.427581
0.397070	1.420743
0.397168	1.419806
0.397266	1.416804
0.397363	1.405274
0.397461	1.403645
0.397559	1.410472
0.397656	1.426805
0.397754	1.445396
0.397852	1.477524
0.397949	1.475982
0.398047	1.446737
0.398145	1.472861
0.398242	1.505556
0.398340	1.494137
0.398437	1.468746
0.398535	1.472874
0.398633	1.477538
0.398730	1.488410
0.398828	1.494569
0.398926	1.499260
0.399023	1.481967
0.399121	1.471069
0.399219	1.466796
0.399316	1.490974
0.399414	1.531695
0.399512	1.459542
0.399609	1.426285
0.399707	1.482036
0.399805	1.504203
0.399902	1.510310
0.400000	1.512644
0.400098	1.491073
0.400195	1.518678
0.400293	1.543950
0.400391	1.535751
0.400488	1.517109
0.400586	1.509809
0.400684	1.445841
0.400781	1.432499
0.400879	1.541160
0.400977	1.544280
0.401074	1.545133
0.401172	1.537965
0.401270	1.544414
0.401367	1.536900
0.401465	1.553737
0.401562	1.547037
0.401660	1.533494
0.401758	1.499856
0.401855	1.508292
0.401953	1.496861
0.402051	1.474052
0.402148	1.467290
0.402246	1.460020
0.402344	1.457659
0.402441	1.456629
0.402539	1.450166
0.402637	1.456086
0.402734	1.473221
0.402832	1.489904
0.402930	1.501825
0.403027	1.489729
0.403125	1.462031
0.403223	1.448966
0.403320	1.434766
0.403418	1.453782
0.403516	1.495112
0.403613	1.509031
0.403711	1.485751
0.403809	1.442142
0.403906	1.410776
0.404004	1.433643
0.404102	1.475396
0.404199	1.489999
0.404297	1.485452
0.404395	1.463052
0.404492	1.416764
0.404590	1.412267
0.404687	1.494561
0.404785	1.490861
0.404883	1.467318
0.404980	1.427392
0.405078	1.398214
0.405176	1.393317
0.405273	1.377706
0.405371	1.392774
0.405469	1.438215
0.405566	1.449719
0.405664	1.469469
0.405762	1.440993
0.405859	1.437564
0.405957	1.449760
0.406055	1.460109
0.406152	1.457146
0.406250	1.451447
0.406348	1.437147
0.406445	1.413371
0.406543	1.426158
0.406641	1.457154
0.406738	1.472356
0.406836	1.475581
0.406934	1.486490
0.407031	1.504160
0.407129	1.494522
0.407227	1.496587
0.407324	1.501078
0.407422	1.505663
0.407520	1.510731
0.407617	1.506029
0.407715	1.561543
0.407812	1.588208
0.407910	1.564663
0.408008	1.588705
0.408105	1.595566
0.408203	1.549725
0.408301	1.511196
0.408398	1.514346
0.408496	1.505424
0.408594	1.508617
0.408691	1.515503
0.408789	1.546393
0.408887	1.500867
0.408984	1.501816
0.409082	1.532438
0.409180	1.523028
0.409277	1.510097
0.409375	1.500421
0.409473	1.484970
0.409570	1.493087
0.409668	1.543075
0.409766	1.549668
0.409863	1.532058
0.409961	1.509779
0.410059	1.502335
0.410156	1.491743
0.410254	1.494870
0.410352	1.515058
0.410449	1.527259
0.410547	1.576335
0.410645	1.573048
0.410742	1.569517
0.410840	1.580066
0.410937	1.569221
0.411035	1.538413
0.411133	1.491629
0.411230	1.466431
0.411328	1.461000
0.411426	1.463280
0.411523	1.463405
0.411621	1.438715
0.411719	1.418229
0.411816	1.407711
0.411914	1.402470
0.412012	1.402009
0.412109	1.408315
0.412207	1.408526
0.412305	1.408886
0.412402	1.425070
0.412500	1.426625
0.412598	1.419813
0.412695	1.407405
0.412793	1.389610
0.412891	1.388894
0.412988	1.428742
0.413086	1.453213
0.413184	1.426525
0.413281	1.402510
0.413379	1.387451
0.413477	1.380599
0.413574	1.390347
0.413672	1.422475
0.413770	1.439404
0.413867	1.444839
0.413965	1.468309
0.414062	1.483702
0.414160	1.490616
0.414258	1.495811
0.414355	1.491392
0.414453	1.477041
0.414551	1.455593
0.414648	1.451133
0.414746	1.463754
0.414844	1.500310
0.414941	1.525284
0.415039	1.506789
0.415137	1.500190
0.415234	1.497489
0.415332	1.477660
0.415430	1.447971
0.415527	1.410372
0.415625	1.413494
0.415723	1.438692
0.415820	1.450978
0.415918	1.452216
0.416016	1.446111
0.416113	1.435864
0.416211	1.463937
0.416309	1.500586
0.416406	1.510580
0.416504	1.490217
0.416602	1.488382
0.416699	1.492816
0.416797	1.485416
0.416895	1.498560
0.416992	1.527803
0.417090	1.551207
0.417187	1.547535
0.417285	1.549208
0.417383	1.556995
0.417480	1.553825
0.417578	1.549656
0.417676	1.564304
0.417773	1.563322
0.417871	1.546108
0.417969	1.540718
0.418066	1.535382
0.418164	1.526867
0.418262	1.512316
0.418359	1.496241
0.418457	1.517167
0.418555	1.535513
0.418652	1.535953
0.418750	1.539372
0.418848	1.555670
0.418945	1.570361
0.419043	1.562515
0.419141	1.547193
0.419238	1.557495
0.419336	1.576227
0.419434	1.583079
0.419531	1.595182
0.419629	1.599088
0.419727	1.600326
0.419824	1.598687
0.419922	1.591860
0.420020	1.584850
0.420117	1.574388
0.420215	1.572942
0.420312	1.575427
0.420410	1.571659
0.420508	1.572949
0.420605	1.581769
0.420703	1.604107
0.420801	1.592865
0.420898	1.566212
0.420996	1.531397
0.421094	1.491218
0.421191	1.485614
0.421289	1.498761
0.421387	1.496032
0.421484	1.492567
0.421582	1.498282
0.421680	1.518857
0.421777	1.527285
0.421875	1.586854
0.421973	1.601710
0.422070	1.583221
0.422168	1.582811
0.422266	1.539028
0.422363	1.548605
0.422461	1.599141
0.422559	1.620786
0.422656	1.599930
0.422754	1.571330
0.422852	1.586112
0.422949	1.607736
0.423047	1.583796
0.423145	1.548139
0.423242	1.533295
0.423340	1.541721
0.423437	1.521658
0.423535	1.465916
0.423633	1.410677
0.423730	1.467182
0.423828	1.499264
0.423926	1.483782
0.424023	1.513382
0.424121	1.518369
0.424219	1.525020
0.424316	1.529235
0.424414	1.515013
0.424512	1.490414
0.424609	1.487919
0.424707	1.503275
0.424805	1.508887
0.424902	1.501032
0.425000	1.491347
0.425098	1.478146
0.425195	1.455399
0.425293	1.433469
0.425391	1.430770
0.425488	1.433802
0.425586	1.444739
0.425684	1.451381
0.425781	1.438845
0.425879	1.426113
0.425977	1.420668
0.426074	1.407950
0.426172	1.388860
0.426270	1.373425
0.426367	1.381765
0.426465	1.394687
0.426562	1.390858
0.426660	1.374779
0.426758	1.343549
0.426855	1.299028
0.426953	1.260743
0.427051	1.257778
0.427148	1.309149
0.427246	1.360798
0.427344	1.363850
0.427441	1.373590
0.427539	1.366051
0.427637	1.357566
0.427734	1.372830
0.427832	1.387482
0.427930	1.402170
0.428027	1.412193
0.428125	1.420840
0.428223	1.404014
0.428320	1.378498
0.428418	1.389695
0.428516	1.417495
0.428613	1.472572
0.428711	1.533873
0.428809	1.537282
0.428906	1.508846
0.429004	1.506780
0.429102	1.488789
0.429199	1.487448
0.429297	1.474401
0.429395	1.495302
0.429492	1.514231
0.429590	1.516708
0.429687	1.513822
0.429785	1.492832
0.429883	1.467960
0.429980	1.470676
0.430078	1.449134
0.430176	1.419137
0.430273	1.419053
0.430371	1.455967
0.430469	1.495878
0.430566	1.503405
0.430664	1.504948
0.430762	1.483985
0.430859	1.462802
0.430957	1.437350
0.431055	1.409313
0.431152	1.454708
0.431250	1.504391
0.431348	1.505135
0.431445	1.498570
0.431543	1.504266
0.431641	1.501867
0.431738	1.493510
0.431836	1.493241
0.431934	1.499284
0.432031	1.505046
0.432129	1.504452
0.432227	1.498629
0.432324	1.492694
0.432422	1.482039
0.432520	1.465285
0.432617	1.452446
0.432715	1.464682
0.432812	1.476854
0.432910	1.480962
0.433008	1.486042
0.433105	1.492803
0.433203	1.500267
0.433301	1.514070
0.433398	1.524421
0.433496	1.523457
0.433594	1.516424
0.433691	1.502450
0.433789	1.493365
0.433887	1.492053
0.433984	1.497251
0.434082	1.496404
0.434180	1.493492
0.434277	1.496452
0.434375	1.490708
0.434473	1.482784
0.434570	1.476292
0.434668	1.466253
0.434766	1.453124
0.434863	1.443048
0.434961	1.453647
0.435059	1.469906
0.435156	1.478599
0.435254	1.472071
0.435352	1.456766
0.435449	1.443737
0.435547	1.438361
0.435645	1.434175
0.435742	1.429465
0.435840	1.426364
0.435937	1.420728
0.436035	1.414445
0.436133	1.413608
0.436230	1.416559
0.436328	1.414691
0.436426	1.407449
0.436523	1.402492
0.436621	1.411820
0.436719	1.452243
0.436816	1.485618
0.436914	1.499685
0.437012	1.507815
0.437109	1.498518
0.437207	1.483468
0.437305	1.481636
0.437402	1.475928
0.437500	1.452933
0.437598	1.433584
0.437695	1.444243
0.437793	1.458008
0.437891	1.458464
0.437988	1.441575
0.438086	1.412996
0.438184	1.380856
0.438281	1.349916
0.438379	1.339976
0.438477	1.337533
0.438574	1.324226
0.438672	1.314489
0.438770	1.347806
0.438867	1.389202
0.438965	1.406476
0.439062	1.415294
0.439160	1.412454
0.439258	1.400056
0.439355	1.387400
0.439453	1.378407
0.439551	1.378970
0.439648	1.385343
0.439746	1.401406
0.439844	1.445377
0.439941	1.492847
0.440039	1.464645
0.440137	1.410181
0.440234	1.403063
0.440332	1.409410
0.440430	1.431987
0.440527	1.438582
0.440625	1.453814
0.440723	1.468954
0.440820	1.459598
0.440918	1.469280
0.441016	1.488930
0.441113	1.485865
0.441211	1.499014
0.441309	1.513002
0.441406	1.516002
0.441504	1.520069
0.441602	1.521817
0.441699	1.518917
0.441797	1.512691
0.441895	1.511473
0.441992	1.534672
0.442090	1.509916
0.442187	1.476234
0.442285	1.508763
0.442383	1.548106
0.442480	1.543895
0.442578	1.532315
0.442676	1.503867
0.442773	1.487206
0.442871	1.482905
0.442969	1.509196
0.443066	1.532140
0.443164	1.530882
0.443262	1.535510
0.443359	1.519256
0.443457	1.481263
0.443555	1.425457
0.443652	1.406933
0.443750	1.439018
0.443848	1.489356
0.443945	1.500390
0.444043	1.504061
0.444141	1.503791
0.444238	1.475614
0.444336	1.516408
0.444434	1.540379
0.444531	1.534506
0.444629	1.529171
0.444727	1.521375
0.444824	1.501628
0.444922	1.499887
0.445020	1.505338
0.445117	1.503969
0.445215	1.504839
0.445312	1.513480
0.445410	1.537799
0.445508	1.532117
0.445605	1.517620
0.445703	1.481085
0.445801	1.473008
0.445898	1.460335
0.445996	1.485132
0.446094	1.455171
0.446191	1.437800
0.446289	1.457137
0.446387	1.440479
0.446484	1.435332
0.446582	1.455933
0.446680	1.428233
0.446777	1.423046
0.446875	1.446563
0.446973	1.489509
0.447070	1.527120
0.447168	1.528834
0.447266	1.535117
0.447363	1.526294
0.447461	1.517405
0.447559	1.506232
0.447656	1.491659
0.447754	1.462284
0.447852	1.441846
0.447949	1.437031
0.448047	1.438518
0.448145	1.458321
0.448242	1.484697
0.448340	1.495453
0.448437	1.493326
0.448535	1.491565
0.448633	1.493689
0.448730	1.505589
0.448828	1.567045
0.448926	1.590396
0.449023	1.563633
0.449121	1.553779
0.449219	1.559022
0.449316	1.553109
0.449414	1.538161
0.449512	1.511408
0.449609	1.519681
0.449707	1.550561
0.449805	1.562026
0.449902	1.563939
0.450000	1.582186
0.450098	1.600902
0.450195	1.589700
0.450293	1.591553
0.450391	1.578131
0.450488	1.541099
0.450586	1.540991
0.450684	1.549440
0.450781	1.559653
0.450879	1.564797
0.450977	1.589332
0.451074	1.576473
0.451172	1.565140
0.451270	1.570149
0.451367	1.578923
0.451465	1.565023
0.451562	1.551198
0.451660	1.576423
0.451758	1.544062
0.451855	1.515586
0.451953	1.519255
0.452051	1.527659
0.452148	1.552678
0.452246	1.616881
0.452344	1.601374
0.452441	1.592209
0.452539	1.557098
0.452637	1.582854
0.452734	1.581288
0.452832	1.552255
0.452930	1.505377
0.453027	1.488329
0.453125	1.547332
0.453223	1.588308
0.453320	1.589559
0.453418	1.572536
0.453516	1.593933
0.453613	1.570586
0.453711	1.559155
0.453809	1.551720
0.453906	1.548042
0.454004	1.538934
0.454102	1.526573
0.454199	1.534139
0.454297	1.547467
0.454395	1.539557
0.454492	1.562742
0.454590	1.580266
0.454687	1.559680
0.454785	1.529975
0.454883	1.546965
0.454980	1.595556
0.455078	1.618841
0.455176	1.619973
0.455273	1.588632
0.455371	1.566372
0.455469	1.578121
0.455566	1.569503
0.455664	1.567548
0.455762	1.577980
0.455859	1.586046
0.455957	1.607154
0.456055	1.573232
0.456152	1.582000
0.456250	1.583859
0.456348	1.543710
0.456445	1.577117
0.456543	1.610729
0.456641	1.605374
0.456738	1.594074
0.456836	1.604363
0.456934	1.617440
0.457031	1.638633
0.457129	1.620410
0.457227	1.553583
0.457324	1.504258
0.457422	1.459295
0.457520	1.375799
0.457617	1.403213
0.457715	1.407992
0.457812	1.396859
0.457910	1.412261
0.458008	1.385335
0.458105	1.344795
0.458203	1.295464
0.458301	1.259350
0.458398	1.238700
0.458496	1.278936
0.458594	1.281653
0.458691	1.281306
0.458789	1.297399
0.458887	1.292640
0.458984	1.300371
0.459082	1.306600
0.459180	1.378105
0.459277	1.451281
0.459375	1.477144
0.459473	1.476876
0.459570	1.476426
0.459668	1.474570
0.459766	1.474976
0.459863	1.478588
0.459961	1.479739
0.460059	1.467687
0.460156	1.447225
0.460254	1.414846
0.460352	1.405948
0.460449	1.401993
0.460547	1.393404
0.460645	1.387874
0.460742	1.378994
0.460840	1.367457
0.460937	1.354279
0.461035	1.345621
0.461133	1.338334
0.461230	1.324904
0.461328	1.298152
0.461426	1.281342
0.461523	1.293634
0.461621	1.305185
0.461719	1.301419
0.461816	1.297153
0.461914	1.294085
0.462012	1.291587
0.462109	1.289187
0.462207	1.289305
0.462305	1.293679
0.462402	1.299559
0.462500	1.303310
0.462598	1.302980
0.462695	1.297934
0.462793	1.292704
0.462891	1.287770
0.462988	1.279867
0.463086	1.273896
0.463184	1.270611
0.463281	1.267994
0.463379	1.263839
0.463477	1.269717
0.463574	1.285317
0.463672	1.303854
0.463770	1.318115
0.463867	1.321855
0.463965	1.326339
0.464062	1.321473
0.464160	1.312395
0.464258	1.300173
0.464355	1.281439
0.464453	1.260999
0.464551	1.249369
0.464648	1.267099
0.464746	1.318634
0.464844	1.373332
0.464941	1.406293
0.465039	1.407872
0.465137	1.382691
0.465234	1.357093
0.465332	1.349768
0.465430	1.362103
0.465527	1.374207
0.465625	1.371586
0.465723	1.362825
0.465820	1.361811
0.465918	1.369315
0.466016	1.372571
0.466113	1.369594
0.466211	1.364060
0.466309	1.351539
0.466406	1.343099
0.466504	1.350014
0.466602	1.339179
0.466699	1.330726
0.466797	1.326712
0.466895	1.313419
0.466992	1.299485
0.467090	1.285308
0.467187	1.268446
0.467285	1.252435
0.467383	1.245334
0.467480	1.258013
0.467578	1.284282
0.467676	1.307298
0.467773	1.333363
0.467871	1.355667
0.467969	1.365299
0.468066	1.358739
0.468164	1.349096
0.468262	1.362929
0.468359	1.395164
0.468457	1.424081
0.468555	1.431566
0.468652	1.424897
0.468750	1.428981
0.468848	1.441516
0.468945	1.464536
0.469043	1.495407
0.469141	1.500836
0.469238	1.501507
0.469336	1.478506
0.469434	1.438590
0.469531	1.471224
0.469629	1.515300
0.469727	1.523924
0.469824	1.459445
0.469922	1.438842
0.470020	1.464649
0.470117	1.478596
0.470215	1.510708
0.470312	1.553169
0.470410	1.545071
0.470508	1.522774
0.470605	1.494273
0.470703	1.456020
0.470801	1.442070
0.470898	1.430251
0.470996	1.432802
0.471094	1.433881
0.471191	1.424557
0.471289	1.419896
0.471387	1.414384
0.471484	1.414722
0.471582	1.426811
0.471680	1.419535
0.471777	1.399166
0.471875	1.370262
0.471973	1.376639
0.472070	1.402801
0.472168	1.418985
0.472266	1.419109
0.472363	1.399296
0.472461	1.389026
0.472559	1.382746
0.472656	1.388134
0.472754	1.404790
0.472852	1.426169
0.472949	1.433447
0.473047	1.415917
0.473145	1.392933
0.473242	1.375193
0.473340	1.369706
0.473437	1.399064
0.473535	1.436143
0.473633	1.441551
0.473730	1.431985
0.473828	1.416761
0.473926	1.405148
0.474023	1.394050
0.474121	1.383181
0.474219	1.369252
0.474316	1.350078
0.474414	1.331391
0.474512	1.342853
0.474609	1.368323
0.474707	1.387519
0.474805	1.459837
0.474902	1.483308
0.475000	1.453597
0.475098	1.443329
0.475195	1.440767
0.475293	1.444041
0.475391	1.440595
0.475488	1.441677
0.475586	1.442015
0.475684	1.436664
0.475781	1.453076
0.475879	1.472413
0.475977	1.506088
0.476074	1.507627
0.476172	1.489887
0.476270	1.479712
0.476367	1.478202
0.476465	1.491451
0.476562	1.508163
0.476660	1.520757
0.476758	1.526234
0.476855	1.533148
0.476953	1.537100
0.477051	1.537016
0.477148	1.523737
0.477246	1.516838
0.477344	1.494854
0.477441	1.468226
0.477539	1.470759
0.477637	1.442576
0.477734	1.434181
0.477832	1.454979
0.477930	1.472125
0.478027	1.494203
0.478125	1.504998
0.478223	1.507330
0.478320	1.505285
0.478418	1.503846
0.478516	1.505568
0.478613	1.477491
0.478711	1.454119
0.478809	1.431368
0.478906	1.424245
0.479004	1.430158
0.479102	1.472892
0.479199	1.503375
0.479297	1.510430
0.479395	1.493176
0.479492	1.467971
0.479590	1.435028
0.479687	1.445076
0.479785	1.471690
0.479883	1.508920
0.479980	1.548582
0.480078	1.572027
0.480176	1.574140
0.480273	1.568446
0.480371	1.587063
0.480469	1.605527
0.480566	1.580274
0.480664	1.563365
0.480762	1.544332
0.480859	1.557318
0.480957	1.522200
0.481055	1.530350
0.481152	1.529760
0.481250	1.545628
0.481348	1.533811
0.481445	1.508586
0.481543	1.528390
0.481641	1.543170
0.481738	1.555500
0.481836	1.521461
0.481934	1.529392
0.482031	1.527161
0.482129	1.519578
0.482227	1.507397
0.482324	1.504173
0.482422	1.502625
0.482520	1.521430
0.482617	1.541810
0.482715	1.571320
0.482812	1.570591
0.482910	1.574273
0.483008	1.527191
0.483105	1.537005
0.483203	1.557569
0.483301	1.528716
0.483398	1.533686
0.483496	1.535227
0.483594	1.532238
0.483691	1.517876
0.483789	1.506890
0.483887	1.500316
0.483984	1.517776
0.484082	1.523415
0.484180	1.520063
0.484277	1.522692
0.484375	1.533716
0.484473	1.545376
0.484570	1.545636
0.484668	1.533159
0.484766	1.521837
0.484863	1.501738
0.484961	1.499816
0.485059	1.494803
0.485156	1.484245
0.485254	1.484948
0.485352	1.489415
0.485449	1.482306
0.485547	1.474523
0.485645	1.475207
0.485742	1.482455
0.485840	1.482021
0.485937	1.484190
0.486035	1.476342
0.486133	1.457107
0.486230	1.456025
0.486328	1.480119
0.486426	1.490824
0.486523	1.489601
0.486621	1.482218
0.486719	1.473682
0.486816	1.474338
0.486914	1.490634
0.487012	1.502046
0.487109	1.494076
0.487207	1.474957
0.487305	1.449307
0.487402	1.433670
0.487500	1.418398
0.487598	1.402490
0.487695	1.388551
0.487793	1.385783
0.487891	1.393149
0.487988	1.409585
0.488086	1.433651
0.488184	1.474137
0.488281	1.497868
0.488379	1.512525
0.488477	1.517812
0.488574	1.500062
0.488672	1.485943
0.488770	1.483445
0.488867	1.477921
0.488965	1.464818
0.489062	1.453928
0.489160	1.449799
0.489258	1.419194
0.489355	1.398271
0.489453	1.403523
0.489551	1.406194
0.489648	1.403584
0.489746	1.393795
0.489844	1.393940
0.489941	1.405937
0.490039	1.437407
0.490137	1.450986
0.490234	1.444256
0.490332	1.435432
0.490430	1.425377
0.490527	1.411662
0.490625	1.401410
0.490723	1.397341
0.490820	1.404494
0.490918	1.419644
0.491016	1.428727
0.491113	1.413987
0.491211	1.407338
0.491309	1.399426
0.491406	1.383710
0.491504	1.381518
0.491602	1.380803
0.491699	1.396297
0.491797	1.405121
0.491895	1.412074
0.491992	1.428161
0.492090	1.448551
0.492187	1.434562
0.492285	1.459489
0.492383	1.481898
0.492480	1.486500
0.492578	1.461874
0.492676	1.464450
0.492773	1.490613
0.492871	1.454205
0.492969	1.437166
0.493066	1.482933
0.493164	1.544337
0.493262	1.559214
0.493359	1.563696
0.493457	1.546097
0.493555	1.537547
0.493652	1.518407
0.493750	1.503524
0.493848	1.484592
0.493945	1.477122
0.494043	1.479516
0.494141	1.497833
0.494238	1.513024
0.494336	1.538301
0.494434	1.547862
0.494531	1.533018
0.494629	1.505084
0.494727	1.486248
0.494824	1.496330
0.494922	1.505596
0.495020	1.500649
0.495117	1.490252
0.495215	1.487751
0.495312	1.471897
0.495410	1.473623
0.495508	1.474002
0.495605	1.470211
0.495703	1.467864
0.495801	1.475072
0.495898	1.492570
0.495996	1.462498
0.496094	1.432740
0.496191	1.467223
0.496289	1.490465
0.496387	1.503207
0.496484	1.502473
0.496582	1.486088
0.496680	1.481326
0.496777	1.475179
0.496875	1.506777
0.496973	1.529104
0.497070	1.541658
0.497168	1.550410
0.497266	1.561280
0.497363	1.553518
0.497461	1.562252
0.497559	1.558512
0.497656	1.530217
0.497754	1.532856
0.497852	1.543108
0.497949	1.532135
0.498047	1.542919
0.498145	1.551395
0.498242	1.540014
0.498340	1.533322
0.498437	1.527399
0.498535	1.545002
0.498633	1.538575
0.498730	1.525747
0.498828	1.543120
0.498926	1.536128
0.499023	1.543664
0.499121	1.551108
0.499219	1.541593
0.499316	1.530865
0.499414	1.511450
0.499512	1.560932
0.499609	1.571461
0.499707	1.586701
0.499805	1.607198
0.499902	1.597282
0.500000	1.568295
0.500098	1.584950
0.500195	1.605143
0.500293	1.566028
0.500391	1.470118
0.500488	1.423807
0.500586	1.495959
0.500684	1.528909
0.500781	1.458868
0.500879	1.468862
0.500977	1.532688
0.501074	1.538432
0.501172	1.572424
0.501270	1.533887
0.501367	1.539132
0.501465	1.535243
0.501562	1.521327
0.501660	1.515340
0.501758	1.518715
0.501855	1.553589
0.501953	1.564793
0.502051	1.571260
0.502148	1.534038
0.502246	1.526372
0.502344	1.525447
0.502441	1.487449
0.502539	1.473870
0.502637	1.494668
0.502734	1.477692
0.502832	1.457645
0.502930	1.454153
0.503027	1.443938
0.503125	1.436143
0.503223	1.443125
0.503320	1.462017
0.503418	1.480246
0.503516	1.466503
0.503613	1.449613
0.503711	1.444033
0.503809	1.435504
0.503906	1.424054
0.504004	1.409311
0.504102	1.400593
0.504199	1.394432
0.504297	1.387127
0.504395	1.371829
0.504492	1.359119
0.504590	1.351233
0.504687	1.348040
0.504785	1.344192
0.504883	1.337024
0.504980	1.335979
0.505078	1.355467
0.505176	1.379973
0.505273	1.383549
0.505371	1.384692
0.505469	1.388884
0.505566	1.390296
0.505664	1.392465
0.505762	1.398027
0.505859	1.407947
0.505957	1.416733
0.506055	1.414603
0.506152	1.406505
0.506250	1.395393
0.506348	1.378944
0.506445	1.353584
0.506543	1.323075
0.506641	1.290727
0.506738	1.262066
0.506836	1.251678
0.506934	1.283319
0.507031	1.331521
0.507129	1.354266
0.507227	1.361031
0.507324	1.355534
0.507422	1.349912
0.507520	1.348106
0.507617	1.353861
0.507715	1.361582
0.507812	1.374364
0.507910	1.388532
0.508008	1.417675
0.508105	1.440573
0.508203	1.446367
0.508301	1.441223
0.508398	1.427092
0.508496	1.409791
0.508594	1.400676
0.508691	1.397176
0.508789	1.401461
0.508887	1.399920
0.508984	1.402506
0.509082	1.400349
0.509180	1.414041
0.509277	1.412903
0.509375	1.441549
0.509473	1.504807
0.509570	1.492987
0.509668	1.449428
0.509766	1.441160
0.509863	1.442770
0.509961	1.435713
0.510059	1.461075
0.510156	1.480813
0.510254	1.485237
0.510352	1.461430
0.510449	1.450453
0.510547	1.508491
0.510645	1.559545
0.510742	1.577936
0.510840	1.580302
0.510937	1.569156
0.511035	1.580872
0.511133	1.591363
0.511230	1.609078
0.511328	1.610333
0.511426	1.584942
0.511523	1.566869
0.511621	1.552524
0.511719	1.529275
0.511816	1.530118
0.511914	1.501366
0.512012	1.478912
0.512109	1.454870
0.512207	1.443739
0.512305	1.430315
0.512402	1.432959
0.512500	1.443991
0.512598	1.452579
0.512695	1.427960
0.512793	1.396607
0.512891	1.379285
0.512988	1.395352
0.513086	1.411773
0.513184	1.463055
0.513281	1.544584
0.513379	1.543370
0.513477	1.507269
0.513574	1.488144
0.513672	1.511545
0.513770	1.534597
0.513867	1.569417
0.513965	1.582779
0.514062	1.566814
0.514160	1.537008
0.514258	1.497132
0.514355	1.438253
0.514453	1.405123
0.514551	1.405433
0.514648	1.411035
0.514746	1.416971
0.514844	1.478194
0.514941	1.524707
0.515039	1.543855
0.515137	1.543660
0.515234	1.533663
0.515332	1.510263
0.515430	1.530795
0.515527	1.536268
0.515625	1.543069
0.515723	1.543660
0.515820	1.495197
0.515918	1.476983
0.516016	1.482909
0.516113	1.529746
0.516211	1.520589
0.516309	1.513532
0.516406	1.511544
0.516504	1.516035
0.516602	1.536559
0.516699	1.555914
0.516797	1.570799
0.516895	1.572987
0.516992	1.575301
0.517090	1.557726
0.517187	1.526720
0.517285	1.505809
0.517383	1.467527
0.517480	1.460627
0.517578	1.472519
0.517676	1.477017
0.517773	1.478894
0.517871	1.471507
0.517969	1.453691
0.518066	1.415169
0.518164	1.389934
0.518262	1.362321
0.518359	1.361229
0.518457	1.398359
0.518555	1.416587
0.518652	1.419887
0.518750	1.442667
0.518848	1.462780
0.518945	1.455713
0.519043	1.424145
0.519141	1.397945
0.519238	1.386437
0.519336	1.378303
0.519434	1.381378
0.519531	1.391177
0.519629	1.407740
0.519727	1.415445
0.519824	1.416406
0.519922	1.411616
0.520020	1.405246
0.520117	1.393569
0.520215	1.409328
0.520312	1.439129
0.520410	1.476595
0.520508	1.502914
0.520605	1.463636
0.520703	1.421824
0.520801	1.429811
0.520898	1.447482
0.520996	1.441412
0.521094	1.441682
0.521191	1.431245
0.521289	1.407328
0.521387	1.352701
0.521484	1.357576
0.521582	1.420334
0.521680	1.363084
0.521777	1.390783
0.521875	1.467308
0.521973	1.525220
0.522070	1.530111
0.522168	1.471104
0.522266	1.413240
0.522363	1.351246
0.522461	1.324517
0.522559	1.405851
0.522656	1.467722
0.522754	1.468579
0.522852	1.454907
0.522949	1.453574
0.523047	1.438349
0.523145	1.436399
0.523242	1.425867
0.523340	1.432171
0.523437	1.412716
0.523535	1.491864
0.523633	1.534790
0.523730	1.528683
0.523828	1.534016
0.523926	1.510754
0.524023	1.522181
0.524121	1.572285
0.524219	1.569926
0.524316	1.559155
0.524414	1.588320
0.524512	1.608951
0.524609	1.693678
0.524707	1.683398
0.524805	1.661965
0.524902	1.631397
0.525000	1.593150
0.525098	1.583241
0.525195	1.603872
0.525293	1.602870
0.525391	1.597676
0.525488	1.608104
0.525586	1.606205
0.525684	1.597181
0.525781	1.610264
0.525879	1.618630
0.525977	1.620752
0.526074	1.591720
0.526172	1.578605
0.526270	1.576549
0.526367	1.593950
0.526465	1.598815
0.526562	1.592982
0.526660	1.608610
0.526758	1.610631
0.526855	1.607247
0.526953	1.602144
0.527051	1.618602
0.527148	1.635505
0.527246	1.614288
0.527344	1.583738
0.527441	1.543296
0.527539	1.520250
0.527637	1.534196
0.527734	1.541121
0.527832	1.529745
0.527930	1.506196
0.528027	1.509612
0.528125	1.520455
0.528223	1.521602
0.528320	1.514392
0.528418	1.488968
0.528516	1.467890
0.528613	1.464092
0.528711	1.482161
0.528809	1.522308
0.528906	1.530507
0.529004	1.519202
0.529102	1.543109
0.529199	1.527919
0.529297	1.519005
0.529395	1.523988
0.529492	1.512470
0.529590	1.493018
0.529687	1.491023
0.529785	1.490217
0.529883	1.488316
0.529980	1.483432
0.530078	1.459621
0.530176	1.430965
0.530273	1.420824
0.530371	1.421338
0.530469	1.415024
0.530566	1.424926
0.530664	1.430081
0.530762	1.410073
0.530859	1.409555
0.530957	1.415463
0.531055	1.424846
0.531152	1.427232
0.531250	1.432773
0.531348	1.450764
0.531445	1.450668
0.531543	1.411945
0.531641	1.366395
0.531738	1.368243
0.531836	1.424969
0.531934	1.459039
0.532031	1.445854
0.532129	1.413190
0.532227	1.369636
0.532324	1.353899
0.532422	1.374537
0.532520	1.397579
0.532617	1.422483
0.532715	1.417178
0.532812	1.403902
0.532910	1.413976
0.533008	1.421111
0.533105	1.440403
0.533203	1.439991
0.533301	1.444428
0.533398	1.455956
0.533496	1.440142
0.533594	1.421101
0.533691	1.419990
0.533789	1.414989
0.533887	1.393585
0.533984	1.365685
0.534082	1.334118
0.534180	1.313471
0.534277	1.309512
0.534375	1.312652
0.534473	1.306636
0.534570	1.306315
0.534668	1.318568
0.534766	1.320176
0.534863	1.313690
0.534961	1.300936
0.535059	1.288693
0.535156	1.278130
0.535254	1.271520
0.535352	1.268371
0.535449	1.265598
0.535547	1.261346
0.535645	1.252091
0.535742	1.241972
0.535840	1.241214
0.535937	1.251746
0.536035	1.265933
0.536133	1.275666
0.536230	1.278046
0.536328	1.277840
0.536426	1.276383
0.536523	1.283490
0.536621	1.298829
0.536719	1.311436
0.536816	1.319706
0.536914	1.323481
0.537012	1.331266
0.537109	1.346159
0.537207	1.366112
0.537305	1.386781
0.537402	1.410262
0.537500	1.425657
0.537598	1.434488
0.537695	1.423420
0.537793	1.421649
0.537891	1.440449
0.537988	1.464537
0.538086	1.497454
0.538184	1.490982
0.538281	1.479830
0.538379	1.481673
0.538477	1.478574
0.538574	1.477676
0.538672	1.480107
0.538770	1.476693
0.538867	1.481179
0.538965	1.489605
0.539062	1.490859
0.539160	1.493628
0.539258	1.485747
0.539355	1.456371
0.539453	1.440574
0.539551	1.457559
0.539648	1.470399
0.539746	1.480310
0.539844	1.485107
0.539941	1.493722
0.540039	1.498821
0.540137	1.503379
0.540234	1.466782
0.540332	1.479732
0.540430	1.549109
0.540527	1.518257
0.540625	1.518048
0.540723	1.512448
0.540820	1.494322
0.540918	1.481421
0.541016	1.479246
0.541113	1.498013
0.541211	1.497605
0.541309	1.508092
0.541406	1.507368
0.541504	1.502574
0.541602	1.482201
0.541699	1.490911
0.541797	1.496684
0.541895	1.478764
0.541992	1.475397
0.542090	1.538380
0.542187	1.583638
0.542285	1.576022
0.542383	1.516474
0.542480	1.494813
0.542578	1.514585
0.542676	1.490644
0.542773	1.445996
0.542871	1.393667
0.542969	1.338283
0.543066	1.295821
0.543164	1.292537
0.543262	1.314961
0.543359	1.348311
0.543457	1.368726
0.543555	1.371542
0.543652	1.367936
0.543750	1.353286
0.543848	1.335659
0.543945	1.295638
0.544043	1.296253
0.544141	1.338006
0.544238	1.373070
0.544336	1.387455
0.544434	1.393748
0.544531	1.394977
0.544629	1.390146
0.544727	1.392521
0.544824	1.406444
0.544922	1.426468
0.545020	1.436295
0.545117	1.428968
0.545215	1.417906
0.545312	1.414834
0.545410	1.415250
0.545508	1.415847
0.545605	1.410593
0.545703	1.391473
0.545801	1.367987
0.545898	1.350180
0.545996	1.341766
0.546094	1.344091
0.546191	1.363721
0.546289	1.396099
0.546387	1.419735
0.546484	1.436250
0.546582	1.444310
0.546680	1.447111
0.546777	1.458615
0.546875	1.469683
0.546973	1.478789
0.547070	1.484943
0.547168	1.487074
0.547266	1.479712
0.547363	1.477673
0.547461	1.471771
0.547559	1.472260
0.547656	1.460133
0.547754	1.442828
0.547852	1.414144
0.547949	1.468895
0.548047	1.518305
0.548145	1.493368
0.548242	1.475667
0.548340	1.428576
0.548437	1.373068
0.548535	1.339956
0.548633	1.326314
0.548730	1.320373
0.548828	1.354268
0.548926	1.408139
0.549023	1.426464
0.549121	1.424934
0.549219	1.422901
0.549316	1.399478
0.549414	1.379493
0.549512	1.374948
0.549609	1.383078
0.549707	1.402135
0.549805	1.403510
0.549902	1.401575
0.550000	1.414526
0.550098	1.431462
0.550195	1.443638
0.550293	1.455803
0.550391	1.460596
0.550488	1.441943
0.550586	1.418475
0.550684	1.405102
0.550781	1.392669
0.550879	1.395109
0.550977	1.387749
0.551074	1.425911
0.551172	1.464630
0.551270	1.454397
0.551367	1.427356
0.551465	1.371154
0.551562	1.298099
0.551660	1.280675
0.551758	1.320619
0.551855	1.326169
0.551953	1.346599
0.552051	1.366678
0.552148	1.366482
0.552246	1.374559
0.552344	1.382630
0.552441	1.377683
0.552539	1.406729
0.552637	1.449174
0.552734	1.446516
0.552832	1.414635
0.552930	1.383674
0.553027	1.347661
0.553125	1.295691
0.553223	1.272734
0.553320	1.315741
0.553418	1.376017
0.553516	1.345277
0.553613	1.346788
0.553711	1.417390
0.553809	1.411613
0.553906	1.383900
0.554004	1.377601
0.554102	1.382935
0.554199	1.378064
0.554297	1.379344
0.554395	1.400913
0.554492	1.410720
0.554590	1.408069
0.554687	1.406107
0.554785	1.408442
0.554883	1.419907
0.554980	1.445688
0.555078	1.482270
0.555176	1.503702
0.555273	1.517821
0.555371	1.511135
0.555469	1.517092
0.555566	1.514598
0.555664	1.486490
0.555762	1.519302
0.555859	1.547264
0.555957	1.529228
0.556055	1.503076
0.556152	1.449148
0.556250	1.448434
0.556348	1.488719
0.556445	1.491466
0.556543	1.487776
0.556641	1.493072
0.556738	1.506697
0.556836	1.490957
0.556934	1.492824
0.557031	1.491909
0.557129	1.489636
0.557227	1.511439
0.557324	1.514272
0.557422	1.528119
0.557520	1.524389
0.557617	1.501739
0.557715	1.503260
0.557812	1.540179
0.557910	1.541975
0.558008	1.558351
0.558105	1.571975
0.558203	1.581362
0.558301	1.585618
0.558398	1.549764
0.558496	1.531858
0.558594	1.503781
0.558691	1.512013
0.558789	1.517008
0.558887	1.498848
0.558984	1.505341
0.559082	1.516890
0.559180	1.550651
0.559277	1.562928
0.559375	1.544580
0.559473	1.537069
0.559570	1.541642
0.559668	1.540439
0.559766	1.535375
0.559863	1.522928
0.559961	1.519205
0.560059	1.514415
0.560156	1.502641
0.560254	1.508912
0.560352	1.495999
0.560449	1.488636
0.560547	1.497778
0.560645	1.503031
0.560742	1.462947
0.560840	1.471613
0.560937	1.476195
0.561035	1.472073
0.561133	1.496579
0.561230	1.512066
0.561328	1.518194
0.561426	1.494234
0.561523	1.496593
0.561621	1.498675
0.561719	1.480752
0.561816	1.472245
0.561914	1.476114
0.562012	1.485542
0.562109	1.542402
0.562207	1.567679
0.562305	1.542764
0.562402	1.507396
0.562500	1.468940
0.562598	1.476660
0.562695	1.455527
0.562793	1.448568
0.562891	1.477241
0.562988	1.459001
0.563086	1.421905
0.563184	1.446732
0.563281	1.462281
0.563379	1.475343
0.563477	1.480819
0.563574	1.480813
0.563672	1.484622
0.563770	1.477358
0.563867	1.487944
0.563965	1.508277
0.564062	1.526965
0.564160	1.505512
0.564258	1.484615
0.564355	1.477641
0.564453	1.492020
0.564551	1.492399
0.564648	1.473837
0.564746	1.495855
0.564844	1.508915
0.564941	1.514781
0.565039	1.516801
0.565137	1.514831
0.565234	1.499170
0.565332	1.509668
0.565430	1.521713
0.565527	1.537427
0.565625	1.539523
0.565723	1.523679
0.565820	1.500665
0.565918	1.475796
0.566016	1.472466
0.566113	1.477254
0.566211	1.455916
0.566309	1.421404
0.566406	1.407905
0.566504	1.413341
0.566602	1.429093
0.566699	1.408242
0.566797	1.439085
0.566895	1.457690
0.566992	1.480530
0.567090	1.485710
0.567187	1.497873
0.567285	1.495839
0.567383	1.465505
0.567480	1.439401
0.567578	1.442367
0.567676	1.467732
0.567773	1.476457
0.567871	1.521981
0.567969	1.547830
0.568066	1.568327
0.568164	1.563203
0.568262	1.560600
0.568359	1.544429
0.568457	1.535720
0.568555	1.535172
0.568652	1.563362
0.568750	1.586511
0.568848	1.594324
0.568945	1.569392
0.569043	1.503494
0.569141	1.409141
0.569238	1.391356
0.569336	1.444866
0.569434	1.461416
0.569531	1.506428
0.569629	1.541010
0.569727	1.517302
0.569824	1.542073
0.569922	1.555455
0.570020	1.558281
0.570117	1.512787
0.570215	1.448403
0.570312	1.508665
0.570410	1.516040
0.570508	1.465066
0.570605	1.391433
0.570703	1.326640
0.570801	1.376596
0.570898	1.423538
0.570996	1.451698
0.571094	1.434241
0.571191	1.410509
0.571289	1.405436
0.571387	1.402621
0.571484	1.459998
0.571582	1.479116
0.571680	1.463878
0.571777	1.504438
0.571875	1.521979
0.571973	1.533037
0.572070	1.538850
0.572168	1.551805
0.572266	1.524510
0.572363	1.529772
0.572461	1.556805
0.572559	1.544747
0.572656	1.540573
0.572754	1.565063
0.572852	1.580172
0.572949	1.549993
0.573047	1.540087
0.573145	1.526405
0.573242	1.501079
0.573340	1.495488
0.573437	1.512639
0.573535	1.504517
0.573633	1.494514
0.573730	1.495723
0.573828	1.490895
0.573926	1.488885
0.574023	1.502941
0.574121	1.497565
0.574219	1.481354
0.574316	1.471403
0.574414	1.485086
0.574512	1.473537
0.574609	1.441361
0.574707	1.413013
0.574805	1.366419
0.574902	1.302260
0.575000	1.253458
0.575098	1.248320
0.575195	1.335131
0.575293	1.418318
0.575391	1.456399
0.575488	1.477472
0.575586	1.502105
0.575684	1.499454
0.575781	1.476198
0.575879	1.458552
0.575977	1.437430
0.576074	1.427127
0.576172	1.439325
0.576270	1.435219
0.576367	1.393386
0.576465	1.359838
0.576562	1.371302
0.576660	1.381944
0.576758	1.415755
0.576855	1.467408
0.576953	1.509995
0.577051	1.541389
0.577148	1.547710
0.577246	1.517793
0.577344	1.489767
0.577441	1.519556
0.577539	1.535645
0.577637	1.546414
0.577734	1.548616
0.577832	1.545792
0.577930	1.531879
0.578027	1.533137
0.578125	1.530326
0.578223	1.534146
0.578320	1.532496
0.578418	1.529053
0.578516	1.519047
0.578613	1.506828
0.578711	1.495577
0.578809	1.485525
0.578906	1.481001
0.579004	1.469903
0.579102	1.454841
0.579199	1.461858
0.579297	1.487805
0.579395	1.524640
0.579492	1.526710
0.579590	1.508017
0.579687	1.516411
0.579785	1.520507
0.579883	1.527609
0.579980	1.523332
0.580078	1.502058
0.580176	1.496534
0.580273	1.498947
0.580371	1.490813
0.580469	1.476857
0.580566	1.471675
0.580664	1.493282
0.580762	1.494565
0.580859	1.453286
0.580957	1.428095
0.581055	1.439215
0.581152	1.432775
0.581250	1.436219
0.581348	1.454843
0.581445	1.453288
0.581543	1.480714
0.581641	1.522112
0.581738	1.554430
0.581836	1.542573
0.581934	1.514440
0.582031	1.493021
0.582129	1.475564
0.582227	1.470138
0.582324	1.505744
0.582422	1.521112
0.582520	1.463918
0.582617	1.466482
0.582715	1.509982
0.582812	1.544170
0.582910	1.560390
0.583008	1.582112
0.583105	1.565497
0.583203	1.563582
0.583301	1.555665
0.583398	1.540994
0.583496	1.524355
0.583594	1.516508
0.583691	1.494068
0.583789	1.475646
0.583887	1.473021
0.583984	1.461228
0.584082	1.466324
0.584180	1.501621
0.584277	1.450359
0.584375	1.400307
0.584473	1.440105
0.584570	1.443449
0.584668	1.465291
0.584766	1.512559
0.584863	1.521272
0.584961	1.461460
0.585059	1.451457
0.585156	1.450314
0.585254	1.449904
0.585352	1.451194
0.585449	1.478383
0.585547	1.503449
0.585645	1.487934
0.585742	1.510733
0.585840	1.530774
0.585937	1.542517
0.586035	1.529106
0.586133	1.503145
0.586230	1.485694
0.586328	1.487374
0.586426	1.494605
0.586523	1.487330
0.586621	1.492262
0.586719	1.503945
0.586816	1.529967
0.586914	1.533910
0.587012	1.528321
0.587109	1.512158
0.587207	1.491371
0.587305	1.502423
0.587402	1.502694
0.587500	1.514703
0.587598	1.519375
0.587695	1.519052
0.587793	1.496829
0.587891	1.450935
0.587988	1.449564
0.588086	1.447683
0.588184	1.472311
0.588281	1.496243
0.588379	1.458309
0.588477	1.403783
0.588574	1.388754
0.588672	1.415078
0.588770	1.475375
0.588867	1.461720
0.588965	1.451612
0.589062	1.429873
0.589160	1.417216
0.589258	1.410573
0.589355	1.411884
0.589453	1.407861
0.589551	1.402402
0.589648	1.401835
0.589746	1.402867
0.589844	1.396002
0.589941	1.385815
0.590039	1.379497
0.590137	1.377976
0.590234	1.382575
0.590332	1.386722
0.590430	1.406106
0.590527	1.407925
0.590625	1.397069
0.590723	1.403183
0.590820	1.420963
0.590918	1.436259
0.591016	1.441821
0.591113	1.422174
0.591211	1.451690
0.591309	1.494611
0.591406	1.490819
0.591504	1.465422
0.591602	1.435578
0.591699	1.395982
0.591797	1.371487
0.591895	1.384498
0.591992	1.429239
0.592090	1.462024
0.592187	1.470462
0.592285	1.463976
0.592383	1.458502
0.592480	1.443524
0.592578	1.433580
0.592676	1.429196
0.592773	1.436979
0.592871	1.440148
0.592969	1.437062
0.593066	1.422933
0.593164	1.398716
0.593262	1.412757
0.593359	1.405886
0.593457	1.397053
0.593555	1.386997
0.593652	1.379101
0.593750	1.368247
0.593848	1.356156
0.593945	1.339246
0.594043	1.320879
0.594141	1.301720
0.594238	1.285137
0.594336	1.272332
0.594434	1.268808
0.594531	1.285300
0.594629	1.313422
0.594727	1.320234
0.594824	1.331321
0.594922	1.349402
0.595020	1.405169
0.595117	1.441834
0.595215	1.464149
0.595312	1.467384
0.595410	1.450849
0.595508	1.453032
0.595605	1.438247
0.595703	1.437180
0.595801	1.481894
0.595898	1.504214
0.595996	1.506175
0.596094	1.458395
0.596191	1.411413
0.596289	1.382292
0.596387	1.410428
0.596484	1.433399
0.596582	1.459936
0.596680	1.467274
0.596777	1.447341
0.596875	1.445215
0.596973	1.460394
0.597070	1.470745
0.597168	1.466138
0.597266	1.473731
0.597363	1.528752
0.597461	1.578986
0.597559	1.585530
0.597656	1.579922
0.597754	1.563088
0.597852	1.512744
0.597949	1.473518
0.598047	1.468345
0.598145	1.488190
0.598242	1.509611
0.598340	1.506837
0.598437	1.467597
0.598535	1.431508
0.598633	1.448490
0.598730	1.438548
0.598828	1.477539
0.598926	1.474989
0.599023	1.435728
0.599121	1.411496
0.599219	1.392702
0.599316	1.468618
0.599414	1.502401
0.599512	1.505005
0.599609	1.516341
0.599707	1.455175
0.599805	1.443450
0.599902	1.508001
0.600000	1.505299
0.600098	1.476416
0.600195	1.509919
0.600293	1.495039
0.600391	1.463301
0.600488	1.493902
0.600586	1.523313
0.600684	1.532720
0.600781	1.538169
0.600879	1.539765
0.600977	1.528467
0.601074	1.544188
0.601172	1.545180
0.601270	1.552427
0.601367	1.555361
0.601465	1.552076
0.601562	1.520974
0.601660	1.469994
0.601758	1.456136
0.601855	1.497728
0.601953	1.502076
0.602051	1.473350
0.602148	1.445280
0.602246	1.424851
0.602344	1.441272
0.602441	1.451983
0.602539	1.455668
0.602637	1.452014
0.602734	1.461194
0.602832	1.449170
0.602930	1.460942
0.603027	1.495553
0.603125	1.525851
0.603223	1.546326
0.603320	1.540572
0.603418	1.550446
0.603516	1.548532
0.603613	1.522766
0.603711	1.511256
0.603809	1.516299
0.603906	1.515060
0.604004	1.489799
0.604102	1.457712
0.604199	1.428218
0.604297	1.465033
0.604395	1.516225
0.604492	1.497736
0.604590	1.480511
0.604687	1.486242
0.604785	1.481915
0.604883	1.486229
0.604980	1.486890
0.605078	1.494251
0.605176	1.485130
0.605273	1.458336
0.605371	1.440196
0.605469	1.441834
0.605566	1.438817
0.605664	1.439561
0.605762	1.433571
0.605859	1.416371
0.605957	1.403771
0.606055	1.390702
0.606152	1.377881
0.606250	1.359778
0.606348	1.343162
0.606445	1.336941
0.606543	1.361331
0.606641	1.397221
0.606738	1.408251
0.606836	1.395193
0.606934	1.369659
0.607031	1.344128
0.607129	1.327208
0.607227	1.321773
0.607324	1.323454
0.607422	1.326787
0.607520	1.330460
0.607617	1.335320
0.607715	1.344098
0.607812	1.349926
0.607910	1.353407
0.608008	1.358373
0.608105	1.365668
0.608203	1.377295
0.608301	1.391000
0.608398	1.403105
0.608496	1.409476
0.608594	1.410302
0.608691	1.420676
0.608789	1.427189
0.608887	1.401655
0.608984	1.376670
0.609082	1.369000
0.609180	1.376908
0.609277	1.381078
0.609375	1.369699
0.609473	1.384647
0.609570	1.413112
0.609668	1.453913
0.609766	1.480484
0.609863	1.485629
0.609961	1.508309
0.610059	1.511581
0.610156	1.504373
0.610254	1.492017
0.610352	1.500644
0.610449	1.504681
0.610547	1.497019
0.610645	1.505979
0.610742	1.505501
0.610840	1.507879
0.610937	1.498657
0.611035	1.468762
0.611133	1.456199
0.611230	1.468040
0.611328	1.486752
0.611426	1.491867
0.611523	1.488151
0.611621	1.488910
0.611719	1.480401
0.611816	1.480721
0.611914	1.481862
0.612012	1.479371
0.612109	1.475674
0.612207	1.483326
0.612305	1.480494
0.612402	1.483838
0.612500	1.494574
0.612598	1.491425
0.612695	1.471591
0.612793	1.464184
0.612891	1.463195
0.612988	1.464054
0.613086	1.472319
0.613184	1.491604
0.613281	1.525189
0.613379	1.518248
0.613477	1.496596
0.613574	1.490327
0.613672	1.484724
0.613770	1.500240
0.613867	1.494338
0.613965	1.477140
0.614062	1.491148
0.614160	1.480610
0.614258	1.475205
0.614355	1.477030
0.614453	1.471520
0.614551	1.487605
0.614648	1.485099
0.614746	1.468352
0.614844	1.471645
0.614941	1.479858
0.615039	1.455571
0.615137	1.433873
0.615234	1.396751
0.615332	1.370442
0.615430	1.384089
0.615527	1.412780
0.615625	1.435858
0.615723	1.468438
0.615820	1.492672
0.615918	1.499333
0.616016	1.490961
0.616113	1.475421
0.616211	1.461639
0.616309	1.464182
0.616406	1.520269
0.616504	1.528492
0.616602	1.518499
0.616699	1.514488
0.616797	1.495325
0.616895	1.528193
0.616992	1.538860
0.617090	1.525397
0.617187	1.511123
0.617285	1.498330
0.617383	1.499071
0.617480	1.459699
0.617578	1.422370
0.617676	1.460402
0.617773	1.469849
0.617871	1.454672
0.617969	1.432507
0.618066	1.460684
0.618164	1.474525
0.618262	1.489502
0.618359	1.479705
0.618457	1.411643
0.618555	1.388126
0.618652	1.418647
0.618750	1.477274
0.618848	1.518737
0.618945	1.517007
0.619043	1.530073
0.619141	1.531865
0.619238	1.513773
0.619336	1.484730
0.619434	1.480846
0.619531	1.498035
0.619629	1.515649
0.619727	1.507329
0.619824	1.510719
0.619922	1.515467
0.620020	1.487039
0.620117	1.455953
0.620215	1.451101
0.620312	1.480226
0.620410	1.481677
0.620508	1.526761
0.620605	1.560939
0.620703	1.512049
0.620801	1.525290
0.620898	1.466304
0.620996	1.411098
0.621094	1.398941
0.621191	1.411708
0.621289	1.442702
0.621387	1.442773
0.621484	1.445360
0.621582	1.439646
0.621680	1.426477
0.621777	1.391364
0.621875	1.371361
0.621973	1.386291
0.622070	1.400266
0.622168	1.429132
0.622266	1.453875
0.622363	1.456293
0.622461	1.476093
0.622559	1.477493
0.622656	1.467783
0.622754	1.456582
0.622852	1.431675
0.622949	1.407277
0.623047	1.373920
0.623145	1.340134
0.623242	1.317891
0.623340	1.309200
0.623437	1.327903
0.623535	1.372251
0.623633	1.397092
0.623730	1.421144
0.623828	1.449548
0.623926	1.445778
0.624023	1.444765
0.624121	1.440264
0.624219	1.432801
0.624316	1.428647
0.624414	1.426214
0.624512	1.425390
0.624609	1.427172
0.624707	1.425134
0.624805	1.411764
0.624902	1.389826
0.625000	1.378490
0.625098	1.376408
0.625195	1.382965
0.625293	1.392721
0.625391	1.395644
0.625488	1.391201
0.625586	1.385268
0.625684	1.389859
0.625781	1.393014
0.625879	1.371784
0.625977	1.340838
0.626074	1.321096
0.626172	1.311519
0.626270	1.307199
0.626367	1.306774
0.626465	1.310415
0.626562	1.315044
0.626660	1.317023
0.626758	1.315424
0.626855	1.311394
0.626953	1.304698
0.627051	1.300173
0.627148	1.299208
0.627246	1.302224
0.627344	1.308824
0.627441	1.321928
0.627539	1.339542
0.627637	1.359091
0.627734	1.369992
0.627832	1.378876
0.627930	1.393126
0.628027	1.412194
0.628125	1.422950
0.628223	1.433563
0.628320	1.435377
0.628418	1.462443
0.628516	1.481103
0.628613	1.445482
0.628711	1.403460
0.628809	1.401159
0.628906	1.455539
0.629004	1.492618
0.629102	1.478213
0.629199	1.434859
0.629297	1.429059
0.629395	1.431697
0.629492	1.443407
0.629590	1.444644
0.629687	1.433490
0.629785	1.430415
0.629883	1.447422
0.629980	1.453909
0.630078	1.466875
0.630176	1.465424
0.630273	1.490402
0.630371	1.538447
0.630469	1.546232
0.630566	1.556630
0.630664	1.555357
0.630762	1.564964
0.630859	1.558858
0.630957	1.547470
0.631055	1.553554
0.631152	1.548938
0.631250	1.557142
0.631348	1.566336
0.631445	1.568102
0.631543	1.534135
0.631641	1.519445
0.631738	1.484201
0.631836	1.460579
0.631934	1.388062
0.632031	1.450435
0.632129	1.545041
0.632227	1.564253
0.632324	1.564816
0.632422	1.544382
0.632520	1.500945
0.632617	1.503602
0.632715	1.537983
0.632812	1.514425
0.632910	1.521041
0.633008	1.538783
0.633105	1.532485
0.633203	1.522486
0.633301	1.551871
0.633398	1.573398
0.633496	1.614178
0.633594	1.540357
0.633691	1.532356
0.633789	1.549311
0.633887	1.523230
0.633984	1.486603
0.634082	1.456400
0.634180	1.390501
0.634277	1.371382
0.634375	1.417908
0.634473	1.405614
0.634570	1.380042
0.634668	1.437722
0.634766	1.461229
0.634863	1.447932
0.634961	1.413606
0.635059	1.368696
0.635156	1.436915
0.635254	1.427011
0.635352	1.460273
0.635449	1.467821
0.635547	1.466470
0.635645	1.470078
0.635742	1.452982
0.635840	1.443011
0.635937	1.422388
0.636035	1.408842
0.636133	1.389808
0.636230	1.379920
0.636328	1.367166
0.636426	1.340740
0.636523	1.337111
0.636621	1.363386
0.636719	1.359832
0.636816	1.373486
0.636914	1.402862
0.637012	1.427770
0.637109	1.396865
0.637207	1.378498
0.637305	1.403410
0.637402	1.412582
0.637500	1.384180
0.637598	1.418291
0.637695	1.547401
0.637793	1.546534
0.637891	1.578394
0.637988	1.582412
0.638086	1.557154
0.638184	1.568515
0.638281	1.557927
0.638379	1.505999
0.638477	1.462116
0.638574	1.461361
0.638672	1.520646
0.638770	1.514276
0.638867	1.496391
0.638965	1.484170
0.639062	1.497128
0.639160	1.509092
0.639258	1.519597
0.639355	1.448042
0.639453	1.440935
0.639551	1.470387
0.639648	1.462053
0.639746	1.458288
0.639844	1.452644
0.639941	1.451983
0.640039	1.467581
0.640137	1.468962
0.640234	1.459411
0.640332	1.443218
0.640430	1.423730
0.640527	1.439991
0.640625	1.449796
0.640723	1.456002
0.640820	1.470485
0.640918	1.516248
0.641016	1.522555
0.641113	1.525902
0.641211	1.525806
0.641309	1.518685
0.641406	1.513673
0.641504	1.507011
0.641602	1.507408
0.641699	1.506075
0.641797	1.507506
0.641895	1.521078
0.641992	1.529282
0.642090	1.536766
0.642187	1.529601
0.642285	1.520588
0.642383	1.515335
0.642480	1.515815
0.642578	1.518800
0.642676	1.513756
0.642773	1.502639
0.642871	1.486475
0.642969	1.474078
0.643066	1.487248
0.643164	1.512786
0.643262	1.516672
0.643359	1.490298
0.643457	1.440093
0.643555	1.361797
0.643652	1.345068
0.643750	1.373686
0.643848	1.373472
0.643945	1.417117
0.644043	1.450238
0.644141	1.465947
0.644238	1.508952
0.644336	1.517109
0.644434	1.508031
0.644531	1.516758
0.644629	1.517109
0.644727	1.514827
0.644824	1.563152
0.644922	1.581573
0.645020	1.578202
0.645117	1.580435
0.645215	1.570271
0.645312	1.574973
0.645410	1.540775
0.645508	1.488408
0.645605	1.501998
0.645703	1.476331
0.645801	1.493194
0.645898	1.486773
0.645996	1.533066
0.646094	1.495776
0.646191	1.517844
0.646289	1.596101
0.646387	1.557761
0.646484	1.562055
0.646582	1.601558
0.646680	1.603578
0.646777	1.599816
0.646875	1.613381
0.646973	1.582051
0.647070	1.580396
0.647168	1.570496
0.647266	1.535989
0.647363	1.537225
0.647461	1.542016
0.647559	1.548320
0.647656	1.567095
0.647754	1.586640
0.647852	1.571050
0.647949	1.571806
0.648047	1.585805
0.648145	1.563672
0.648242	1.513453
0.648340	1.489203
0.648437	1.511005
0.648535	1.510561
0.648633	1.501778
0.648730	1.488861
0.648828	1.497311
0.648926	1.497110
0.649023	1.486346
0.649121	1.492873
0.649219	1.492145
0.649316	1.495281
0.649414	1.500888
0.649512	1.505797
0.649609	1.516651
0.649707	1.511466
0.649805	1.522274
0.649902	1.528620
0.650000	1.530025
0.650098	1.524764
0.650195	1.524881
0.650293	1.526359
0.650391	1.532246
0.650488	1.534425
0.650586	1.572864
0.650684	1.582213
0.650781	1.572370
0.650879	1.570796
0.650977	1.549159
0.651074	1.528311
0.651172	1.507189
0.651270	1.490442
0.651367	1.500097
0.651465	1.516273
0.651562	1.531687
0.651660	1.543782
0.651758	1.547766
0.651855	1.545571
0.651953	1.512735
0.652051	1.509463
0.652148	1.503664
0.652246	1.483827
0.652344	1.460027
0.652441	1.473305
0.652539	1.504002
0.652637	1.520085
0.652734	1.505809
0.652832	1.498437
0.652930	1.514789
0.653027	1.524807
0.653125	1.509351
0.653223	1.500894
0.653320	1.490415
0.653418	1.472884
0.653516	1.472560
0.653613	1.474023
0.653711	1.480036
0.653809	1.478326
0.653906	1.471747
0.654004	1.458824
0.654102	1.441175
0.654199	1.417439
0.654297	1.394918
0.654395	1.391367
0.654492	1.401084
0.654590	1.416954
0.654687	1.436710
0.654785	1.444468
0.654883	1.446676
0.654980	1.443407
0.655078	1.441278
0.655176	1.443471
0.655273	1.444449
0.655371	1.439680
0.655469	1.435573
0.655566	1.434598
0.655664	1.438493
0.655762	1.443099
0.655859	1.449680
0.655957	1.454137
0.656055	1.457006
0.656152	1.455850
0.656250	1.457960
0.656348	1.458635
0.656445	1.460746
0.656543	1.462558
0.656641	1.455521
0.656738	1.425172
0.656836	1.398864
0.656934	1.434706
0.657031	1.467275
0.657129	1.496294
0.657227	1.501831
0.657324	1.497409
0.657422	1.494907
0.657520	1.491903
0.657617	1.468681
0.657715	1.451012
0.657812	1.450297
0.657910	1.489806
0.658008	1.507733
0.658105	1.491296
0.658203	1.470686
0.658301	1.482571
0.658398	1.487294
0.658496	1.497016
0.658594	1.529246
0.658691	1.513155
0.658789	1.526084
0.658887	1.534172
0.658984	1.508595
0.659082	1.461334
0.659180	1.451456
0.659277	1.425207
0.659375	1.394564
0.659473	1.370342
0.659570	1.375288
0.659668	1.386329
0.659766	1.395520
0.659863	1.410399
0.659961	1.420072
0.660059	1.426083
0.660156	1.438109
0.660254	1.428007
0.660352	1.435657
0.660449	1.456006
0.660547	1.440040
0.660645	1.428288
0.660742	1.481430
0.660840	1.546250
0.660937	1.542306
0.661035	1.497943
0.661133	1.396168
0.661230	1.402751
0.661328	1.467817
0.661426	1.451357
0.661523	1.420991
0.661621	1.473914
0.661719	1.549772
0.661816	1.569505
0.661914	1.618368
0.662012	1.608128
0.662109	1.603329
0.662207	1.621890
0.662305	1.583607
0.662402	1.597075
0.662500	1.641408
0.662598	1.643772
0.662695	1.626219
0.662793	1.602593
0.662891	1.563212
0.662988	1.553136
0.663086	1.520627
0.663184	1.442955
0.663281	1.448572
0.663379	1.478663
0.663477	1.509008
0.663574	1.546918
0.663672	1.548591
0.663770	1.528288
0.663867	1.501234
0.663965	1.490303
0.664062	1.500438
0.664160	1.515461
0.664258	1.520139
0.664355	1.521197
0.664453	1.540527
0.664551	1.551886
0.664648	1.586804
0.664746	1.588332
0.664844	1.547023
0.664941	1.536117
0.665039	1.494920
0.665137	1.475118
0.665234	1.442993
0.665332	1.401635
0.665430	1.376261
0.665527	1.362615
0.665625	1.350904
0.665723	1.334812
0.665820	1.344538
0.665918	1.341769
0.666016	1.348009
0.666113	1.357977
0.666211	1.368698
0.666309	1.388027
0.666406	1.403807
0.666504	1.411363
0.666602	1.411199
0.666699	1.408770
0.666797	1.406738
0.666895	1.399113
0.666992	1.392023
0.667090	1.379297
0.667187	1.350546
0.667285	1.304045
0.667383	1.255886
0.667480	1.261603
0.667578	1.324010
0.667676	1.369328
0.667773	1.391541
0.667871	1.404479
0.667969	1.403554
0.668066	1.393231
0.668164	1.384708
0.668262	1.377324
0.668359	1.372211
0.668457	1.369129
0.668555	1.366390
0.668652	1.361532
0.668750	1.372768
0.668848	1.397339
0.668945	1.431242
0.669043	1.420391
0.669141	1.424475
0.669238	1.456460
0.669336	1.470667
0.669434	1.473288
0.669531	1.456679
0.669629	1.457124
0.669727	1.466323
0.669824	1.480575
0.669922	1.477796
0.670020	1.471979
0.670117	1.470076
0.670215	1.459502
0.670312	1.411440
0.670410	1.394202
0.670508	1.407556
0.670605	1.407835
0.670703	1.398167
0.670801	1.389379
0.670898	1.411797
0.670996	1.452296
0.671094	1.461764
0.671191	1.466418
0.671289	1.482739
0.671387	1.424106
0.671484	1.331985
0.671582	1.407004
0.671680	1.440671
0.671777	1.483771
0.671875	1.394808
0.671973	1.429873
0.672070	1.563777
0.672168	1.515982
0.672266	1.497816
0.672363	1.522605
0.672461	1.527301
0.672559	1.508411
0.672656	1.508731
0.672754	1.537910
0.672852	1.557602
0.672949	1.552504
0.673047	1.560638
0.673145	1.548015
0.673242	1.544996
0.673340	1.562906
0.673437	1.551793
0.673535	1.545299
0.673633	1.547643
0.673730	1.538806
0.673828	1.516110
0.673926	1.510921
0.674023	1.417653
0.674121	1.451693
0.674219	1.428641
0.674316	1.486713
0.674414	1.519282
0.674512	1.526873
0.674609	1.558278
0.674707	1.534768
0.674805	1.499484
0.674902	1.537178
0.675000	1.580128
0.675098	1.567237
0.675195	1.552034
0.675293	1.487850
0.675391	1.466219
0.675488	1.481056
0.675586	1.517092
0.675684	1.506886
0.675781	1.546550
0.675879	1.532919
0.675977	1.476680
0.676074	1.436676
0.676172	1.425707
0.676270	1.448131
0.676367	1.469205
0.676465	1.464674
0.676562	1.442768
0.676660	1.389565
0.676758	1.437055
0.676855	1.473710
0.676953	1.455335
0.677051	1.423818
0.677148	1.365061
0.677246	1.387516
0.677344	1.473983
0.677441	1.487663
0.677539	1.504905
0.677637	1.555802
0.677734	1.532524
0.677832	1.519193
0.677930	1.504744
0.678027	1.485104
0.678125	1.447445
0.678223	1.542671
0.678320	1.576182
0.678418	1.556660
0.678516	1.565186
0.678613	1.561663
0.678711	1.547373
0.678809	1.503153
0.678906	1.475772
0.679004	1.478809
0.679102	1.457147
0.679199	1.444669
0.679297	1.492175
0.679395	1.509499
0.679492	1.500317
0.679590	1.515240
0.679687	1.533480
0.679785	1.524961
0.679883	1.541691
0.679980	1.567217
0.680078	1.556499
0.680176	1.544100
0.680273	1.562249
0.680371	1.592716
0.680469	1.588134
0.680566	1.582794
0.680664	1.587048
0.680762	1.609060
0.680859	1.613628
0.680957	1.586681
0.681055	1.564879
0.681152	1.536561
0.681250	1.522346
0.681348	1.511233
0.681445	1.554694
0.681543	1.634614
0.681641	1.603692
0.681738	1.550284
0.681836	1.535183
0.681934	1.589010
0.682031	1.572860
0.682129	1.501993
0.682227	1.521950
0.682324	1.520516
0.682422	1.534640
0.682520	1.532329
0.682617	1.538133
0.682715	1.562737
0.682812	1.554917
0.682910	1.483961
0.683008	1.547690
0.683105	1.588645
0.683203	1.531186
0.683301	1.505725
0.683398	1.504382
0.683496	1.511485
0.683594	1.467652
0.683691	1.439133
0.683789	1.440938
0.683887	1.448571
0.683984	1.436677
0.684082	1.426461
0.684180	1.414419
0.684277	1.374503
0.684375	1.332691
0.684473	1.293786
0.684570	1.281227
0.684668	1.306872
0.684766	1.350872
0.684863	1.388314
0.684961	1.416607
0.685059	1.429909
0.685156	1.421752
0.685254	1.408476
0.685352	1.414287
0.685449	1.416199
0.685547	1.409561
0.685645	1.396688
0.685742	1.390151
0.685840	1.378453
0.685937	1.361518
0.686035	1.349593
0.686133	1.343322
0.686230	1.337454
0.686328	1.338733
0.686426	1.335239
0.686523	1.324608
0.686621	1.309801
0.686719	1.306085
0.686816	1.315721
0.686914	1.341725
0.687012	1.384161
0.687109	1.422797
0.687207	1.440859
0.687305	1.460653
0.687402	1.471414
0.687500	1.472774
0.687598	1.473569
0.687695	1.463167
0.687793	1.453849
0.687891	1.474014
0.687988	1.496006
0.688086	1.494664
0.688184	1.493849
0.688281	1.501326
0.688379	1.498881
0.688477	1.486715
0.688574	1.495107
0.688672	1.509619
0.688770	1.505518
0.688867	1.502447
0.688965	1.504881
0.689062	1.499349
0.689160	1.487168
0.689258	1.479769
0.689355	1.478200
0.689453	1.493498
0.689551	1.510453
0.689648	1.534087
0.689746	1.555129
0.689844	1.561189
0.689941	1.558018
0.690039	1.568251
0.690137	1.580022
0.690234	1.557029
0.690332	1.547752
0.690430	1.549701
0.690527	1.538736
0.690625	1.524529
0.690723	1.545023
0.690820	1.555618
0.690918	1.538378
0.691016	1.519598
0.691113	1.519249
0.691211	1.529278
0.691309	1.562366
0.691406	1.554625
0.691504	1.587965
0.691602	1.575872
0.691699	1.565079
0.691797	1.556783
0.691895	1.573038
0.691992	1.583408
0.692090	1.569284
0.692187	1.569996
0.692285	1.588272
0.692383	1.588929
0.692480	1.566582
0.692578	1.569869
0.692676	1.567379
0.692773	1.566287
0.692871	1.572283
0.692969	1.588846
0.693066	1.596795
0.693164	1.578502
0.693262	1.576766
0.693359	1.579882
0.693457	1.576147
0.693555	1.555273
0.693652	1.563902
0.693750	1.570153
0.693848	1.565403
0.693945	1.563609
0.694043	1.548115
0.694141	1.553947
0.694238	1.537269
0.694336	1.514906
0.694434	1.543955
0.694531	1.577681
0.694629	1.572008
0.694727	1.545874
0.694824	1.524278
0.694922	1.512430
0.695020	1.508479
0.695117	1.532487
0.695215	1.536841
0.695312	1.532579
0.695410	1.500098
0.695508	1.478626
0.695605	1.485506
0.695703	1.486130
0.695801	1.497839
0.695898	1.498420
0.695996	1.498078
0.696094	1.493817
0.696191	1.498610
0.696289	1.512869
0.696387	1.518562
0.696484	1.513673
0.696582	1.500053
0.696680	1.477281
0.696777	1.480134
0.696875	1.489151
0.696973	1.476430
0.697070	1.457008
0.697168	1.442903
0.697266	1.439571
0.697363	1.439083
0.697461	1.456413
0.697559	1.479420
0.697656	1.476383
0.697754	1.472604
0.697852	1.471410
0.697949	1.467137
0.698047	1.455201
0.698145	1.456377
0.698242	1.473133
0.698340	1.487387
0.698437	1.498865
0.698535	1.506103
0.698633	1.509209
0.698730	1.502424
0.698828	1.488848
0.698926	1.476102
0.699023	1.467625
0.699121	1.459804
0.699219	1.452822
0.699316	1.444935
0.699414	1.435523
0.699512	1.425614
0.699609	1.417849
0.699707	1.407551
0.699805	1.392490
0.699902	1.394811
0.700000	1.394173
0.700098	1.396216
0.700195	1.406087
0.700293	1.412791
0.700391	1.419481
0.700488	1.423399
0.700586	1.426675
0.700684	1.432228
0.700781	1.435270
0.700879	1.444539
0.700977	1.454874
0.701074	1.454831
0.701172	1.454522
0.701270	1.450478
0.701367	1.438873
0.701465	1.436851
0.701562	1.460947
0.701660	1.477923
0.701758	1.474470
0.701855	1.464931
0.701953	1.457835
0.702051	1.460016
0.702148	1.460896
0.702246	1.446983
0.702344	1.456391
0.702441	1.455289
0.702539	1.453477
0.702637	1.462402
0.702734	1.476297
0.702832	1.476141
0.702930	1.485660
0.703027	1.462458
0.703125	1.520060
0.703223	1.552580
0.703320	1.528841
0.703418	1.523006
0.703516	1.527142
0.703613	1.503957
0.703711	1.494409
0.703809	1.543034
0.703906	1.574688
0.704004	1.577819
0.704102	1.581019
0.704199	1.578398
0.704297	1.584264
0.704395	1.583788
0.704492	1.522068
0.704590	1.536806
0.704687	1.549844
0.704785	1.513543
0.704883	1.525436
0.704980	1.529395
0.705078	1.523299
0.705176	1.535508
0.705273	1.545969
0.705371	1.541150
0.705469	1.554960
0.705566	1.557128
0.705664	1.577040
0.705762	1.567648
0.705859	1.538611
0.705957	1.546768
0.706055	1.572995
0.706152	1.565262
0.706250	1.529748
0.706348	1.555866
0.706445	1.546550
0.706543	1.525232
0.706641	1.535960
0.706738	1.541809
0.706836	1.535856
0.706934	1.524869
0.707031	1.515029
0.707129	1.516003
0.707227	1.512838
0.707324	1.504967
0.707422	1.486301
0.707520	1.468322
0.707617	1.448003
0.707715	1.432456
0.707812	1.424379
0.707910	1.408442
0.708008	1.385183
0.708105	1.361971
0.708203	1.346635
0.708301	1.338336
0.708398	1.349881
0.708496	1.392061
0.708594	1.423950
0.708691	1.433432
0.708789	1.442524
0.708887	1.456868
0.708984	1.461357
0.709082	1.463992
0.709180	1.473082
0.709277	1.500941
0.709375	1.517012
0.709473	1.535878
0.709570	1.537566
0.709668	1.519155
0.709766	1.522699
0.709863	1.492427
0.709961	1.480477
0.710059	1.478000
0.710156	1.467851
0.710254	1.431608
0.710352	1.397197
0.710449	1.385058
0.710547	1.359290
0.710645	1.349306
0.710742	1.362308
0.710840	1.391693
0.710937	1.416630
0.711035	1.433930
0.711133	1.446012
0.711230	1.444387
0.711328	1.426836
0.711426	1.414876
0.711523	1.409516
0.711621	1.410116
0.711719	1.411447
0.711816	1.408026
0.711914	1.394436
0.712012	1.376330
0.712109	1.361885
0.712207	1.348893
0.712305	1.327485
0.712402	1.304293
0.712500	1.295015
0.712598	1.310385
0.712695	1.332143
0.712793	1.341524
0.712891	1.359266
0.712988	1.370275
0.713086	1.366655
0.713184	1.361026
0.713281	1.352184
0.713379	1.337141
0.713477	1.321063
0.713574	1.310991
0.713672	1.316016
0.713770	1.337019
0.713867	1.372990
0.713965	1.407332
0.714062	1.423802
0.714160	1.417557
0.714258	1.404935
0.714355	1.403188
0.714453	1.414821
0.714551	1.419486
0.714648	1.407305
0.714746	1.371568
0.714844	1.343996
0.714941	1.319874
0.715039	1.333354
0.715137	1.376068
0.715234	1.364398
0.715332	1.347411
0.715430	1.363830
0.715527	1.366560
0.715625	1.380853
0.715723	1.421011
0.715820	1.444699
0.715918	1.429149
0.716016	1.394848
0.716113	1.390589
0.716211	1.411194
0.716309	1.444848
0.716406	1.470071
0.716504	1.449793
0.716602	1.453567
0.716699	1.462502
0.716797	1.446874
0.716895	1.423254
0.716992	1.419532
0.717090	1.405447
0.717187	1.392417
0.717285	1.403170
0.717383	1.421269
0.717480	1.430230
0.717578	1.416449
0.717676	1.407678
0.717773	1.405804
0.717871	1.428804
0.717969	1.466664
0.718066	1.487657
0.718164	1.474277
0.718262	1.435378
0.718359	1.425852
0.718457	1.445244
0.718555	1.442746
0.718652	1.432473
0.718750	1.422802
0.718848	1.445993
0.718945	1.498208
0.719043	1.508572
0.719141	1.491540
0.719238	1.489738
0.719336	1.506072
0.719434	1.524814
0.719531	1.533264
0.719629	1.526444
0.719727	1.542188
0.719824	1.503892
0.719922	1.541894
0.720020	1.576508
0.720117	1.569544
0.720215	1.592054
0.720312	1.639394
0.720410	1.668844
0.720508	1.634225
0.720605	1.610532
0.720703	1.620062
0.720801	1.580845
0.720898	1.591328
0.720996	1.617884
0.721094	1.621437
0.721191	1.639357
0.721289	1.632118
0.721387	1.628911
0.721484	1.611590
0.721582	1.593960
0.721680	1.581224
0.721777	1.570543
0.721875	1.560677
0.721973	1.554867
0.722070	1.549381
0.722168	1.537058
0.722266	1.516914
0.722363	1.491807
0.722461	1.473876
0.722559	1.462206
0.722656	1.436267
0.722754	1.405663
0.722852	1.354853
0.722949	1.357096
0.723047	1.421279
0.723145	1.444339
0.723242	1.475513
0.723340	1.435273
0.723437	1.459015
0.723535	1.484322
0.723633	1.466489
0.723730	1.473489
0.723828	1.498533
0.723926	1.504371
0.724023	1.524257
0.724121	1.568742
0.724219	1.591704
0.724316	1.587187
0.724414	1.583196
0.724512	1.557391
0.724609	1.507268
0.724707	1.535767
0.724805	1.551292
0.724902	1.513762
0.725000	1.508782
0.725098	1.525990
0.725195	1.537412
0.725293	1.536589
0.725391	1.516904
0.725488	1.449551
0.725586	1.420175
0.725684	1.443648
0.725781	1.453434
0.725879	1.470623
0.725977	1.461651
0.726074	1.443767
0.726172	1.437382
0.726270	1.446277
0.726367	1.440799
0.726465	1.429422
0.726562	1.397523
0.726660	1.372913
0.726758	1.379776
0.726855	1.380951
0.726953	1.400761
0.727051	1.441475
0.727148	1.457677
0.727246	1.443002
0.727344	1.431649
0.727441	1.444356
0.727539	1.479193
0.727637	1.493119
0.727734	1.491199
0.727832	1.474523
0.727930	1.454476
0.728027	1.442228
0.728125	1.414133
0.728223	1.368346
0.728320	1.317178
0.728418	1.317089
0.728516	1.375521
0.728613	1.403392
0.728711	1.401383
0.728809	1.405690
0.728906	1.456290
0.729004	1.480941
0.729102	1.524096
0.729199	1.516563
0.729297	1.540808
0.729395	1.568872
0.729492	1.579412
0.729590	1.594312
0.729687	1.580863
0.729785	1.558066
0.729883	1.536023
0.729980	1.492131
0.730078	1.496969
0.730176	1.478714
0.730273	1.467203
0.730371	1.457587
0.730469	1.421705
0.730566	1.387205
0.730664	1.385410
0.730762	1.428222
0.730859	1.428631
0.730957	1.420952
0.731055	1.444070
0.731152	1.449846
0.731250	1.454137
0.731348	1.458613
0.731445	1.468183
0.731543	1.472680
0.731641	1.465045
0.731738	1.475443
0.731836	1.484428
0.731934	1.473383
0.732031	1.466995
0.732129	1.462687
0.732227	1.479307
0.732324	1.461366
0.732422	1.400259
0.732520	1.389557
0.732617	1.382143
0.732715	1.429181
0.732812	1.481120
0.732910	1.527733
0.733008	1.555517
0.733105	1.532636
0.733203	1.518596
0.733301	1.512350
0.733398	1.543496
0.733496	1.553057
0.733594	1.529930
0.733691	1.508392
0.733789	1.497201
0.733887	1.535981
0.733984	1.620512
0.734082	1.602215
0.734180	1.547428
0.734277	1.543123
0.734375	1.551486
0.734473	1.594396
0.734570	1.601711
0.734668	1.586392
0.734766	1.595797
0.734863	1.612709
0.734961	1.628865
0.735059	1.621640
0.735156	1.618408
0.735254	1.629136
0.735352	1.635624
0.735449	1.625420
0.735547	1.640265
0.735645	1.659723
0.735742	1.652909
0.735840	1.633251
0.735937	1.594946
0.736035	1.573854
0.736133	1.566399
0.736230	1.583455
0.736328	1.581952
0.736426	1.593472
0.736523	1.593093
0.736621	1.552400
0.736719	1.519589
0.736816	1.508880
0.736914	1.504871
0.737012	1.545445
0.737109	1.546132
0.737207	1.514911
0.737305	1.509024
0.737402	1.549208
0.737500	1.516582
0.737598	1.506515
0.737695	1.509156
0.737793	1.463600
0.737891	1.487975
0.737988	1.554141
0.738086	1.622218
0.738184	1.578798
0.738281	1.569846
0.738379	1.612521
0.738477	1.614738
0.738574	1.593584
0.738672	1.598438
0.738770	1.594848
0.738867	1.572209
0.738965	1.550457
0.739062	1.538909
0.739160	1.514556
0.739258	1.513258
0.739355	1.536423
0.739453	1.545493
0.739551	1.561671
0.739648	1.560381
0.739746	1.547556
0.739844	1.543939
0.739941	1.541399
0.740039	1.545337
0.740137	1.553759
0.740234	1.553170
0.740332	1.553740
0.740430	1.551818
0.740527	1.544083
0.740625	1.539330
0.740723	1.540714
0.740820	1.562041
0.740918	1.574896
0.741016	1.562901
0.741113	1.538715
0.741211	1.565201
0.741309	1.564706
0.741406	1.539043
0.741504	1.493193
0.741602	1.495934
0.741699	1.480476
0.741797	1.495820
0.741895	1.549271
0.741992	1.548896
0.742090	1.536964
0.742187	1.518715
0.742285	1.527770
0.742383	1.547547
0.742480	1.557621
0.742578	1.555451
0.742676	1.590551
0.742773	1.571936
0.742871	1.554230
0.742969	1.533249
0.743066	1.535496
0.743164	1.513667
0.743262	1.476398
0.743359	1.515235
0.743457	1.576792
0.743555	1.584820
0.743652	1.549885
0.743750	1.527214
0.743848	1.512182
0.743945	1.493127
0.744043	1.459988
0.744141	1.450353
0.744238	1.482116
0.744336	1.495553
0.744434	1.495627
0.744531	1.490611
0.744629	1.485671
0.744727	1.490505
0.744824	1.504663
0.744922	1.508372
0.745020	1.475699
0.745117	1.428323
0.745215	1.386875
0.745312	1.377011
0.745410	1.382066
0.745508	1.395058
0.745605	1.403793
0.745703	1.419638
0.745801	1.461046
0.745898	1.481438
0.745996	1.466446
0.746094	1.459477
0.746191	1.466929
0.746289	1.460783
0.746387	1.460300
0.746484	1.462176
0.746582	1.451449
0.746680	1.457520
0.746777	1.457111
0.746875	1.462327
0.746973	1.448884
0.747070	1.450334
0.747168	1.487173
0.747266	1.497629
0.747363	1.479261
0.747461	1.452999
0.747559	1.378990
0.747656	1.437515
0.747754	1.526140
0.747852	1.539208
0.747949	1.547256
0.748047	1.568768
0.748145	1.577341
0.748242	1.570849
0.748340	1.556411
0.748437	1.547959
0.748535	1.534719
0.748633	1.531438
0.748730	1.510729
0.748828	1.457158
0.748926	1.434994
0.749023	1.431011
0.749121	1.445279
0.749219	1.469609
0.749316	1.477403
0.749414	1.475190
0.749512	1.473684
0.749609	1.438053
0.749707	1.424771
0.749805	1.429570
0.749902	1.515960
0.750000	1.559020
0.750098	1.560617
0.750195	1.582805
0.750293	1.583026
0.750391	1.552333
0.750488	1.472994
0.750586	1.420426
0.750684	1.376576
0.750781	1.367155
0.750879	1.376877
0.750977	1.346100
0.751074	1.355361
0.751172	1.372017
0.751270	1.374705
0.751367	1.474125
0.751465	1.532036
0.751562	1.595752
0.751660	1.601613
0.751758	1.545336
0.751855	1.554881
0.751953	1.548959
0.752051	1.583619
0.752148	1.596335
0.752246	1.554030
0.752344	1.531659
0.752441	1.538253
0.752539	1.509852
0.752637	1.495139
0.752734	1.525376
0.752832	1.525976
0.752930	1.498811
0.753027	1.440045
0.753125	1.462295
0.753223	1.474484
0.753320	1.451926
0.753418	1.453265
0.753516	1.468321
0.753613	1.456642
0.753711	1.462337
0.753809	1.485408
0.753906	1.468342
0.754004	1.450918
0.754102	1.420919
0.754199	1.431699
0.754297	1.454398
0.754395	1.433696
0.754492	1.447238
0.754590	1.490084
0.754687	1.487435
0.754785	1.481413
0.754883	1.515382
0.754980	1.512665
0.755078	1.499757
0.755176	1.503437
0.755273	1.516740
0.755371	1.520763
0.755469	1.498694
0.755566	1.506146
0.755664	1.511917
0.755762	1.532678
0.755859	1.530244
0.755957	1.493929
0.756055	1.509592
0.756152	1.550354
0.756250	1.555800
0.756348	1.525924
0.756445	1.521431
0.756543	1.518996
0.756641	1.475264
0.756738	1.475760
0.756836	1.463035
0.756934	1.378902
0.757031	1.340788
0.757129	1.329501
0.757227	1.310961
0.757324	1.298836
0.757422	1.291470
0.757520	1.279913
0.757617	1.271317
0.757715	1.272510
0.757812	1.289849
0.757910	1.341883
0.758008	1.403407
0.758105	1.446420
0.758203	1.460804
0.758301	1.449862
0.758398	1.456991
0.758496	1.447677
0.758594	1.437084
0.758691	1.426144
0.758789	1.414870
0.758887	1.403825
0.758984	1.393569
0.759082	1.384493
0.759180	1.365611
0.759277	1.349601
0.759375	1.342276
0.759473	1.332900
0.759570	1.318372
0.759668	1.299927
0.759766	1.298519
0.759863	1.340076
0.759961	1.386240
0.760059	1.390237
0.760156	1.366373
0.760254	1.337455
0.760352	1.318267
0.760449	1.313910
0.760547	1.307712
0.760645	1.291105
0.760742	1.272075
0.760840	1.254398
0.760937	1.233261
0.761035	1.215607
0.761133	1.212099
0.761230	1.237449
0.761328	1.290823
0.761426	1.350985
0.761523	1.391660
0.761621	1.405249
0.761719	1.403478
0.761816	1.397405
0.761914	1.399125
0.762012	1.428633
0.762109	1.443692
0.762207	1.442549
0.762305	1.438488
0.762402	1.441276
0.762500	1.447042
0.762598	1.441238
0.762695	1.437404
0.762793	1.442658
0.762891	1.457086
0.762988	1.472571
0.763086	1.489458
0.763184	1.476052
0.763281	1.469014
0.763379	1.484816
0.763477	1.491745
0.763574	1.475426
0.763672	1.479291
0.763770	1.504419
0.763867	1.524336
0.763965	1.505758
0.764062	1.464615
0.764160	1.470016
0.764258	1.484722
0.764355	1.507968
0.764453	1.524136
0.764551	1.500992
0.764648	1.459839
0.764746	1.420116
0.764844	1.418600
0.764941	1.404706
0.765039	1.418388
0.765137	1.442534
0.765234	1.521835
0.765332	1.500644
0.765430	1.454506
0.765527	1.492003
0.765625	1.514966
0.765723	1.502974
0.765820	1.514421
0.765918	1.574281
0.766016	1.576203
0.766113	1.507240
0.766211	1.481524
0.766309	1.462971
0.766406	1.450846
0.766504	1.436059
0.766602	1.430285
0.766699	1.445190
0.766797	1.492220
0.766895	1.497830
0.766992	1.475620
0.767090	1.501647
0.767187	1.513087
0.767285	1.505795
0.767383	1.534124
0.767480	1.543792
0.767578	1.578863
0.767676	1.596485
0.767773	1.588989
0.767871	1.574197
0.767969	1.561021
0.768066	1.560033
0.768164	1.565878
0.768262	1.570532
0.768359	1.588643
0.768457	1.590687
0.768555	1.624022
0.768652	1.633038
0.768750	1.631403
0.768848	1.624825
0.768945	1.592611
0.769043	1.611573
0.769141	1.604861
0.769238	1.585971
0.769336	1.581757
0.769434	1.572923
0.769531	1.593871
0.769629	1.552011
0.769727	1.523010
0.769824	1.477500
0.769922	1.354790
0.770020	1.299059
0.770117	1.358659
0.770215	1.481814
0.770312	1.530317
0.770410	1.551608
0.770508	1.590370
0.770605	1.606749
0.770703	1.554423
0.770801	1.511642
0.770898	1.501796
0.770996	1.498671
0.771094	1.494861
0.771191	1.521377
0.771289	1.482658
0.771387	1.504227
0.771484	1.531332
0.771582	1.517749
0.771680	1.508941
0.771777	1.475165
0.771875	1.467788
0.771973	1.467404
0.772070	1.464185
0.772168	1.440334
0.772266	1.419851
0.772363	1.445780
0.772461	1.481392
0.772559	1.477435
0.772656	1.463298
0.772754	1.437898
0.772852	1.414389
0.772949	1.398332
0.773047	1.387259
0.773145	1.373437
0.773242	1.356138
0.773340	1.341123
0.773437	1.357999
0.773535	1.388211
0.773633	1.429225
0.773730	1.442986
0.773828	1.438835
0.773926	1.425636
0.774023	1.399565
0.774121	1.406363
0.774219	1.412060
0.774316	1.401079
0.774414	1.374962
0.774512	1.357310
0.774609	1.342438
0.774707	1.338143
0.774805	1.345712
0.774902	1.366467
0.775000	1.382349
0.775098	1.418369
0.775195	1.464198
0.775293	1.479201
0.775391	1.495134
0.775488	1.495500
0.775586	1.526646
0.775684	1.540920
0.775781	1.540192
0.775879	1.524123
0.775977	1.496122
0.776074	1.460275
0.776172	1.436343
0.776270	1.437580
0.776367	1.434502
0.776465	1.416591
0.776562	1.419248
0.776660	1.408976
0.776758	1.397212
0.776855	1.399456
0.776953	1.402833
0.777051	1.408049
0.777148	1.423292
0.777246	1.449728
0.777344	1.448423
0.777441	1.436610
0.777539	1.439163
0.777637	1.470248
0.777734	1.513044
0.777832	1.508603
0.777930	1.514774
0.778027	1.540349
0.778125	1.523179
0.778223	1.518834
0.778320	1.493384
0.778418	1.566204
0.778516	1.559748
0.778613	1.564072
0.778711	1.561389
0.778809	1.549589
0.778906	1.546254
0.779004	1.562945
0.779102	1.565690
0.779199	1.576147
0.779297	1.576427
0.779395	1.578885
0.779492	1.569900
0.779590	1.562840
0.779687	1.559904
0.779785	1.560916
0.779883	1.557861
0.779980	1.548018
0.780078	1.535839
0.780176	1.529977
0.780273	1.516231
0.780371	1.507852
0.780469	1.496248
0.780566	1.498699
0.780664	1.475290
0.780762	1.474819
0.780859	1.492388
0.780957	1.469416
0.781055	1.486457
0.781152	1.509358
0.781250	1.516458
0.781348	1.524372
0.781445	1.528528
0.781543	1.527646
0.781641	1.527809
0.781738	1.528933
0.781836	1.533466
0.781934	1.551971
0.782031	1.584692
0.782129	1.569671
0.782227	1.549839
0.782324	1.547600
0.782422	1.557036
0.782520	1.557818
0.782617	1.582636
0.782715	1.599984
0.782812	1.583900
0.782910	1.573423
0.783008	1.612583
0.783105	1.607011
0.783203	1.596088
0.783301	1.614495
0.783398	1.613780
0.783496	1.598933
0.783594	1.580601
0.783691	1.581094
0.783789	1.578012
0.783887	1.584795
0.783984	1.575970
0.784082	1.588464
0.784180	1.586597
0.784277	1.559815
0.784375	1.566380
0.784473	1.588034
0.784570	1.579549
0.784668	1.566890
0.784766	1.600462
0.784863	1.593824
0.784961	1.582651
0.785059	1.559595
0.785156	1.533074
0.785254	1.512366
0.785352	1.516674
0.785449	1.541453
0.785547	1.532108
0.785645	1.517889
0.785742	1.500408
0.785840	1.509215
0.785937	1.554133
0.786035	1.549977
0.786133	1.549435
0.786230	1.545370
0.786328	1.525227
0.786426	1.504883
0.786523	1.483175
0.786621	1.474124
0.786719	1.459028
0.786816	1.457903
0.786914	1.461050
0.787012	1.465009
0.787109	1.462998
0.787207	1.461986
0.787305	1.471350
0.787402	1.461529
0.787500	1.436630
0.787598	1.411501
0.787695	1.400721
0.787793	1.400702
0.787891	1.404997
0.787988	1.402814
0.788086	1.381983
0.788184	1.365813
0.788281	1.369561
0.788379	1.350429
0.788477	1.328348
0.788574	1.322425
0.788672	1.334903
0.788770	1.367445
0.788867	1.376113
0.788965	1.382065
0.789062	1.393095
0.789160	1.395351
0.789258	1.393963
0.789355	1.402095
0.789453	1.414605
0.789551	1.419545
0.789648	1.416753
0.789746	1.403792
0.789844	1.385287
0.789941	1.374107
0.790039	1.376216
0.790137	1.381089
0.790234	1.380484
0.790332	1.373240
0.790430	1.362276
0.790527	1.359488
0.790625	1.367986
0.790723	1.378140
0.790820	1.390828
0.790918	1.408331
0.791016	1.387361
0.791113	1.404853
0.791211	1.451020
0.791309	1.446965
0.791406	1.422218
0.791504	1.435919
0.791602	1.480420
0.791699	1.481109
0.791797	1.475818
0.791895	1.475265
0.791992	1.488353
0.792090	1.498790
0.792187	1.502174
0.792285	1.498191
0.792383	1.526749
0.792480	1.528896
0.792578	1.524984
0.792676	1.517410
0.792773	1.499199
0.792871	1.489678
0.792969	1.482716
0.793066	1.488558
0.793164	1.478113
0.793262	1.482261
0.793359	1.498529
0.793457	1.508026
0.793555	1.506648
0.793652	1.510866
0.793750	1.524470
0.793848	1.567803
0.793945	1.585955
0.794043	1.564097
0.794141	1.548515
0.794238	1.549033
0.794336	1.532807
0.794434	1.507542
0.794531	1.481542
0.794629	1.480487
0.794727	1.464021
0.794824	1.438673
0.794922	1.445004
0.795020	1.455108
0.795117	1.498076
0.795215	1.531172
0.795312	1.537345
0.795410	1.532163
0.795508	1.533552
0.795605	1.547159
0.795703	1.516586
0.795801	1.474902
0.795898	1.475473
0.795996	1.480934
0.796094	1.481442
0.796191	1.472305
0.796289	1.456739
0.796387	1.431649
0.796484	1.418319
0.796582	1.416167
0.796680	1.424367
0.796777	1.433493
0.796875	1.448834
0.796973	1.470042
0.797070	1.458874
0.797168	1.453090
0.797266	1.453262
0.797363	1.450907
0.797461	1.444417
0.797559	1.459078
0.797656	1.492571
0.797754	1.495636
0.797852	1.485001
0.797949	1.480314
0.798047	1.472079
0.798145	1.471649
0.798242	1.487860
0.798340	1.495432
0.798437	1.491167
0.798535	1.478110
0.798633	1.460419
0.798730	1.440360
0.798828	1.409703
0.798926	1.382349
0.799023	1.379974
0.799121	1.397189
0.799219	1.431436
0.799316	1.465773
0.799414	1.469891
0.799512	1.455180
0.799609	1.433443
0.799707	1.420164
0.799805	1.416500
0.799902	1.415745
0.800000	1.408569
0.800098	1.411527
0.800195	1.422916
0.800293	1.427625
0.800391	1.423840
0.800488	1.412658
0.800586	1.413387
0.800684	1.413680
0.800781	1.420177
0.800879	1.434325
0.800977	1.440143
0.801074	1.411898
0.801172	1.362755
0.801270	1.356876
0.801367	1.373986
0.801465	1.379325
0.801562	1.382638
0.801660	1.372108
0.801758	1.346595
0.801855	1.321087
0.801953	1.318314
0.802051	1.366488
0.802148	1.411579
0.802246	1.442251
0.802344	1.469836
0.802441	1.470094
0.802539	1.439932
0.802637	1.407240
0.802734	1.405597
0.802832	1.405645
0.802930	1.401137
0.803027	1.400647
0.803125	1.396545
0.803223	1.393757
0.803320	1.398886
0.803418	1.407021
0.803516	1.407562
0.803613	1.396376
0.803711	1.376898
0.803809	1.357101
0.803906	1.344825
0.804004	1.342306
0.804102	1.338196
0.804199	1.328345
0.804297	1.314105
0.804395	1.297481
0.804492	1.281231
0.804590	1.267292
0.804687	1.256172
0.804785	1.247795
0.804883	1.241463
0.804980	1.236455
0.805078	1.231440
0.805176	1.225092
0.805273	1.217304
0.805371	1.209085
0.805469	1.201856
0.805566	1.195695
0.805664	1.190931
0.805762	1.187591
0.805859	1.185304
0.805957	1.183812
0.806055	1.192454
0.806152	1.213162
0.806250	1.232074
0.806348	1.242716
0.806445	1.246369
0.806543	1.247530
0.806641	1.250718
0.806738	1.253464
0.806836	1.262605
0.806934	1.308030
0.807031	1.340064
0.807129	1.325794
0.807227	1.330991
0.807324	1.376358
0.807422	1.399385
0.807520	1.403908
0.807617	1.392993
0.807715	1.399596
0.807812	1.427502
0.807910	1.423411
0.808008	1.425433
0.808105	1.420372
0.808203	1.397537
0.808301	1.408799
0.808398	1.446563
0.808496	1.481068
0.808594	1.500734
0.808691	1.485961
0.808789	1.463439
0.808887	1.457787
0.808984	1.456943
0.809082	1.451293
0.809180	1.451105
0.809277	1.460899
0.809375	1.474401
0.809473	1.475514
0.809570	1.484279
0.809668	1.487001
0.809766	1.482788
0.809863	1.482274
0.809961	1.496072
0.810059	1.508680
0.810156	1.503391
0.810254	1.512240
0.810352	1.510567
0.810449	1.508262
0.810547	1.492741
0.810645	1.488827
0.810742	1.482390
0.810840	1.470923
0.810937	1.477838
0.811035	1.487207
0.811133	1.501015
0.811230	1.521667
0.811328	1.535004
0.811426	1.547477
0.811523	1.534430
0.811621	1.511462
0.811719	1.495104
0.811816	1.496753
0.811914	1.509089
0.812012	1.488552
0.812109	1.484509
0.812207	1.460216
0.812305	1.435615
0.812402	1.425046
0.812500	1.416523
0.812598	1.416474
0.812695	1.427057
0.812793	1.426226
0.812891	1.401064
0.812988	1.371710
0.813086	1.345475
0.813184	1.316564
0.813281	1.298013
0.813379	1.283536
0.813477	1.278597
0.813574	1.288647
0.813672	1.390453
0.813770	1.442284
0.813867	1.398532
0.813965	1.383440
0.814062	1.374110
0.814160	1.361989
0.814258	1.376761
0.814355	1.459315
0.814453	1.481133
0.814551	1.453514
0.814648	1.448610
0.814746	1.450519
0.814844	1.447770
0.814941	1.422370
0.815039	1.380072
0.815137	1.326394
0.815234	1.312845
0.815332	1.360285
0.815430	1.400453
0.815527	1.389286
0.815625	1.354968
0.815723	1.313260
0.815820	1.315406
0.815918	1.342090
0.816016	1.402117
0.816113	1.434232
0.816211	1.463387
0.816309	1.500948
0.816406	1.503570
0.816504	1.512969
0.816602	1.498157
0.816699	1.479941
0.816797	1.496149
0.816895	1.552966
0.816992	1.569508
0.817090	1.548887
0.817187	1.553498
0.817285	1.563094
0.817383	1.553267
0.817480	1.560145
0.817578	1.561552
0.817676	1.518546
0.817773	1.491471
0.817871	1.494369
0.817969	1.493813
0.818066	1.532936
0.818164	1.583628
0.818262	1.608189
0.818359	1.580825
0.818457	1.581963
0.818555	1.603629
0.818652	1.629112
0.818750	1.623660
0.818848	1.607375
0.818945	1.582771
0.819043	1.477574
0.819141	1.507452
0.819238	1.532781
0.819336	1.579468
0.819434	1.592808
0.819531	1.565622
0.819629	1.557263
0.819727	1.547676
0.819824	1.557878
0.819922	1.590410
0.820020	1.601994
0.820117	1.590407
0.820215	1.571857
0.820312	1.532769
0.820410	1.557572
0.820508	1.562688
0.820605	1.560766
0.820703	1.546992
0.820801	1.540106
0.820898	1.512593
0.820996	1.476536
0.821094	1.467902
0.821191	1.483291
0.821289	1.495287
0.821387	1.458970
0.821484	1.483438
0.821582	1.510904
0.821680	1.489768
0.821777	1.450190
0.821875	1.452636
0.821973	1.546603
0.822070	1.513917
0.822168	1.454386
0.822266	1.443652
0.822363	1.470663
0.822461	1.503570
0.822559	1.523981
0.822656	1.551653
0.822754	1.542332
0.822852	1.501046
0.822949	1.471187
0.823047	1.494471
0.823145	1.458007
0.823242	1.492900
0.823340	1.523751
0.823437	1.535264
0.823535	1.538393
0.823633	1.553834
0.823730	1.580818
0.823828	1.610757
0.823926	1.614605
0.824023	1.617063
0.824121	1.608307
0.824219	1.609722
0.824316	1.593997
0.824414	1.587942
0.824512	1.586702
0.824609	1.573212
0.824707	1.581468
0.824805	1.563294
0.824902	1.546796
0.825000	1.548945
0.825098	1.538256
0.825195	1.543664
0.825293	1.549895
0.825391	1.547026
0.825488	1.533182
0.825586	1.554694
0.825684	1.559847
0.825781	1.561092
0.825879	1.539627
0.825977	1.519930
0.826074	1.572578
0.826172	1.582499
0.826270	1.584396
0.826367	1.567835
0.826465	1.544428
0.826562	1.537403
0.826660	1.548424
0.826758	1.530934
0.826855	1.534547
0.826953	1.566602
0.827051	1.589611
0.827148	1.611646
0.827246	1.618789
0.827344	1.604365
0.827441	1.582339
0.827539	1.561651
0.827637	1.567803
0.827734	1.562986
0.827832	1.510278
0.827930	1.498777
0.828027	1.480688
0.828125	1.437498
0.828223	1.443089
0.828320	1.455961
0.828418	1.444072
0.828516	1.420289
0.828613	1.372726
0.828711	1.398813
0.828809	1.424388
0.828906	1.449860
0.829004	1.466988
0.829102	1.450160
0.829199	1.430241
0.829297	1.485206
0.829395	1.523860
0.829492	1.493027
0.829590	1.457072
0.829687	1.419234
0.829785	1.407596
0.829883	1.376145
0.829980	1.338835
0.830078	1.304314
0.830176	1.286990
0.830273	1.284201
0.830371	1.295562
0.830469	1.311427
0.830566	1.324658
0.830664	1.320158
0.830762	1.305950
0.830859	1.290445
0.830957	1.275498
0.831055	1.267884
0.831152	1.278297
0.831250	1.299566
0.831348	1.334538
0.831445	1.372114
0.831543	1.380864
0.831641	1.417426
0.831738	1.433692
0.831836	1.413594
0.831934	1.434078
0.832031	1.450200
0.832129	1.461826
0.832227	1.458563
0.832324	1.446781
0.832422	1.432778
0.832520	1.394910
0.832617	1.363987
0.832715	1.343463
0.832812	1.316579
0.832910	1.300065
0.833008	1.289371
0.833105	1.291639
0.833203	1.301451
0.833301	1.306565
0.833398	1.308196
0.833496	1.307962
0.833594	1.311181
0.833691	1.321097
0.833789	1.335984
0.833887	1.351697
0.833984	1.363908
0.834082	1.365587
0.834180	1.367294
0.834277	1.366493
0.834375	1.354239
0.834473	1.335313
0.834570	1.322320
0.834668	1.326388
0.834766	1.335341
0.834863	1.333917
0.834961	1.325564
0.835059	1.320889
0.835156	1.315462
0.835254	1.300079
0.835352	1.280180
0.835449	1.264114
0.835547	1.271490
0.835645	1.330434
0.835742	1.389717
0.835840	1.418478
0.835937	1.435096
0.836035	1.433144
0.836133	1.442321
0.836230	1.449816
0.836328	1.461211
0.836426	1.463416
0.836523	1.448446
0.836621	1.423873
0.836719	1.414841
0.836816	1.422199
0.836914	1.471363
0.837012	1.527894
0.837109	1.532871
0.837207	1.514382
0.837305	1.482153
0.837402	1.451530
0.837500	1.497296
0.837598	1.548659
0.837695	1.559782
0.837793	1.578060
0.837891	1.592792
0.837988	1.573517
0.838086	1.568280
0.838184	1.559134
0.838281	1.529150
0.838379	1.516593
0.838477	1.503292
0.838574	1.505518
0.838672	1.514959
0.838770	1.520206
0.838867	1.549910
0.838965	1.572654
0.839062	1.564547
0.839160	1.561732
0.839258	1.553858
0.839355	1.547400
0.839453	1.544990
0.839551	1.556183
0.839648	1.567311
0.839746	1.583403
0.839844	1.587600
0.839941	1.575538
0.840039	1.557837
0.840137	1.548108
0.840234	1.555261
0.840332	1.558394
0.840430	1.546796
0.840527	1.530123
0.840625	1.534121
0.840723	1.526425
0.840820	1.508248
0.840918	1.497037
0.841016	1.497946
0.841113	1.514306
0.841211	1.514927
0.841309	1.512279
0.841406	1.504486
0.841504	1.496530
0.841602	1.487927
0.841699	1.495333
0.841797	1.523809
0.841895	1.538181
0.841992	1.523307
0.842090	1.507077
0.842187	1.548077
0.842285	1.578198
0.842383	1.578567
0.842480	1.592043
0.842578	1.595811
0.842676	1.580795
0.842773	1.556574
0.842871	1.561777
0.842969	1.546497
0.843066	1.525179
0.843164	1.556840
0.843262	1.574245
0.843359	1.586769
0.843457	1.607251
0.843555	1.592752
0.843652	1.566337
0.843750	1.527891
0.843848	1.490388
0.843945	1.465535
0.844043	1.469256
0.844141	1.485241
0.844238	1.489317
0.844336	1.490171
0.844434	1.512859
0.844531	1.526903
0.844629	1.510104
0.844727	1.501014
0.844824	1.503678
0.844922	1.500959
0.845020	1.529902
0.845117	1.538511
0.845215	1.517247
0.845312	1.508309
0.845410	1.502885
0.845508	1.510973
0.845605	1.500131
0.845703	1.491977
0.845801	1.524819
0.845898	1.537732
0.845996	1.523933
0.846094	1.510139
0.846191	1.522714
0.846289	1.525604
0.846387	1.520697
0.846484	1.492860
0.846582	1.458780
0.846680	1.461305
0.846777	1.428664
0.846875	1.430920
0.846973	1.494240
0.847070	1.510547
0.847168	1.516593
0.847266	1.483196
0.847363	1.467314
0.847461	1.481862
0.847559	1.488518
0.847656	1.484533
0.847754	1.490767
0.847852	1.532457
0.847949	1.552967
0.848047	1.530416
0.848145	1.507891
0.848242	1.510996
0.848340	1.510290
0.848437	1.496086
0.848535	1.498827
0.848633	1.512439
0.848730	1.521273
0.848828	1.525657
0.848926	1.523304
0.849023	1.507383
0.849121	1.490833
0.849219	1.495059
0.849316	1.497973
0.849414	1.506313
0.849512	1.533312
0.849609	1.555814
0.849707	1.556422
0.849805	1.555451
0.849902	1.539208
0.850000	1.532766
0.850098	1.540826
0.850195	1.530408
0.850293	1.522450
0.850391	1.523410
0.850488	1.527645
0.850586	1.529720
0.850684	1.530170
0.850781	1.513340
0.850879	1.537126
0.850977	1.548092
0.851074	1.542650
0.851172	1.549247
0.851270	1.521046
0.851367	1.524954
0.851465	1.552520
0.851562	1.539861
0.851660	1.525571
0.851758	1.507694
0.851855	1.495315
0.851953	1.518354
0.852051	1.527009
0.852148	1.520451
0.852246	1.500858
0.852344	1.475044
0.852441	1.471015
0.852539	1.486474
0.852637	1.515974
0.852734	1.523188
0.852832	1.515202
0.852930	1.510415
0.853027	1.491866
0.853125	1.485739
0.853223	1.500205
0.853320	1.508239
0.853418	1.511217
0.853516	1.505657
0.853613	1.527363
0.853711	1.533921
0.853809	1.508669
0.853906	1.485120
0.854004	1.484444
0.854102	1.513298
0.854199	1.520336
0.854297	1.514706
0.854395	1.498284
0.854492	1.464016
0.854590	1.435041
0.854687	1.416404
0.854785	1.410568
0.854883	1.423200
0.854980	1.437277
0.855078	1.450845
0.855176	1.460066
0.855273	1.463117
0.855371	1.494254
0.855469	1.492123
0.855566	1.500743
0.855664	1.486910
0.855762	1.444336
0.855859	1.391085
0.855957	1.333537
0.856055	1.325686
0.856152	1.362613
0.856250	1.381114
0.856348	1.390017
0.856445	1.375574
0.856543	1.354074
0.856641	1.360453
0.856738	1.379237
0.856836	1.372131
0.856934	1.367772
0.857031	1.406068
0.857129	1.413935
0.857227	1.447275
0.857324	1.497917
0.857422	1.477173
0.857520	1.473510
0.857617	1.485383
0.857715	1.499820
0.857812	1.507962
0.857910	1.510983
0.858008	1.507372
0.858105	1.505080
0.858203	1.507328
0.858301	1.507495
0.858398	1.502916
0.858496	1.492614
0.858594	1.494331
0.858691	1.505298
0.858789	1.498755
0.858887	1.491021
0.858984	1.496649
0.859082	1.481796
0.859180	1.472813
0.859277	1.474996
0.859375	1.474387
0.859473	1.485754
0.859570	1.510268
0.859668	1.555444
0.859766	1.569222
0.859863	1.573714
0.859961	1.583352
0.860059	1.578206
0.860156	1.572617
0.860254	1.579099
0.860352	1.581326
0.860449	1.575950
0.860547	1.568918
0.860645	1.564998
0.860742	1.561742
0.860840	1.558874
0.860937	1.564991
0.861035	1.576776
0.861133	1.570692
0.861230	1.561370
0.861328	1.552582
0.861426	1.568155
0.861523	1.567614
0.861621	1.566045
0.861719	1.555544
0.861816	1.543729
0.861914	1.522606
0.862012	1.510146
0.862109	1.541691
0.862207	1.541326
0.862305	1.554606
0.862402	1.569990
0.862500	1.584070
0.862598	1.552889
0.862695	1.580268
0.862793	1.593498
0.862891	1.595295
0.862988	1.592563
0.863086	1.538978
0.863184	1.536246
0.863281	1.561048
0.863379	1.559570
0.863477	1.552818
0.863574	1.584841
0.863672	1.594601
0.863770	1.584851
0.863867	1.584159
0.863965	1.570177
0.864062	1.562581
0.864160	1.549563
0.864258	1.538945
0.864355	1.565620
0.864453	1.581344
0.864551	1.580066
0.864648	1.577199
0.864746	1.575089
0.864844	1.551905
0.864941	1.483284
0.865039	1.430939
0.865137	1.428965
0.865234	1.452024
0.865332	1.463754
0.865430	1.456155
0.865527	1.490291
0.865625	1.565927
0.865723	1.558632
0.865820	1.562542
0.865918	1.564102
0.866016	1.552485
0.866113	1.579330
0.866211	1.563863
0.866309	1.557491
0.866406	1.554593
0.866504	1.547525
0.866602	1.566767
0.866699	1.599306
0.866797	1.610727
0.866895	1.580657
0.866992	1.597991
0.867090	1.636422
0.867187	1.640528
0.867285	1.622873
0.867383	1.621633
0.867480	1.592690
0.867578	1.572802
0.867676	1.529943
0.867773	1.586033
0.867871	1.623665
0.867969	1.577625
0.868066	1.539283
0.868164	1.517038
0.868262	1.513986
0.868359	1.517350
0.868457	1.527751
0.868555	1.516206
0.868652	1.510251
0.868750	1.494514
0.868848	1.503592
0.868945	1.506572
0.869043	1.511077
0.869141	1.521811
0.869238	1.532581
0.869336	1.511192
0.869434	1.511771
0.869531	1.519800
0.869629	1.512737
0.869727	1.499615
0.869824	1.491128
0.869922	1.493484
0.870020	1.488116
0.870117	1.478026
0.870215	1.462968
0.870312	1.446793
0.870410	1.433431
0.870508	1.426055
0.870605	1.429129
0.870703	1.429950
0.870801	1.405352
0.870898	1.397998
0.870996	1.407251
0.871094	1.407931
0.871191	1.403183
0.871289	1.397059
0.871387	1.394437
0.871484	1.388419
0.871582	1.378440
0.871680	1.366571
0.871777	1.359556
0.871875	1.356481
0.871973	1.354722
0.872070	1.354613
0.872168	1.355180
0.872266	1.353214
0.872363	1.348682
0.872461	1.343376
0.872559	1.337135
0.872656	1.329793
0.872754	1.321279
0.872852	1.312891
0.872949	1.304658
0.873047	1.297532
0.873145	1.291746
0.873242	1.288532
0.873340	1.287710
0.873437	1.289733
0.873535	1.292830
0.873633	1.297334
0.873730	1.301564
0.873828	1.306699
0.873926	1.308704
0.874023	1.305771
0.874121	1.296930
0.874219	1.293874
0.874316	1.287678
0.874414	1.302356
0.874512	1.355370
0.874609	1.395991
0.874707	1.413899
0.874805	1.429801
0.874902	1.443920
0.875000	1.467999
0.875098	1.492547
0.875195	1.487169
0.875293	1.530335
0.875391	1.535562
0.875488	1.521620
0.875586	1.519327
0.875684	1.524144
0.875781	1.524401
0.875879	1.518394
0.875977	1.516654
0.876074	1.508432
0.876172	1.499186
0.876270	1.489423
0.876367	1.489976
0.876465	1.453540
0.876562	1.432754
0.876660	1.495001
0.876758	1.493713
0.876855	1.486209
0.876953	1.485556
0.877051	1.488261
0.877148	1.459318
0.877246	1.462650
0.877344	1.496852
0.877441	1.473092
0.877539	1.470104
0.877637	1.457898
0.877734	1.443813
0.877832	1.477973
0.877930	1.514015
0.878027	1.535154
0.878125	1.532416
0.878223	1.500900
0.878320	1.452123
0.878418	1.433652
0.878516	1.436243
0.878613	1.481416
0.878711	1.497897
0.878809	1.483517
0.878906	1.475075
0.879004	1.466787
0.879102	1.444543
0.879199	1.403983
0.879297	1.421247
0.879395	1.446973
0.879492	1.444163
0.879590	1.426385
0.879687	1.416848
0.879785	1.411409
0.879883	1.411321
0.879980	1.425160
0.880078	1.506645
0.880176	1.560797
0.880273	1.552899
0.880371	1.550444
0.880469	1.543781
0.880566	1.544487
0.880664	1.530488
0.880762	1.527850
0.880859	1.519091
0.880957	1.480019
0.881055	1.504313
0.881152	1.526162
0.881250	1.523398
0.881348	1.523022
0.881445	1.511548
0.881543	1.495832
0.881641	1.455291
0.881738	1.425475
0.881836	1.426038
0.881934	1.439237
0.882031	1.448658
0.882129	1.449356
0.882227	1.451700
0.882324	1.451407
0.882422	1.480151
0.882520	1.512991
0.882617	1.514925
0.882715	1.512148
0.882812	1.513861
0.882910	1.515699
0.883008	1.522508
0.883105	1.531624
0.883203	1.526891
0.883301	1.515941
0.883398	1.505591
0.883496	1.499034
0.883594	1.491037
0.883691	1.481991
0.883789	1.478931
0.883887	1.465239
0.883984	1.452585
0.884082	1.433167
0.884180	1.403155
0.884277	1.381443
0.884375	1.364303
0.884473	1.357444
0.884570	1.373321
0.884668	1.416199
0.884766	1.447607
0.884863	1.473709
0.884961	1.442235
0.885059	1.434387
0.885156	1.439434
0.885254	1.438816
0.885352	1.454672
0.885449	1.455579
0.885547	1.462067
0.885645	1.463330
0.885742	1.453214
0.885840	1.433386
0.885937	1.430964
0.886035	1.461386
0.886133	1.469672
0.886230	1.452290
0.886328	1.446292
0.886426	1.427154
0.886523	1.437904
0.886621	1.460242
0.886719	1.486859
0.886816	1.504968
0.886914	1.494364
0.887012	1.499286
0.887109	1.482195
0.887207	1.472865
0.887305	1.469967
0.887402	1.459530
0.887500	1.459637
0.887598	1.455236
0.887695	1.444201
0.887793	1.434370
0.887891	1.425534
0.887988	1.448073
0.888086	1.492296
0.888184	1.477135
0.888281	1.498450
0.888379	1.489371
0.888477	1.482439
0.888574	1.483946
0.888672	1.548978
0.888770	1.538043
0.888867	1.518013
0.888965	1.510984
0.889062	1.520902
0.889160	1.509676
0.889258	1.495480
0.889355	1.476128
0.889453	1.470828
0.889551	1.512284
0.889648	1.510745
0.889746	1.466930
0.889844	1.471260
0.889941	1.455740
0.890039	1.477070
0.890137	1.512363
0.890234	1.525629
0.890332	1.509210
0.890430	1.470442
0.890527	1.502479
0.890625	1.475981
0.890723	1.455505
0.890820	1.485925
0.890918	1.510257
0.891016	1.483558
0.891113	1.491734
0.891211	1.484231
0.891309	1.518097
0.891406	1.520320
0.891504	1.513258
0.891602	1.487183
0.891699	1.488591
0.891797	1.533597
0.891895	1.588017
0.891992	1.584296
0.892090	1.575383
0.892187	1.568583
0.892285	1.559247
0.892383	1.565638
0.892480	1.577322
0.892578	1.582481
0.892676	1.588263
0.892773	1.586132
0.892871	1.566701
0.892969	1.535330
0.893066	1.529902
0.893164	1.524123
0.893262	1.519584
0.893359	1.466807
0.893457	1.468870
0.893555	1.465662
0.893652	1.484617
0.893750	1.519003
0.893848	1.550501
0.893945	1.556244
0.894043	1.473642
0.894141	1.432171
0.894238	1.464747
0.894336	1.467215
0.894434	1.458404
0.894531	1.506639
0.894629	1.598871
0.894727	1.601644
0.894824	1.638852
0.894922	1.641840
0.895020	1.641831
0.895117	1.627958
0.895215	1.640710
0.895312	1.566555
0.895410	1.530670
0.895508	1.591403
0.895605	1.569073
0.895703	1.551140
0.895801	1.544475
0.895898	1.549632
0.895996	1.568694
0.896094	1.570439
0.896191	1.572709
0.896289	1.593774
0.896387	1.596444
0.896484	1.578025
0.896582	1.535395
0.896680	1.504765
0.896777	1.495572
0.896875	1.527798
0.896973	1.523474
0.897070	1.530748
0.897168	1.512181
0.897266	1.495849
0.897363	1.466614
0.897461	1.453437
0.897559	1.432330
0.897656	1.438338
0.897754	1.543134
0.897852	1.571869
0.897949	1.535660
0.898047	1.539500
0.898145	1.539242
0.898242	1.544818
0.898340	1.559263
0.898437	1.570563
0.898535	1.566699
0.898633	1.545124
0.898730	1.516692
0.898828	1.515784
0.898926	1.522361
0.899023	1.509316
0.899121	1.491313
0.899219	1.469618
0.899316	1.462345
0.899414	1.453594
0.899512	1.449358
0.899609	1.444930
0.899707	1.430227
0.899805	1.481540
0.899902	1.521435
0.900000	1.491248
0.900098	1.481291
0.900195	1.488737
0.900293	1.464017
0.900391	1.427109
0.900488	1.396904
0.900586	1.380529
0.900684	1.360840
0.900781	1.345275
0.900879	1.372587
0.900977	1.405968
0.901074	1.417194
0.901172	1.420537
0.901270	1.424115
0.901367	1.437774
0.901465	1.444544
0.901562	1.455010
0.901660	1.454891
0.901758	1.426171
0.901855	1.412139
0.901953	1.381224
0.902051	1.357601
0.902148	1.340477
0.902246	1.327067
0.902344	1.312117
0.902441	1.294495
0.902539	1.286997
0.902637	1.307647
0.902734	1.345495
0.902832	1.378282
0.902930	1.403841
0.903027	1.444540
0.903125	1.481893
0.903223	1.456044
0.903320	1.459282
0.903418	1.465473
0.903516	1.461505
0.903613	1.461204
0.903711	1.454423
0.903809	1.485867
0.903906	1.507512
0.904004	1.497835
0.904102	1.488154
0.904199	1.547192
0.904297	1.560523
0.904395	1.530302
0.904492	1.555778
0.904590	1.563916
0.904687	1.573013
0.904785	1.611842
0.904883	1.623038
0.904980	1.564325
0.905078	1.526932
0.905176	1.527964
0.905273	1.546274
0.905371	1.563108
0.905469	1.559849
0.905566	1.559639
0.905664	1.576821
0.905762	1.579269
0.905859	1.577716
0.905957	1.575034
0.906055	1.568203
0.906152	1.580760
0.906250	1.601559
0.906348	1.609844
0.906445	1.611119
0.906543	1.599310
0.906641	1.593405
0.906738	1.587059
0.906836	1.585841
0.906934	1.568656
0.907031	1.556946
0.907129	1.555531
0.907227	1.550116
0.907324	1.519132
0.907422	1.537412
0.907520	1.543312
0.907617	1.549010
0.907715	1.512649
0.907812	1.545451
0.907910	1.618146
0.908008	1.629393
0.908105	1.625581
0.908203	1.609777
0.908301	1.592868
0.908398	1.542077
0.908496	1.561813
0.908594	1.592818
0.908691	1.581204
0.908789	1.568617
0.908887	1.607773
0.908984	1.633620
0.909082	1.631122
0.909180	1.628778
0.909277	1.634155
0.909375	1.617363
0.909473	1.625658
0.909570	1.625185
0.909668	1.611474
0.909766	1.598653
0.909863	1.593206
0.909961	1.589914
0.910059	1.580676
0.910156	1.528028
0.910254	1.529375
0.910352	1.507422
0.910449	1.468736
0.910547	1.487805
0.910645	1.448287
0.910742	1.447148
0.910840	1.456459
0.910937	1.498691
0.911035	1.435995
0.911133	1.394470
0.911230	1.412442
0.911328	1.433471
0.911426	1.481664
0.911523	1.490561
0.911621	1.479071
0.911719	1.447518
0.911816	1.427408
0.911914	1.392752
0.912012	1.418057
0.912109	1.400169
0.912207	1.378856
0.912305	1.351971
0.912402	1.393853
0.912500	1.443645
0.912598	1.423408
0.912695	1.416945
0.912793	1.404202
0.912891	1.392467
0.912988	1.381584
0.913086	1.392735
0.913184	1.384219
0.913281	1.360919
0.913379	1.360318
0.913477	1.365127
0.913574	1.352719
0.913672	1.335178
0.913770	1.329774
0.913867	1.349106
0.913965	1.369163
0.914062	1.367740
0.914160	1.357853
0.914258	1.353526
0.914355	1.349641
0.914453	1.344322
0.914551	1.333354
0.914648	1.326631
0.914746	1.326741
0.914844	1.316346
0.914941	1.301067
0.915039	1.289955
0.915137	1.282911
0.915234	1.276575
0.915332	1.271593
0.915430	1.274682
0.915527	1.298548
0.915625	1.345484
0.915723	1.377243
0.915820	1.379115
0.915918	1.367953
0.916016	1.347599
0.916113	1.322767
0.916211	1.307586
0.916309	1.315838
0.916406	1.360620
0.916504	1.426379
0.916602	1.464623
0.916699	1.481048
0.916797	1.482764
0.916895	1.494422
0.916992	1.511505
0.917090	1.508177
0.917187	1.527457
0.917285	1.539974
0.917383	1.527604
0.917480	1.517641
0.917578	1.504688
0.917676	1.528612
0.917773	1.543894
0.917871	1.541907
0.917969	1.546525
0.918066	1.540846
0.918164	1.543555
0.918262	1.554831
0.918359	1.551858
0.918457	1.553301
0.918555	1.563335
0.918652	1.553411
0.918750	1.528957
0.918848	1.512779
0.918945	1.503774
0.919043	1.493807
0.919141	1.491019
0.919238	1.495480
0.919336	1.503513
0.919434	1.509139
0.919531	1.497558
0.919629	1.485815
0.919727	1.479506
0.919824	1.476146
0.919922	1.467970
0.920020	1.454952
0.920117	1.443078
0.920215	1.433025
0.920312	1.416855
0.920410	1.390399
0.920508	1.355340
0.920605	1.324431
0.920703	1.323596
0.920801	1.340914
0.920898	1.355591
0.920996	1.361161
0.921094	1.353299
0.921191	1.335947
0.921289	1.312256
0.921387	1.287487
0.921484	1.273352
0.921582	1.283805
0.921680	1.307891
0.921777	1.321646
0.921875	1.320273
0.921973	1.313084
0.922070	1.301020
0.922168	1.292017
0.922266	1.289477
0.922363	1.292332
0.922461	1.300068
0.922559	1.310911
0.922656	1.321591
0.922754	1.329339
0.922852	1.337394
0.922949	1.351526
0.923047	1.367364
0.923145	1.371641
0.923242	1.366615
0.923340	1.363034
0.923437	1.369383
0.923535	1.385769
0.923633	1.408863
0.923730	1.431914
0.923828	1.449378
0.923926	1.448982
0.924023	1.435933
0.924121	1.426571
0.924219	1.427955
0.924316	1.429417
0.924414	1.449707
0.924512	1.446105
0.924609	1.450782
0.924707	1.501551
0.924805	1.540195
0.924902	1.548083
0.925000	1.537361
0.925098	1.513793
0.925195	1.468088
0.925293	1.455045
0.925391	1.485333
0.925488	1.496470
0.925586	1.498705
0.925684	1.512435
0.925781	1.491044
0.925879	1.466819
0.925977	1.438888
0.926074	1.432589
0.926172	1.445160
0.926270	1.451660
0.926367	1.440138
0.926465	1.431890
0.926562	1.412545
0.926660	1.423481
0.926758	1.479078
0.926855	1.515980
0.926953	1.468540
0.927051	1.471856
0.927148	1.521013
0.927246	1.522332
0.927344	1.502208
0.927441	1.492015
0.927539	1.521478
0.927637	1.542152
0.927734	1.570197
0.927832	1.582829
0.927930	1.601675
0.928027	1.616985
0.928125	1.630974
0.928223	1.603925
0.928320	1.576938
0.928418	1.553243
0.928516	1.538142
0.928613	1.538614
0.928711	1.552393
0.928809	1.559004
0.928906	1.562732
0.929004	1.564313
0.929102	1.553012
0.929199	1.543311
0.929297	1.535749
0.929395	1.530604
0.929492	1.540657
0.929590	1.518058
0.929687	1.516005
0.929785	1.524654
0.929883	1.520525
0.929980	1.513912
0.930078	1.502131
0.930176	1.494118
0.930273	1.484979
0.930371	1.505850
0.930469	1.564154
0.930566	1.566349
0.930664	1.542786
0.930762	1.538673
0.930859	1.537188
0.930957	1.504833
0.931055	1.439602
0.931152	1.440153
0.931250	1.460724
0.931348	1.472023
0.931445	1.458591
0.931543	1.452813
0.931641	1.423832
0.931738	1.402685
0.931836	1.388828
0.931934	1.361331
0.932031	1.333886
0.932129	1.312186
0.932227	1.314953
0.932324	1.349108
0.932422	1.369898
0.932520	1.362966
0.932617	1.362466
0.932715	1.348242
0.932812	1.333286
0.932910	1.320110
0.933008	1.299036
0.933105	1.293155
0.933203	1.290246
0.933301	1.292205
0.933398	1.307168
0.933496	1.328286
0.933594	1.356921
0.933691	1.381707
0.933789	1.393569
0.933887	1.400011
0.933984	1.398964
0.934082	1.395349
0.934180	1.390127
0.934277	1.382815
0.934375	1.373678
0.934473	1.366707
0.934570	1.362145
0.934668	1.358028
0.934766	1.352521
0.934863	1.346821
0.934961	1.340895
0.935059	1.334183
0.935156	1.327802
0.935254	1.323501
0.935352	1.316037
0.935449	1.305741
0.935547	1.303574
0.935645	1.311027
0.935742	1.315337
0.935840	1.324861
0.935937	1.359215
0.936035	1.384826
0.936133	1.385097
0.936230	1.378416
0.936328	1.375584
0.936426	1.387020
0.936523	1.398585
0.936621	1.402375
0.936719	1.394748
0.936816	1.373787
0.936914	1.343624
0.937012	1.334151
0.937109	1.342411
0.937207	1.401803
0.937305	1.429948
0.937402	1.430206
0.937500	1.444757
0.937598	1.448711
0.937695	1.437732
0.937793	1.485735
0.937891	1.500858
0.937988	1.505598
0.938086	1.498555
0.938184	1.466514
0.938281	1.474983
0.938379	1.464143
0.938477	1.457547
0.938574	1.451460
0.938672	1.451651
0.938770	1.449873
0.938867	1.455829
0.938965	1.468035
0.939062	1.491680
0.939160	1.487650
0.939258	1.469717
0.939355	1.451157
0.939453	1.436924
0.939551	1.437520
0.939648	1.442826
0.939746	1.446561
0.939844	1.448992
0.939941	1.442498
0.940039	1.429013
0.940137	1.419565
0.940234	1.410824
0.940332	1.405452
0.940430	1.409152
0.940527	1.419061
0.940625	1.433971
0.940723	1.457760
0.940820	1.477553
0.940918	1.487041
0.941016	1.488076
0.941113	1.473906
0.941211	1.470003
0.941309	1.485404
0.941406	1.497921
0.941504	1.495494
0.941602	1.493370
0.941699	1.493492
0.941797	1.487271
0.941895	1.481141
0.941992	1.485925
0.942090	1.510203
0.942187	1.527657
0.942285	1.537078
0.942383	1.536837
0.942480	1.521956
0.942578	1.506620
0.942676	1.486390
0.942773	1.472311
0.942871	1.460794
0.942969	1.448349
0.943066	1.451535
0.943164	1.474476
0.943262	1.489390
0.943359	1.462523
0.943457	1.459541
0.943555	1.508510
0.943652	1.524104
0.943750	1.515395
0.943848	1.518345
0.943945	1.524593
0.944043	1.528064
0.944141	1.524338
0.944238	1.526718
0.944336	1.509850
0.944434	1.511406
0.944531	1.499380
0.944629	1.504340
0.944727	1.509621
0.944824	1.487439
0.944922	1.454999
0.945020	1.452448
0.945117	1.470662
0.945215	1.459273
0.945312	1.445312
0.945410	1.425927
0.945508	1.424770
0.945605	1.433338
0.945703	1.461656
0.945801	1.474075
0.945898	1.468101
0.945996	1.486713
0.946094	1.475595
0.946191	1.474276
0.946289	1.478283
0.946387	1.478297
0.946484	1.482327
0.946582	1.491831
0.946680	1.480818
0.946777	1.462237
0.946875	1.430798
0.946973	1.460429
0.947070	1.482535
0.947168	1.497843
0.947266	1.504625
0.947363	1.496844
0.947461	1.469265
0.947559	1.453345
0.947656	1.491263
0.947754	1.497636
0.947852	1.492032
0.947949	1.486367
0.948047	1.477610
0.948145	1.471069
0.948242	1.431263
0.948340	1.373068
0.948437	1.364863
0.948535	1.411941
0.948633	1.461993
0.948730	1.489437
0.948828	1.441452
0.948926	1.412869
0.949023	1.438852
0.949121	1.447817
0.949219	1.422787
0.949316	1.425895
0.949414	1.462669
0.949512	1.454671
0.949609	1.469368
0.949707	1.452791
0.949805	1.431198
0.949902	1.417410
0.950000	1.395849
0.950098	1.384593
0.950195	1.387985
0.950293	1.394970
0.950391	1.397106
0.950488	1.399518
0.950586	1.416374
0.950684	1.449708
0.950781	1.451295
0.950879	1.428302
0.950977	1.437118
0.951074	1.429303
0.951172	1.404185
0.951270	1.378862
0.951367	1.371404
0.951465	1.367866
0.951562	1.367569
0.951660	1.394899
0.951758	1.439116
0.951855	1.478155
0.951953	1.469278
0.952051	1.433925
0.952148	1.429376
0.952246	1.428605
0.952344	1.414613
0.952441	1.417132
0.952539	1.412908
0.952637	1.380631
0.952734	1.367486
0.952832	1.406480
0.952930	1.446567
0.953027	1.483854
0.953125	1.505973
0.953223	1.520037
0.953320	1.548892
0.953418	1.561489
0.953516	1.562756
0.953613	1.562733
0.953711	1.567934
0.953809	1.566582
0.953906	1.541579
0.954004	1.491465
0.954102	1.449273
0.954199	1.440043
0.954297	1.419020
0.954395	1.419954
0.954492	1.443232
0.954590	1.446858
0.954687	1.388359
0.954785	1.335350
0.954883	1.420920
0.954980	1.464131
0.955078	1.418870
0.955176	1.396293
0.955273	1.445994
0.955371	1.432935
0.955469	1.420172
0.955566	1.433096
0.955664	1.471620
0.955762	1.513375
0.955859	1.516638
0.955957	1.521346
0.956055	1.556317
0.956152	1.553040
0.956250	1.546406
0.956348	1.555230
0.956445	1.557142
0.956543	1.563853
0.956641	1.547524
0.956738	1.543035
0.956836	1.537863
0.956934	1.512337
0.957031	1.489844
0.957129	1.484165
0.957227	1.480933
0.957324	1.510445
0.957422	1.525010
0.957520	1.559416
0.957617	1.558066
0.957715	1.544712
0.957812	1.560426
0.957910	1.556484
0.958008	1.541898
0.958105	1.550207
0.958203	1.557760
0.958301	1.562880
0.958398	1.541960
0.958496	1.538821
0.958594	1.556818
0.958691	1.550089
0.958789	1.524336
0.958887	1.502208
0.958984	1.492864
0.959082	1.535800
0.959180	1.562275
0.959277	1.549975
0.959375	1.534796
0.959473	1.532917
0.959570	1.527488
0.959668	1.542484
0.959766	1.525150
0.959863	1.525135
0.959961	1.508318
0.960059	1.514387
0.960156	1.524407
0.960254	1.517863
0.960352	1.515117
0.960449	1.490161
0.960547	1.456147
0.960645	1.430305
0.960742	1.415941
0.960840	1.405610
0.960937	1.381675
0.961035	1.366176
0.961133	1.350537
0.961230	1.371451
0.961328	1.396760
0.961426	1.410507
0.961523	1.407657
0.961621	1.401897
0.961719	1.398374
0.961816	1.386729
0.961914	1.414430
0.962012	1.405690
0.962109	1.387844
0.962207	1.379861
0.962305	1.378629
0.962402	1.393849
0.962500	1.395037
0.962598	1.404661
0.962695	1.419428
0.962793	1.436915
0.962891	1.459396
0.962988	1.433873
0.963086	1.404532
0.963184	1.381490
0.963281	1.378927
0.963379	1.411912
0.963477	1.408416
0.963574	1.423242
0.963672	1.430179
0.963770	1.411241
0.963867	1.448842
0.963965	1.475111
0.964062	1.468067
0.964160	1.461222
0.964258	1.470974
0.964355	1.475345
0.964453	1.464605
0.964551	1.474080
0.964648	1.460118
0.964746	1.465187
0.964844	1.484124
0.964941	1.483311
0.965039	1.481305
0.965137	1.466971
0.965234	1.447653
0.965332	1.458186
0.965430	1.458442
0.965527	1.459529
0.965625	1.450269
0.965723	1.437895
0.965820	1.430007
0.965918	1.429053
0.966016	1.464927
0.966113	1.496218
0.966211	1.509297
0.966309	1.481153
0.966406	1.446666
0.966504	1.435966
0.966602	1.441176
0.966699	1.472017
0.966797	1.489145
0.966895	1.514094
0.966992	1.532359
0.967090	1.519691
0.967187	1.504020
0.967285	1.490956
0.967383	1.483704
0.967480	1.461237
0.967578	1.434684
0.967676	1.410618
0.967773	1.399310
0.967871	1.403800
0.967969	1.384928
0.968066	1.401685
0.968164	1.457486
0.968262	1.468389
0.968359	1.454708
0.968457	1.453438
0.968555	1.458548
0.968652	1.462121
0.968750	1.485655
0.968848	1.492772
0.968945	1.480812
0.969043	1.475632
0.969141	1.490451
0.969238	1.520392
0.969336	1.515096
0.969434	1.497090
0.969531	1.437624
0.969629	1.484665
0.969727	1.494677
0.969824	1.509018
0.969922	1.523872
0.970020	1.503054
0.970117	1.490998
0.970215	1.463752
0.970312	1.469591
0.970410	1.471371
0.970508	1.457684
0.970605	1.437566
0.970703	1.417951
0.970801	1.416527
0.970898	1.426181
0.970996	1.424385
0.971094	1.404628
0.971191	1.379724
0.971289	1.365369
0.971387	1.362302
0.971484	1.388184
0.971582	1.425531
0.971680	1.484793
0.971777	1.495292
0.971875	1.478107
0.971973	1.498303
0.972070	1.450755
0.972168	1.399393
0.972266	1.396420
0.972363	1.410134
0.972461	1.441314
0.972559	1.450861
0.972656	1.484602
0.972754	1.498245
0.972852	1.473285
0.972949	1.450393
0.973047	1.437393
0.973145	1.418092
0.973242	1.394739
0.973340	1.388691
0.973437	1.397553
0.973535	1.389357
0.973633	1.381002
0.973730	1.389899
0.973828	1.403459
0.973926	1.408507
0.974023	1.412484
0.974121	1.422611
0.974219	1.419827
0.974316	1.412297
0.974414	1.402161
0.974512	1.411177
0.974609	1.417577
0.974707	1.412648
0.974805	1.395484
0.974902	1.378494
0.975000	1.354931
0.975098	1.342591
0.975195	1.363153
0.975293	1.365610
0.975391	1.366997
0.975488	1.352004
0.975586	1.377902
0.975684	1.404409
0.975781	1.397998
0.975879	1.395677
0.975977	1.394141
0.976074	1.404000
0.976172	1.409972
0.976270	1.412443
0.976367	1.405315
0.976465	1.388139

