LabVIEW Measurement	
Writer_Version	2
Reader_Version	2
Separator	Tab
Decimal_Separator	.
Multi_Headings	Yes
X_Columns	One
Time_Pref	Absolute
Operator	W-Tunnel
Date	1904/01/01
Time	01:00:00
***End_of_Header***	
	
Channels	1	
Samples	10000	
Date	2024/05/17	
Time	18:31:39.2653620562498750003	
Y_Unit_Label	Volts	
X_Dimension	Time	
X0	0.0000000000000000E+0	
Delta_X	9.765625E-5	
***End_of_Header***		
X_Value	Voltage	Comment
0.000000	1.684949
9.765625E-5	1.684887
0.000195	1.684870
0.000293	1.684842
0.000391	1.684797
0.000488	1.684757
0.000586	1.684650
0.000684	1.684575
0.000781	1.684543
0.000879	1.684448
0.000977	1.684369
0.001074	1.684202
0.001172	1.684160
0.001270	1.683995
0.001367	1.683828
0.001465	1.683713
0.001562	1.683555
0.001660	1.683363
0.001758	1.683172
0.001855	1.682980
0.001953	1.682922
0.002051	1.682706
0.002148	1.682518
0.002246	1.682477
0.002344	1.682368
0.002441	1.682315
0.002539	1.682232
0.002637	1.682216
0.002734	1.682316
0.002832	1.682324
0.002930	1.682516
0.003027	1.682646
0.003125	1.682855
0.003223	1.683039
0.003320	1.683316
0.003418	1.683528
0.003516	1.683902
0.003613	1.684258
0.003711	1.684594
0.003809	1.685114
0.003906	1.685634
0.004004	1.686179
0.004102	1.686836
0.004199	1.687525
0.004297	1.688432
0.004395	1.689334
0.004492	1.690438
0.004590	1.691608
0.004687	1.692788
0.004785	1.693837
0.004883	1.694659
0.004980	1.695087
0.005078	1.694953
0.005176	1.694494
0.005273	1.693755
0.005371	1.693125
0.005469	1.692762
0.005566	1.692594
0.005664	1.692467
0.005762	1.692124
0.005859	1.691351
0.005957	1.690241
0.006055	1.688803
0.006152	1.687335
0.006250	1.685931
0.006348	1.684732
0.006445	1.683772
0.006543	1.683002
0.006641	1.682205
0.006738	1.681566
0.006836	1.680965
0.006934	1.680362
0.007031	1.679825
0.007129	1.679212
0.007227	1.678487
0.007324	1.677832
0.007422	1.677051
0.007520	1.676311
0.007617	1.675761
0.007715	1.675132
0.007812	1.674600
0.007910	1.674223
0.008008	1.673891
0.008105	1.673690
0.008203	1.673568
0.008301	1.673338
0.008398	1.673291
0.008496	1.673164
0.008594	1.673165
0.008691	1.673153
0.008789	1.673184
0.008887	1.673162
0.008984	1.673120
0.009082	1.673280
0.009180	1.673258
0.009277	1.673366
0.009375	1.673382
0.009473	1.673396
0.009570	1.673454
0.009668	1.673488
0.009766	1.673477
0.009863	1.673366
0.009961	1.673321
0.010059	1.673240
0.010156	1.673026
0.010254	1.672931
0.010352	1.672660
0.010449	1.672415
0.010547	1.672227
0.010645	1.671865
0.010742	1.671679
0.010840	1.671444
0.010937	1.671180
0.011035	1.671047
0.011133	1.670703
0.011230	1.670578
0.011328	1.670497
0.011426	1.670410
0.011523	1.670476
0.011621	1.670354
0.011719	1.670383
0.011816	1.670475
0.011914	1.670494
0.012012	1.670561
0.012109	1.670721
0.012207	1.670772
0.012305	1.671037
0.012402	1.671307
0.012500	1.671462
0.012598	1.671658
0.012695	1.672030
0.012793	1.672284
0.012891	1.672754
0.012988	1.673121
0.013086	1.673626
0.013184	1.674139
0.013281	1.674687
0.013379	1.675248
0.013477	1.675967
0.013574	1.676621
0.013672	1.677457
0.013770	1.678363
0.013867	1.679297
0.013965	1.680372
0.014062	1.681413
0.014160	1.682599
0.014258	1.683767
0.014355	1.685076
0.014453	1.686184
0.014551	1.687429
0.014648	1.688454
0.014746	1.689492
0.014844	1.690246
0.014941	1.690858
0.015039	1.691175
0.015137	1.691266
0.015234	1.691236
0.015332	1.690997
0.015430	1.690623
0.015527	1.690486
0.015625	1.690325
0.015723	1.690200
0.015820	1.690125
0.015918	1.690215
0.016016	1.690401
0.016113	1.690569
0.016211	1.691086
0.016309	1.691656
0.016406	1.692252
0.016504	1.692990
0.016602	1.693829
0.016699	1.694698
0.016797	1.695302
0.016895	1.695870
0.016992	1.696174
0.017090	1.696177
0.017187	1.695992
0.017285	1.695821
0.017383	1.695508
0.017480	1.695182
0.017578	1.694875
0.017676	1.694505
0.017773	1.694112
0.017871	1.693538
0.017969	1.693009
0.018066	1.692098
0.018164	1.691219
0.018262	1.690236
0.018359	1.689346
0.018457	1.688252
0.018555	1.687284
0.018652	1.686196
0.018750	1.685128
0.018848	1.684091
0.018945	1.683055
0.019043	1.682202
0.019141	1.681421
0.019238	1.680793
0.019336	1.680236
0.019434	1.679868
0.019531	1.679476
0.019629	1.679324
0.019727	1.679177
0.019824	1.679044
0.019922	1.678997
0.020020	1.679009
0.020117	1.679022
0.020215	1.679099
0.020312	1.679164
0.020410	1.679431
0.020508	1.679462
0.020605	1.679669
0.020703	1.679763
0.020801	1.679952
0.020898	1.680107
0.020996	1.680199
0.021094	1.680281
0.021191	1.680369
0.021289	1.680448
0.021387	1.680462
0.021484	1.680486
0.021582	1.680505
0.021680	1.680384
0.021777	1.680308
0.021875	1.680087
0.021973	1.679839
0.022070	1.679587
0.022168	1.679122
0.022266	1.678648
0.022363	1.678052
0.022461	1.677496
0.022559	1.676735
0.022656	1.675949
0.022754	1.675281
0.022852	1.674463
0.022949	1.673862
0.023047	1.673258
0.023145	1.672734
0.023242	1.672170
0.023340	1.671711
0.023437	1.671317
0.023535	1.671036
0.023633	1.670806
0.023730	1.670527
0.023828	1.670438
0.023926	1.670226
0.024023	1.670184
0.024121	1.670101
0.024219	1.670041
0.024316	1.669955
0.024414	1.670011
0.024512	1.669870
0.024609	1.669823
0.024707	1.669832
0.024805	1.669897
0.024902	1.669925
0.025000	1.670052
0.025098	1.670268
0.025195	1.670608
0.025293	1.670912
0.025391	1.671423
0.025488	1.672015
0.025586	1.672828
0.025684	1.673700
0.025781	1.674443
0.025879	1.675237
0.025977	1.675904
0.026074	1.676344
0.026172	1.676769
0.026270	1.677083
0.026367	1.677362
0.026465	1.677560
0.026562	1.677718
0.026660	1.677771
0.026758	1.677795
0.026855	1.677728
0.026953	1.677519
0.027051	1.677244
0.027148	1.676929
0.027246	1.676823
0.027344	1.676458
0.027441	1.676377
0.027539	1.676290
0.027637	1.676286
0.027734	1.676251
0.027832	1.676502
0.027930	1.676628
0.028027	1.676874
0.028125	1.677180
0.028223	1.677437
0.028320	1.677826
0.028418	1.678255
0.028516	1.678646
0.028613	1.679067
0.028711	1.679695
0.028809	1.680166
0.028906	1.680757
0.029004	1.681453
0.029102	1.682123
0.029199	1.682823
0.029297	1.683661
0.029395	1.684498
0.029492	1.685284
0.029590	1.686177
0.029687	1.686851
0.029785	1.687678
0.029883	1.686288
0.029980	1.685170
0.030078	1.686422
0.030176	1.687059
0.030273	1.687537
0.030371	1.687900
0.030469	1.688321
0.030566	1.688778
0.030664	1.689317
0.030762	1.689968
0.030859	1.690612
0.030957	1.691155
0.031055	1.691513
0.031152	1.691865
0.031250	1.692024
0.031348	1.692160
0.031445	1.692277
0.031543	1.692319
0.031641	1.692470
0.031738	1.692539
0.031836	1.692844
0.031934	1.693139
0.032031	1.693311
0.032129	1.693516
0.032227	1.693299
0.032324	1.692935
0.032422	1.692085
0.032520	1.691087
0.032617	1.689881
0.032715	1.688761
0.032812	1.687693
0.032910	1.686720
0.033008	1.685796
0.033105	1.684895
0.033203	1.684320
0.033301	1.683999
0.033398	1.684022
0.033496	1.684234
0.033594	1.684570
0.033691	1.684650
0.033789	1.683438
0.033887	1.683854
0.033984	1.686158
0.034082	1.686843
0.034180	1.686953
0.034277	1.688420
0.034375	1.688960
0.034473	1.689459
0.034570	1.689175
0.034668	1.687291
0.034766	1.684219
0.034863	1.681367
0.034961	1.678539
0.035059	1.676633
0.035156	1.675338
0.035254	1.675200
0.035352	1.675421
0.035449	1.676009
0.035547	1.676067
0.035645	1.676171
0.035742	1.675612
0.035840	1.675912
0.035937	1.675876
0.036035	1.677203
0.036133	1.673660
0.036230	1.671481
0.036328	1.693757
0.036426	1.701140
0.036523	1.694439
0.036621	1.687684
0.036719	1.687472
0.036816	1.687275
0.036914	1.684440
0.037012	1.682227
0.037109	1.685636
0.037207	1.695065
0.037305	1.711297
0.037402	1.706444
0.037500	1.683202
0.037598	1.680226
0.037695	1.681781
0.037793	1.676867
0.037891	1.672442
0.037988	1.668537
0.038086	1.666070
0.038184	1.663827
0.038281	1.661935
0.038379	1.660055
0.038477	1.658472
0.038574	1.656966
0.038672	1.655954
0.038770	1.655029
0.038867	1.654361
0.038965	1.653917
0.039062	1.653462
0.039160	1.653135
0.039258	1.652982
0.039355	1.652723
0.039453	1.652617
0.039551	1.652636
0.039648	1.652565
0.039746	1.652584
0.039844	1.652601
0.039941	1.652795
0.040039	1.652938
0.040137	1.652990
0.040234	1.653162
0.040332	1.653342
0.040430	1.653451
0.040527	1.653743
0.040625	1.653935
0.040723	1.654214
0.040820	1.654497
0.040918	1.654837
0.041016	1.655162
0.041113	1.655421
0.041211	1.655966
0.041309	1.656290
0.041406	1.656701
0.041504	1.657340
0.041602	1.657771
0.041699	1.658283
0.041797	1.658807
0.041895	1.659370
0.041992	1.660027
0.042090	1.660599
0.042187	1.661237
0.042285	1.661850
0.042383	1.662459
0.042480	1.663012
0.042578	1.663644
0.042676	1.664219
0.042773	1.664818
0.042871	1.665534
0.042969	1.666078
0.043066	1.666816
0.043164	1.667392
0.043262	1.668008
0.043359	1.668664
0.043457	1.669225
0.043555	1.669849
0.043652	1.670490
0.043750	1.671087
0.043848	1.671674
0.043945	1.672216
0.044043	1.672812
0.044141	1.673285
0.044238	1.673793
0.044336	1.674246
0.044434	1.674667
0.044531	1.675035
0.044629	1.675394
0.044727	1.675791
0.044824	1.676058
0.044922	1.676333
0.045020	1.676559
0.045117	1.676834
0.045215	1.677064
0.045312	1.677278
0.045410	1.677377
0.045508	1.677723
0.045605	1.678081
0.045703	1.678275
0.045801	1.678640
0.045898	1.678938
0.045996	1.679172
0.046094	1.679473
0.046191	1.679743
0.046289	1.680029
0.046387	1.680306
0.046484	1.680690
0.046582	1.680918
0.046680	1.681156
0.046777	1.681421
0.046875	1.681708
0.046973	1.681839
0.047070	1.681978
0.047168	1.682184
0.047266	1.682297
0.047363	1.682428
0.047461	1.682577
0.047559	1.682579
0.047656	1.682681
0.047754	1.682756
0.047852	1.682718
0.047949	1.682633
0.048047	1.682424
0.048145	1.682263
0.048242	1.681998
0.048340	1.681680
0.048437	1.681358
0.048535	1.681013
0.048633	1.680783
0.048730	1.680582
0.048828	1.680302
0.048926	1.680146
0.049023	1.680082
0.049121	1.680049
0.049219	1.680029
0.049316	1.680082
0.049414	1.680190
0.049512	1.680254
0.049609	1.680385
0.049707	1.680516
0.049805	1.680692
0.049902	1.680905
0.050000	1.681039
0.050098	1.681253
0.050195	1.681451
0.050293	1.681522
0.050391	1.681688
0.050488	1.681707
0.050586	1.681641
0.050684	1.681441
0.050781	1.681219
0.050879	1.680859
0.050977	1.680362
0.051074	1.679625
0.051172	1.678833
0.051270	1.677837
0.051367	1.676925
0.051465	1.675934
0.051562	1.674922
0.051660	1.673929
0.051758	1.672791
0.051855	1.671881
0.051953	1.670948
0.052051	1.670110
0.052148	1.669482
0.052246	1.668986
0.052344	1.668515
0.052441	1.668428
0.052539	1.668144
0.052637	1.668167
0.052734	1.668146
0.052832	1.668267
0.052930	1.668432
0.053027	1.668666
0.053125	1.668861
0.053223	1.669127
0.053320	1.669277
0.053418	1.669560
0.053516	1.669788
0.053613	1.670090
0.053711	1.670367
0.053809	1.670644
0.053906	1.670903
0.054004	1.671234
0.054102	1.671616
0.054199	1.671938
0.054297	1.672242
0.054395	1.672525
0.054492	1.672947
0.054590	1.673201
0.054687	1.673499
0.054785	1.673881
0.054883	1.674088
0.054980	1.674429
0.055078	1.674692
0.055176	1.674855
0.055273	1.675040
0.055371	1.675140
0.055469	1.675238
0.055566	1.675439
0.055664	1.675583
0.055762	1.675751
0.055859	1.675923
0.055957	1.676061
0.056055	1.676312
0.056152	1.676488
0.056250	1.676658
0.056348	1.676790
0.056445	1.676974
0.056543	1.677087
0.056641	1.677228
0.056738	1.677357
0.056836	1.677474
0.056934	1.677565
0.057031	1.677749
0.057129	1.677829
0.057227	1.677948
0.057324	1.678092
0.057422	1.678354
0.057520	1.678590
0.057617	1.678836
0.057715	1.679018
0.057812	1.679362
0.057910	1.679623
0.058008	1.679963
0.058105	1.680282
0.058203	1.680644
0.058301	1.680951
0.058398	1.681262
0.058496	1.681569
0.058594	1.681854
0.058691	1.682121
0.058789	1.682380
0.058887	1.682413
0.058984	1.682520
0.059082	1.682556
0.059180	1.682418
0.059277	1.682185
0.059375	1.681974
0.059473	1.681729
0.059570	1.681624
0.059668	1.681519
0.059766	1.681519
0.059863	1.681668
0.059961	1.681942
0.060059	1.682355
0.060156	1.682734
0.060254	1.683279
0.060352	1.683885
0.060449	1.684373
0.060547	1.684864
0.060645	1.685266
0.060742	1.685657
0.060840	1.685944
0.060937	1.686146
0.061035	1.686139
0.061133	1.686046
0.061230	1.685836
0.061328	1.685582
0.061426	1.685246
0.061523	1.685089
0.061621	1.684927
0.061719	1.684817
0.061816	1.684707
0.061914	1.684595
0.062012	1.684577
0.062109	1.684390
0.062207	1.684122
0.062305	1.683757
0.062402	1.683347
0.062500	1.682778
0.062598	1.681986
0.062695	1.681315
0.062793	1.680433
0.062891	1.679650
0.062988	1.678724
0.063086	1.677881
0.063184	1.677046
0.063281	1.676251
0.063379	1.675497
0.063477	1.674777
0.063574	1.674188
0.063672	1.673640
0.063770	1.673059
0.063867	1.672703
0.063965	1.672338
0.064062	1.671931
0.064160	1.671621
0.064258	1.671373
0.064355	1.671102
0.064453	1.670929
0.064551	1.670794
0.064648	1.670652
0.064746	1.670521
0.064844	1.670614
0.064941	1.670587
0.065039	1.670682
0.065137	1.670728
0.065234	1.670795
0.065332	1.670871
0.065430	1.670977
0.065527	1.671243
0.065625	1.671533
0.065723	1.671705
0.065820	1.671934
0.065918	1.672189
0.066016	1.672369
0.066113	1.672532
0.066211	1.672593
0.066309	1.672763
0.066406	1.672832
0.066504	1.672962
0.066602	1.673048
0.066699	1.673175
0.066797	1.673260
0.066895	1.673442
0.066992	1.673679
0.067090	1.673834
0.067187	1.674116
0.067285	1.674357
0.067383	1.674673
0.067480	1.674995
0.067578	1.675278
0.067676	1.675592
0.067773	1.675933
0.067871	1.676321
0.067969	1.676532
0.068066	1.676840
0.068164	1.677006
0.068262	1.677227
0.068359	1.677349
0.068457	1.677452
0.068555	1.677508
0.068652	1.677690
0.068750	1.677612
0.068848	1.677754
0.068945	1.677720
0.069043	1.677734
0.069141	1.677746
0.069238	1.677703
0.069336	1.677651
0.069434	1.677540
0.069531	1.677273
0.069629	1.676994
0.069727	1.676650
0.069824	1.676338
0.069922	1.676004
0.070020	1.675714
0.070117	1.675584
0.070215	1.675330
0.070312	1.675065
0.070410	1.674817
0.070508	1.674545
0.070605	1.674190
0.070703	1.673864
0.070801	1.673452
0.070898	1.673029
0.070996	1.672627
0.071094	1.672198
0.071191	1.671846
0.071289	1.671453
0.071387	1.671090
0.071484	1.670797
0.071582	1.670544
0.071680	1.670387
0.071777	1.670195
0.071875	1.670070
0.071973	1.670057
0.072070	1.670055
0.072168	1.670132
0.072266	1.670119
0.072363	1.670315
0.072461	1.670454
0.072559	1.670636
0.072656	1.670910
0.072754	1.671144
0.072852	1.671456
0.072949	1.671838
0.073047	1.672266
0.073145	1.672615
0.073242	1.673094
0.073340	1.673553
0.073437	1.673883
0.073535	1.674347
0.073633	1.674808
0.073730	1.675222
0.073828	1.675680
0.073926	1.676110
0.074023	1.676559
0.074121	1.676897
0.074219	1.677377
0.074316	1.677687
0.074414	1.678175
0.074512	1.678563
0.074609	1.679005
0.074707	1.679382
0.074805	1.679813
0.074902	1.680219
0.075000	1.680617
0.075098	1.681102
0.075195	1.681488
0.075293	1.681894
0.075391	1.682224
0.075488	1.682626
0.075586	1.683016
0.075684	1.683442
0.075781	1.683804
0.075879	1.684117
0.075977	1.684385
0.076074	1.684553
0.076172	1.684825
0.076270	1.684991
0.076367	1.685164
0.076465	1.685256
0.076562	1.685328
0.076660	1.685418
0.076758	1.685376
0.076855	1.685341
0.076953	1.685222
0.077051	1.685205
0.077148	1.685076
0.077246	1.684943
0.077344	1.684970
0.077441	1.684819
0.077539	1.684727
0.077637	1.684730
0.077734	1.684625
0.077832	1.684624
0.077930	1.684639
0.078027	1.684654
0.078125	1.684763
0.078223	1.684817
0.078320	1.684933
0.078418	1.685059
0.078516	1.685129
0.078613	1.685146
0.078711	1.685260
0.078809	1.685262
0.078906	1.685300
0.079004	1.685262
0.079102	1.685136
0.079199	1.684925
0.079297	1.684588
0.079395	1.684063
0.079492	1.683530
0.079590	1.682885
0.079687	1.682133
0.079785	1.681472
0.079883	1.680919
0.079980	1.680378
0.080078	1.679902
0.080176	1.679503
0.080273	1.679128
0.080371	1.678791
0.080469	1.678606
0.080566	1.678385
0.080664	1.678107
0.080762	1.678064
0.080859	1.677948
0.080957	1.677925
0.081055	1.677892
0.081152	1.677895
0.081250	1.677889
0.081348	1.677911
0.081445	1.677911
0.081543	1.677974
0.081641	1.677942
0.081738	1.678003
0.081836	1.678079
0.081934	1.677926
0.082031	1.678123
0.082129	1.678176
0.082227	1.678610
0.082324	1.678828
0.082422	1.680483
0.082520	1.683694
0.082617	1.687731
0.082715	1.683495
0.082812	1.670464
0.082910	1.673364
0.083008	1.675018
0.083105	1.660812
0.083203	1.674649
0.083301	1.683565
0.083398	1.680325
0.083496	1.682801
0.083594	1.686225
0.083691	1.694075
0.083789	1.686663
0.083887	1.686330
0.083984	1.681530
0.084082	1.654935
0.084180	1.650267
0.084277	1.669651
0.084375	1.664657
0.084473	1.662824
0.084570	1.662951
0.084668	1.662637
0.084766	1.662740
0.084863	1.663428
0.084961	1.664196
0.085059	1.664975
0.085156	1.665643
0.085254	1.666266
0.085352	1.666777
0.085449	1.667329
0.085547	1.667860
0.085645	1.668266
0.085742	1.668713
0.085840	1.668994
0.085937	1.669256
0.086035	1.669542
0.086133	1.669822
0.086230	1.670035
0.086328	1.670381
0.086426	1.670559
0.086523	1.670848
0.086621	1.671213
0.086719	1.671531
0.086816	1.671871
0.086914	1.672192
0.087012	1.672571
0.087109	1.672871
0.087207	1.673281
0.087305	1.673534
0.087402	1.673792
0.087500	1.674183
0.087598	1.674413
0.087695	1.674759
0.087793	1.675107
0.087891	1.675415
0.087988	1.675899
0.088086	1.676198
0.088184	1.676727
0.088281	1.677117
0.088379	1.677580
0.088477	1.678151
0.088574	1.678565
0.088672	1.679146
0.088770	1.679548
0.088867	1.680142
0.088965	1.680547
0.089062	1.681115
0.089160	1.681709
0.089258	1.682153
0.089355	1.682666
0.089453	1.683087
0.089551	1.683537
0.089648	1.683785
0.089746	1.684046
0.089844	1.684168
0.089941	1.684167
0.090039	1.684259
0.090137	1.684282
0.090234	1.684354
0.090332	1.684273
0.090430	1.684339
0.090527	1.684277
0.090625	1.684197
0.090723	1.684052
0.090820	1.683951
0.090918	1.683755
0.091016	1.683595
0.091113	1.683372
0.091211	1.683083
0.091309	1.682813
0.091406	1.682622
0.091504	1.682311
0.091602	1.682083
0.091699	1.681828
0.091797	1.681561
0.091895	1.681374
0.091992	1.681109
0.092090	1.680918
0.092187	1.680716
0.092285	1.680458
0.092383	1.680219
0.092480	1.679899
0.092578	1.679536
0.092676	1.679140
0.092773	1.678577
0.092871	1.678156
0.092969	1.677668
0.093066	1.677101
0.093164	1.676568
0.093262	1.675929
0.093359	1.675339
0.093457	1.674766
0.093555	1.674204
0.093652	1.673720
0.093750	1.673216
0.093848	1.672788
0.093945	1.672366
0.094043	1.672071
0.094141	1.671669
0.094238	1.671427
0.094336	1.671175
0.094434	1.670842
0.094531	1.670717
0.094629	1.670486
0.094727	1.670310
0.094824	1.670127
0.094922	1.670016
0.095020	1.669870
0.095117	1.669769
0.095215	1.669670
0.095312	1.669563
0.095410	1.669476
0.095508	1.669448
0.095605	1.669436
0.095703	1.669391
0.095801	1.669421
0.095898	1.669285
0.095996	1.669301
0.096094	1.669232
0.096191	1.669244
0.096289	1.669199
0.096387	1.669115
0.096484	1.668914
0.096582	1.668959
0.096680	1.668791
0.096777	1.668662
0.096875	1.668544
0.096973	1.668325
0.097070	1.668352
0.097168	1.668096
0.097266	1.668020
0.097363	1.667904
0.097461	1.667802
0.097559	1.667754
0.097656	1.667815
0.097754	1.667724
0.097852	1.667747
0.097949	1.667828
0.098047	1.668001
0.098145	1.668133
0.098242	1.668353
0.098340	1.668560
0.098437	1.668922
0.098535	1.669222
0.098633	1.669612
0.098730	1.670032
0.098828	1.670447
0.098926	1.671018
0.099023	1.671434
0.099121	1.671884
0.099219	1.672455
0.099316	1.672830
0.099414	1.673205
0.099512	1.673545
0.099609	1.673710
0.099707	1.673902
0.099805	1.673940
0.099902	1.673951
0.100000	1.673826
0.100098	1.673773
0.100195	1.673598
0.100293	1.673507
0.100391	1.673557
0.100488	1.673491
0.100586	1.673609
0.100684	1.673657
0.100781	1.673712
0.100879	1.673934
0.100977	1.674014
0.101074	1.674107
0.101172	1.674155
0.101270	1.674249
0.101367	1.674268
0.101465	1.674362
0.101562	1.674396
0.101660	1.674542
0.101758	1.674725
0.101855	1.674817
0.101953	1.674972
0.102051	1.675162
0.102148	1.675224
0.102246	1.675310
0.102344	1.675397
0.102441	1.675404
0.102539	1.675428
0.102637	1.675456
0.102734	1.675523
0.102832	1.675658
0.102930	1.675943
0.103027	1.676480
0.103125	1.677089
0.103223	1.678005
0.103320	1.679107
0.103418	1.680475
0.103516	1.681960
0.103613	1.683739
0.103711	1.685582
0.103809	1.687379
0.103906	1.689062
0.104004	1.690661
0.104102	1.692141
0.104199	1.693661
0.104297	1.694818
0.104395	1.695575
0.104492	1.695414
0.104590	1.693964
0.104687	1.691942
0.104785	1.689563
0.104883	1.686914
0.104980	1.684295
0.105078	1.682003
0.105176	1.680261
0.105273	1.679025
0.105371	1.678051
0.105469	1.677688
0.105566	1.677481
0.105664	1.677429
0.105762	1.677492
0.105859	1.677720
0.105957	1.677882
0.106055	1.678220
0.106152	1.678651
0.106250	1.679063
0.106348	1.679473
0.106445	1.679875
0.106543	1.680237
0.106641	1.680468
0.106738	1.680671
0.106836	1.680752
0.106934	1.680920
0.107031	1.680942
0.107129	1.680999
0.107227	1.681110
0.107324	1.681147
0.107422	1.681321
0.107520	1.681393
0.107617	1.681485
0.107715	1.681582
0.107812	1.681578
0.107910	1.681639
0.108008	1.681749
0.108105	1.681893
0.108203	1.682051
0.108301	1.682255
0.108398	1.682327
0.108496	1.682375
0.108594	1.682017
0.108691	1.681593
0.108789	1.681057
0.108887	1.680412
0.108984	1.679980
0.109082	1.679376
0.109180	1.679101
0.109277	1.678780
0.109375	1.678441
0.109473	1.678164
0.109570	1.678007
0.109668	1.677790
0.109766	1.677568
0.109863	1.677499
0.109961	1.677402
0.110059	1.677238
0.110156	1.677176
0.110254	1.677073
0.110352	1.676956
0.110449	1.676835
0.110547	1.676758
0.110645	1.676664
0.110742	1.676473
0.110840	1.676245
0.110937	1.676043
0.111035	1.675808
0.111133	1.675432
0.111230	1.674979
0.111328	1.674519
0.111426	1.674044
0.111523	1.673499
0.111621	1.672973
0.111719	1.672410
0.111816	1.671829
0.111914	1.671120
0.112012	1.670512
0.112109	1.669814
0.112207	1.669224
0.112305	1.668656
0.112402	1.668117
0.112500	1.667735
0.112598	1.667343
0.112695	1.667204
0.112793	1.666942
0.112891	1.666948
0.112988	1.667082
0.113086	1.667120
0.113184	1.667379
0.113281	1.667641
0.113379	1.667958
0.113477	1.668321
0.113574	1.668778
0.113672	1.669407
0.113770	1.670019
0.113867	1.670619
0.113965	1.671302
0.114062	1.672098
0.114160	1.672913
0.114258	1.673660
0.114355	1.674367
0.114453	1.675101
0.114551	1.675727
0.114648	1.676258
0.114746	1.676705
0.114844	1.677110
0.114941	1.677501
0.115039	1.677884
0.115137	1.678197
0.115234	1.678689
0.115332	1.678972
0.115430	1.679452
0.115527	1.679993
0.115625	1.680545
0.115723	1.680995
0.115820	1.681571
0.115918	1.681958
0.116016	1.682576
0.116113	1.683025
0.116211	1.683461
0.116309	1.684025
0.116406	1.684531
0.116504	1.685004
0.116602	1.685539
0.116699	1.686056
0.116797	1.686470
0.116895	1.686827
0.116992	1.687077
0.117090	1.687219
0.117187	1.687253
0.117285	1.687258
0.117383	1.687110
0.117480	1.686870
0.117578	1.686667
0.117676	1.686294
0.117773	1.685849
0.117871	1.685162
0.117969	1.684054
0.118066	1.682397
0.118164	1.680798
0.118262	1.679526
0.118359	1.678756
0.118457	1.678471
0.118555	1.678491
0.118652	1.678875
0.118750	1.679258
0.118848	1.679866
0.118945	1.680536
0.119043	1.680995
0.119141	1.681521
0.119238	1.681857
0.119336	1.682146
0.119434	1.682199
0.119531	1.682136
0.119629	1.682029
0.119727	1.681821
0.119824	1.681700
0.119922	1.681471
0.120020	1.681237
0.120117	1.681036
0.120215	1.680666
0.120312	1.680306
0.120410	1.680021
0.120508	1.679584
0.120605	1.679227
0.120703	1.678788
0.120801	1.678471
0.120898	1.678081
0.120996	1.677722
0.121094	1.677422
0.121191	1.677141
0.121289	1.676890
0.121387	1.676650
0.121484	1.676419
0.121582	1.676368
0.121680	1.676228
0.121777	1.676088
0.121875	1.676019
0.121973	1.675941
0.122070	1.675800
0.122168	1.675688
0.122266	1.675588
0.122363	1.675411
0.122461	1.675360
0.122559	1.675124
0.122656	1.674951
0.122754	1.674864
0.122852	1.674667
0.122949	1.674509
0.123047	1.674371
0.123145	1.674331
0.123242	1.674088
0.123340	1.674015
0.123437	1.673874
0.123535	1.673726
0.123633	1.673648
0.123730	1.673611
0.123828	1.673555
0.123926	1.673520
0.124023	1.673625
0.124121	1.673736
0.124219	1.673961
0.124316	1.674186
0.124414	1.674576
0.124512	1.674993
0.124609	1.675393
0.124707	1.675996
0.124805	1.676504
0.124902	1.677255
0.125000	1.677921
0.125098	1.678661
0.125195	1.679342
0.125293	1.680154
0.125391	1.680767
0.125488	1.681546
0.125586	1.682291
0.125684	1.682937
0.125781	1.683717
0.125879	1.684458
0.125977	1.685139
0.126074	1.685883
0.126172	1.686681
0.126270	1.687612
0.126367	1.688632
0.126465	1.689738
0.126562	1.690990
0.126660	1.692069
0.126758	1.693176
0.126855	1.694375
0.126953	1.695423
0.127051	1.696376
0.127148	1.697081
0.127246	1.697769
0.127344	1.697639
0.127441	1.697304
0.127539	1.697490
0.127637	1.697306
0.127734	1.696540
0.127832	1.695479
0.127930	1.694308
0.128027	1.693163
0.128125	1.691951
0.128223	1.690745
0.128320	1.689538
0.128418	1.688402
0.128516	1.687394
0.128613	1.686563
0.128711	1.685884
0.128809	1.685184
0.128906	1.684585
0.129004	1.684101
0.129102	1.683683
0.129199	1.683315
0.129297	1.682954
0.129395	1.682679
0.129492	1.682404
0.129590	1.681971
0.129687	1.681519
0.129785	1.680908
0.129883	1.680184
0.129980	1.679358
0.130078	1.678506
0.130176	1.677671
0.130273	1.676970
0.130371	1.676337
0.130469	1.675857
0.130566	1.675393
0.130664	1.675065
0.130762	1.674775
0.130859	1.674454
0.130957	1.674343
0.131055	1.674194
0.131152	1.674123
0.131250	1.674133
0.131348	1.674228
0.131445	1.674293
0.131543	1.674539
0.131641	1.674764
0.131738	1.675013
0.131836	1.675252
0.131934	1.675774
0.132031	1.676259
0.132129	1.677341
0.132227	1.678867
0.132324	1.681747
0.132422	1.682648
0.132520	1.681178
0.132617	1.680968
0.132715	1.681319
0.132812	1.681917
0.132910	1.681888
0.133008	1.681162
0.133105	1.679351
0.133203	1.676893
0.133301	1.673740
0.133398	1.671342
0.133496	1.670099
0.133594	1.669551
0.133691	1.669136
0.133789	1.668842
0.133887	1.668513
0.133984	1.668268
0.134082	1.667960
0.134180	1.667811
0.134277	1.667453
0.134375	1.667209
0.134473	1.666908
0.134570	1.666648
0.134668	1.666408
0.134766	1.666080
0.134863	1.665850
0.134961	1.665614
0.135059	1.665405
0.135156	1.665214
0.135254	1.665040
0.135352	1.664834
0.135449	1.664788
0.135547	1.664908
0.135645	1.664904
0.135742	1.664966
0.135840	1.665112
0.135937	1.665341
0.136035	1.665439
0.136133	1.665797
0.136230	1.666106
0.136328	1.666420
0.136426	1.666877
0.136523	1.667216
0.136621	1.667637
0.136719	1.668123
0.136816	1.668469
0.136914	1.668967
0.137012	1.669272
0.137109	1.669715
0.137207	1.670071
0.137305	1.670545
0.137402	1.670958
0.137500	1.671367
0.137598	1.671863
0.137695	1.672295
0.137793	1.672801
0.137891	1.673050
0.137988	1.673577
0.138086	1.674038
0.138184	1.674266
0.138281	1.674603
0.138379	1.674798
0.138477	1.674927
0.138574	1.675069
0.138672	1.675129
0.138770	1.675282
0.138867	1.675273
0.138965	1.675240
0.139062	1.675417
0.139160	1.675404
0.139258	1.675547
0.139355	1.675689
0.139453	1.675822
0.139551	1.676097
0.139648	1.676295
0.139746	1.676612
0.139844	1.676788
0.139941	1.677075
0.140039	1.677390
0.140137	1.677742
0.140234	1.678017
0.140332	1.678247
0.140430	1.678620
0.140527	1.678883
0.140625	1.679194
0.140723	1.679489
0.140820	1.679702
0.140918	1.679991
0.141016	1.680225
0.141113	1.680448
0.141211	1.680682
0.141309	1.680932
0.141406	1.681156
0.141504	1.681441
0.141602	1.681734
0.141699	1.682005
0.141797	1.682290
0.141895	1.682520
0.141992	1.682882
0.142090	1.683106
0.142187	1.683362
0.142285	1.683568
0.142383	1.683761
0.142480	1.684019
0.142578	1.684217
0.142676	1.684451
0.142773	1.684697
0.142871	1.685029
0.142969	1.685359
0.143066	1.685622
0.143164	1.686097
0.143262	1.686449
0.143359	1.686914
0.143457	1.687325
0.143555	1.687858
0.143652	1.688315
0.143750	1.688637
0.143848	1.688592
0.143945	1.688340
0.144043	1.687902
0.144141	1.687317
0.144238	1.686689
0.144336	1.686026
0.144434	1.685547
0.144531	1.685082
0.144629	1.684659
0.144727	1.684425
0.144824	1.684063
0.144922	1.683780
0.145020	1.683371
0.145117	1.682994
0.145215	1.682488
0.145312	1.681982
0.145410	1.681389
0.145508	1.680890
0.145605	1.680442
0.145703	1.679910
0.145801	1.679447
0.145898	1.679044
0.145996	1.678429
0.146094	1.678002
0.146191	1.677366
0.146289	1.676873
0.146387	1.676380
0.146484	1.675844
0.146582	1.675448
0.146680	1.675065
0.146777	1.674818
0.146875	1.674489
0.146973	1.674317
0.147070	1.674001
0.147168	1.673824
0.147266	1.673642
0.147363	1.673354
0.147461	1.673222
0.147559	1.673008
0.147656	1.672715
0.147754	1.672379
0.147852	1.672147
0.147949	1.671633
0.148047	1.671366
0.148145	1.670954
0.148242	1.670581
0.148340	1.670052
0.148437	1.669701
0.148535	1.669331
0.148633	1.668870
0.148730	1.668533
0.148828	1.668151
0.148926	1.667865
0.149023	1.667527
0.149121	1.667309
0.149219	1.667099
0.149316	1.666972
0.149414	1.666841
0.149512	1.666746
0.149609	1.666697
0.149707	1.666647
0.149805	1.666646
0.149902	1.666598
0.150000	1.666645
0.150098	1.666730
0.150195	1.666761
0.150293	1.666909
0.150391	1.666937
0.150488	1.667099
0.150586	1.667210
0.150684	1.667363
0.150781	1.667595
0.150879	1.667744
0.150977	1.667970
0.151074	1.668265
0.151172	1.668551
0.151270	1.668914
0.151367	1.669200
0.151465	1.669537
0.151562	1.669862
0.151660	1.670326
0.151758	1.670655
0.151855	1.671146
0.151953	1.671574
0.152051	1.672018
0.152148	1.672456
0.152246	1.672942
0.152344	1.673465
0.152441	1.674057
0.152539	1.674628
0.152637	1.675194
0.152734	1.675926
0.152832	1.676745
0.152930	1.677617
0.153027	1.678680
0.153125	1.679719
0.153223	1.680837
0.153320	1.682028
0.153418	1.683392
0.153516	1.684722
0.153613	1.686048
0.153711	1.687240
0.153809	1.688395
0.153906	1.689379
0.154004	1.690147
0.154102	1.690629
0.154199	1.690791
0.154297	1.690850
0.154395	1.690704
0.154492	1.690424
0.154590	1.690174
0.154687	1.689764
0.154785	1.689298
0.154883	1.688810
0.154980	1.688126
0.155078	1.687487
0.155176	1.686598
0.155273	1.685788
0.155371	1.684961
0.155469	1.684343
0.155566	1.683766
0.155664	1.683227
0.155762	1.682825
0.155859	1.682431
0.155957	1.681964
0.156055	1.681570
0.156152	1.681165
0.156250	1.680754
0.156348	1.680447
0.156445	1.680093
0.156543	1.680002
0.156641	1.679745
0.156738	1.679584
0.156836	1.679568
0.156934	1.679602
0.157031	1.679625
0.157129	1.679739
0.157227	1.679969
0.157324	1.680223
0.157422	1.680398
0.157520	1.680730
0.157617	1.680950
0.157715	1.681248
0.157812	1.681488
0.157910	1.681682
0.158008	1.681992
0.158105	1.682230
0.158203	1.682404
0.158301	1.682695
0.158398	1.683067
0.158496	1.683571
0.158594	1.684060
0.158691	1.684741
0.158789	1.685834
0.158887	1.687181
0.158984	1.688763
0.159082	1.689537
0.159180	1.689495
0.159277	1.689281
0.159375	1.688413
0.159473	1.686619
0.159570	1.684962
0.159668	1.683613
0.159766	1.682526
0.159863	1.681421
0.159961	1.680489
0.160059	1.679515
0.160156	1.678816
0.160254	1.678318
0.160352	1.677817
0.160449	1.677518
0.160547	1.677126
0.160645	1.676936
0.160742	1.676691
0.160840	1.676514
0.160937	1.676314
0.161035	1.676212
0.161133	1.676031
0.161230	1.675885
0.161328	1.675796
0.161426	1.675561
0.161523	1.675266
0.161621	1.674936
0.161719	1.674379
0.161816	1.673654
0.161914	1.672924
0.162012	1.672132
0.162109	1.671367
0.162207	1.670547
0.162305	1.669704
0.162402	1.668872
0.162500	1.668019
0.162598	1.667196
0.162695	1.666419
0.162793	1.665627
0.162891	1.665064
0.162988	1.664468
0.163086	1.664012
0.163184	1.663483
0.163281	1.663134
0.163379	1.662783
0.163477	1.662522
0.163574	1.662315
0.163672	1.662301
0.163770	1.662223
0.163867	1.662227
0.163965	1.662242
0.164062	1.662350
0.164160	1.662476
0.164258	1.662681
0.164355	1.663002
0.164453	1.663426
0.164551	1.663797
0.164648	1.664229
0.164746	1.664800
0.164844	1.665303
0.164941	1.665910
0.165039	1.666626
0.165137	1.667313
0.165234	1.668066
0.165332	1.668765
0.165430	1.669545
0.165527	1.670502
0.165625	1.671525
0.165723	1.672411
0.165820	1.673371
0.165918	1.674282
0.166016	1.675244
0.166113	1.675995
0.166211	1.676782
0.166309	1.677572
0.166406	1.678175
0.166504	1.678803
0.166602	1.679350
0.166699	1.679904
0.166797	1.680319
0.166895	1.680578
0.166992	1.680756
0.167090	1.680830
0.167187	1.680818
0.167285	1.680756
0.167383	1.680812
0.167480	1.680982
0.167578	1.681177
0.167676	1.681597
0.167773	1.681973
0.167871	1.682629
0.167969	1.683199
0.168066	1.683920
0.168164	1.684723
0.168262	1.685401
0.168359	1.686043
0.168457	1.686421
0.168555	1.686490
0.168652	1.686226
0.168750	1.685625
0.168848	1.684933
0.168945	1.684199
0.169043	1.683561
0.169141	1.682819
0.169238	1.682145
0.169336	1.681442
0.169434	1.680630
0.169531	1.680000
0.169629	1.679337
0.169727	1.678757
0.169824	1.678308
0.169922	1.677700
0.170020	1.677198
0.170117	1.676781
0.170215	1.676398
0.170312	1.676112
0.170410	1.675718
0.170508	1.675476
0.170605	1.675209
0.170703	1.675066
0.170801	1.674883
0.170898	1.674766
0.170996	1.674728
0.171094	1.674683
0.171191	1.674620
0.171289	1.674621
0.171387	1.674697
0.171484	1.674723
0.171582	1.674922
0.171680	1.675038
0.171777	1.675165
0.171875	1.675287
0.171973	1.675539
0.172070	1.675588
0.172168	1.675784
0.172266	1.675875
0.172363	1.675998
0.172461	1.675931
0.172559	1.675980
0.172656	1.676032
0.172754	1.676059
0.172852	1.676131
0.172949	1.676170
0.173047	1.676192
0.173145	1.676212
0.173242	1.676344
0.173340	1.676287
0.173437	1.676402
0.173535	1.676497
0.173633	1.676689
0.173730	1.676912
0.173828	1.677134
0.173926	1.677341
0.174023	1.677694
0.174121	1.677941
0.174219	1.678193
0.174316	1.678564
0.174414	1.678804
0.174512	1.679066
0.174609	1.679367
0.174707	1.679714
0.174805	1.679933
0.174902	1.680211
0.175000	1.680393
0.175098	1.680650
0.175195	1.680688
0.175293	1.680819
0.175391	1.680830
0.175488	1.680826
0.175586	1.680958
0.175684	1.680837
0.175781	1.680710
0.175879	1.680524
0.175977	1.680350
0.176074	1.680201
0.176172	1.679930
0.176270	1.679743
0.176367	1.679522
0.176465	1.679308
0.176562	1.679084
0.176660	1.678730
0.176758	1.678383
0.176855	1.677878
0.176953	1.677322
0.177051	1.676724
0.177148	1.676042
0.177246	1.675344
0.177344	1.674657
0.177441	1.673955
0.177539	1.673407
0.177637	1.672996
0.177734	1.672617
0.177832	1.672269
0.177930	1.672025
0.178027	1.672007
0.178125	1.671964
0.178223	1.672102
0.178320	1.672234
0.178418	1.672619
0.178516	1.672982
0.178613	1.673393
0.178711	1.673983
0.178809	1.674537
0.178906	1.675251
0.179004	1.675930
0.179102	1.676739
0.179199	1.677416
0.179297	1.678180
0.179395	1.678994
0.179492	1.679607
0.179590	1.680306
0.179687	1.680743
0.179785	1.681176
0.179883	1.681295
0.179980	1.681353
0.180078	1.681366
0.180176	1.681365
0.180273	1.681367
0.180371	1.681497
0.180469	1.681617
0.180566	1.681646
0.180664	1.681847
0.180762	1.681994
0.180859	1.682109
0.180957	1.682302
0.181055	1.682400
0.181152	1.682567
0.181250	1.682691
0.181348	1.682862
0.181445	1.682942
0.181543	1.683034
0.181641	1.683168
0.181738	1.683196
0.181836	1.683197
0.181934	1.683219
0.182031	1.683115
0.182129	1.683118
0.182227	1.682933
0.182324	1.682737
0.182422	1.682440
0.182520	1.682136
0.182617	1.681918
0.182715	1.681745
0.182812	1.681641
0.182910	1.681524
0.183008	1.681658
0.183105	1.681788
0.183203	1.681875
0.183301	1.681945
0.183398	1.682082
0.183496	1.682152
0.183594	1.682230
0.183691	1.682252
0.183789	1.682335
0.183887	1.682265
0.183984	1.682271
0.184082	1.682273
0.184180	1.682282
0.184277	1.682314
0.184375	1.682289
0.184473	1.682363
0.184570	1.682398
0.184668	1.682539
0.184766	1.682524
0.184863	1.682665
0.184961	1.682709
0.185059	1.682717
0.185156	1.682729
0.185254	1.682726
0.185352	1.682557
0.185449	1.682559
0.185547	1.682592
0.185645	1.682475
0.185742	1.682471
0.185840	1.682290
0.185937	1.682276
0.186035	1.682154
0.186133	1.682101
0.186230	1.682095
0.186328	1.681954
0.186426	1.681939
0.186523	1.681826
0.186621	1.681813
0.186719	1.681728
0.186816	1.681754
0.186914	1.681721
0.187012	1.681854
0.187109	1.681880
0.187207	1.682075
0.187305	1.682108
0.187402	1.682316
0.187500	1.682544
0.187598	1.682907
0.187695	1.683254
0.187793	1.683570
0.187891	1.684079
0.187988	1.684593
0.188086	1.685257
0.188184	1.685959
0.188281	1.686667
0.188379	1.687612
0.188477	1.688608
0.188574	1.689743
0.188672	1.690909
0.188770	1.692235
0.188867	1.693656
0.188965	1.695018
0.189062	1.696351
0.189160	1.697631
0.189258	1.698608
0.189355	1.699371
0.189453	1.699572
0.189551	1.699497
0.189648	1.698968
0.189746	1.698531
0.189844	1.697999
0.189941	1.697722
0.190039	1.697746
0.190137	1.698165
0.190234	1.698551
0.190332	1.698560
0.190430	1.698078
0.190527	1.697387
0.190625	1.696456
0.190723	1.695368
0.190820	1.694063
0.190918	1.692391
0.191016	1.690791
0.191113	1.688800
0.191211	1.687035
0.191309	1.685279
0.191406	1.683630
0.191504	1.682173
0.191602	1.680844
0.191699	1.679666
0.191797	1.678701
0.191895	1.677879
0.191992	1.677169
0.192090	1.676633
0.192187	1.676134
0.192285	1.675844
0.192383	1.675599
0.192480	1.675364
0.192578	1.675220
0.192676	1.675128
0.192773	1.675150
0.192871	1.675110
0.192969	1.675275
0.193066	1.675335
0.193164	1.675413
0.193262	1.675617
0.193359	1.675682
0.193457	1.675786
0.193555	1.675923
0.193652	1.676063
0.193750	1.676210
0.193848	1.676324
0.193945	1.676441
0.194043	1.676510
0.194141	1.676584
0.194238	1.676675
0.194336	1.676836
0.194434	1.676973
0.194531	1.677104
0.194629	1.677282
0.194727	1.677519
0.194824	1.677698
0.194922	1.677895
0.195020	1.678030
0.195117	1.678354
0.195215	1.678477
0.195312	1.678610
0.195410	1.678765
0.195508	1.679130
0.195605	1.679324
0.195703	1.679548
0.195801	1.679721
0.195898	1.679958
0.195996	1.680369
0.196094	1.680615
0.196191	1.681066
0.196289	1.681477
0.196387	1.682022
0.196484	1.682624
0.196582	1.683215
0.196680	1.683932
0.196777	1.684829
0.196875	1.685569
0.196973	1.686445
0.197070	1.687205
0.197168	1.688032
0.197266	1.688984
0.197363	1.689992
0.197461	1.691307
0.197559	1.692645
0.197656	1.693937
0.197754	1.695200
0.197852	1.696279
0.197949	1.696949
0.198047	1.697821
0.198145	1.698711
0.198242	1.700027
0.198340	1.700925
0.198437	1.702044
0.198535	1.702861
0.198633	1.703961
0.198730	1.704538
0.198828	1.705627
0.198926	1.705845
0.199023	1.706933
0.199121	1.707038
0.199219	1.709169
0.199316	1.710846
0.199414	1.716432
0.199512	1.717440
0.199609	1.702761
0.199707	1.700275
0.199805	1.695247
0.199902	1.697443
0.200000	1.696574
0.200098	1.694287
0.200195	1.691116
0.200293	1.690053
0.200391	1.689208
0.200488	1.689729
0.200586	1.690045
0.200684	1.691018
0.200781	1.691330
0.200879	1.691657
0.200977	1.690856
0.201074	1.690629
0.201172	1.689724
0.201270	1.690203
0.201367	1.690476
0.201465	1.692557
0.201562	1.694274
0.201660	1.698755
0.201758	1.702094
0.201855	1.705483
0.201953	1.701717
0.202051	1.701577
0.202148	1.692698
0.202246	1.678115
0.202344	1.673123
0.202441	1.658657
0.202539	1.663470
0.202637	1.660847
0.202734	1.663064
0.202832	1.662475
0.202930	1.663879
0.203027	1.663610
0.203125	1.664591
0.203223	1.664561
0.203320	1.665356
0.203418	1.665264
0.203516	1.665871
0.203613	1.665901
0.203711	1.666348
0.203809	1.666375
0.203906	1.666699
0.204004	1.666697
0.204102	1.666999
0.204199	1.666926
0.204297	1.667157
0.204395	1.667106
0.204492	1.667108
0.204590	1.666904
0.204687	1.666757
0.204785	1.666651
0.204883	1.666458
0.204980	1.666296
0.205078	1.666010
0.205176	1.665872
0.205273	1.665561
0.205371	1.665363
0.205469	1.665276
0.205566	1.665333
0.205664	1.665262
0.205762	1.665324
0.205859	1.665346
0.205957	1.665558
0.206055	1.665691
0.206152	1.665931
0.206250	1.666268
0.206348	1.666609
0.206445	1.667000
0.206543	1.667311
0.206641	1.667799
0.206738	1.668302
0.206836	1.668850
0.206934	1.669368
0.207031	1.669866
0.207129	1.670417
0.207227	1.670997
0.207324	1.671610
0.207422	1.672087
0.207520	1.672637
0.207617	1.673065
0.207715	1.673573
0.207812	1.673912
0.207910	1.674370
0.208008	1.674719
0.208105	1.675154
0.208203	1.675462
0.208301	1.675712
0.208398	1.676026
0.208496	1.676345
0.208594	1.676613
0.208691	1.676928
0.208789	1.677173
0.208887	1.677433
0.208984	1.677626
0.209082	1.677837
0.209180	1.678143
0.209277	1.678262
0.209375	1.678531
0.209473	1.678647
0.209570	1.678838
0.209668	1.678972
0.209766	1.679082
0.209863	1.679180
0.209961	1.679205
0.210059	1.679132
0.210156	1.679074
0.210254	1.678852
0.210352	1.678672
0.210449	1.678477
0.210547	1.678178
0.210645	1.678052
0.210742	1.678102
0.210840	1.678077
0.210937	1.678332
0.211035	1.678535
0.211133	1.679052
0.211230	1.679425
0.211328	1.679969
0.211426	1.680533
0.211523	1.680805
0.211621	1.680884
0.211719	1.680507
0.211816	1.679813
0.211914	1.678975
0.212012	1.678036
0.212109	1.676986
0.212207	1.676059
0.212305	1.675190
0.212402	1.674493
0.212500	1.673826
0.212598	1.673364
0.212695	1.672885
0.212793	1.672558
0.212891	1.672336
0.212988	1.672123
0.213086	1.672008
0.213184	1.671982
0.213281	1.671926
0.213379	1.671872
0.213477	1.671978
0.213574	1.671992
0.213672	1.672236
0.213770	1.672425
0.213867	1.672532
0.213965	1.672744
0.214062	1.673048
0.214160	1.673408
0.214258	1.673722
0.214355	1.674057
0.214453	1.674584
0.214551	1.674938
0.214648	1.675400
0.214746	1.675960
0.214844	1.676389
0.214941	1.676961
0.215039	1.677499
0.215137	1.678083
0.215234	1.678689
0.215332	1.679260
0.215430	1.679871
0.215527	1.680655
0.215625	1.681217
0.215723	1.681899
0.215820	1.682481
0.215918	1.683208
0.216016	1.683824
0.216113	1.684529
0.216211	1.685247
0.216309	1.686087
0.216406	1.686856
0.216504	1.687659
0.216602	1.688509
0.216699	1.689179
0.216797	1.689830
0.216895	1.690350
0.216992	1.690718
0.217090	1.691012
0.217187	1.691103
0.217285	1.691153
0.217383	1.691185
0.217480	1.691318
0.217578	1.691612
0.217676	1.691942
0.217773	1.692509
0.217871	1.693281
0.217969	1.694179
0.218066	1.695046
0.218164	1.695620
0.218262	1.695647
0.218359	1.695221
0.218457	1.694538
0.218555	1.694207
0.218652	1.693998
0.218750	1.694001
0.218848	1.694096
0.218945	1.694349
0.219043	1.694469
0.219141	1.694719
0.219238	1.694765
0.219336	1.694752
0.219434	1.694716
0.219531	1.694514
0.219629	1.694176
0.219727	1.693751
0.219824	1.693274
0.219922	1.692702
0.220020	1.692177
0.220117	1.691778
0.220215	1.691349
0.220312	1.690953
0.220410	1.690611
0.220508	1.690061
0.220605	1.689474
0.220703	1.688709
0.220801	1.687856
0.220898	1.686826
0.220996	1.685831
0.221094	1.684753
0.221191	1.683791
0.221289	1.682891
0.221387	1.682266
0.221484	1.681769
0.221582	1.681477
0.221680	1.681290
0.221777	1.681168
0.221875	1.681060
0.221973	1.680855
0.222070	1.680635
0.222168	1.680361
0.222266	1.679989
0.222363	1.679729
0.222461	1.679403
0.222559	1.679039
0.222656	1.678850
0.222754	1.678698
0.222852	1.678632
0.222949	1.678520
0.223047	1.678532
0.223145	1.678460
0.223242	1.678371
0.223340	1.678290
0.223437	1.678170
0.223535	1.678072
0.223633	1.678079
0.223730	1.677999
0.223828	1.678150
0.223926	1.678175
0.224023	1.678306
0.224121	1.678636
0.224219	1.678848
0.224316	1.679196
0.224414	1.679576
0.224512	1.680110
0.224609	1.680641
0.224707	1.681286
0.224805	1.681990
0.224902	1.682665
0.225000	1.683339
0.225098	1.684000
0.225195	1.684556
0.225293	1.685210
0.225391	1.685614
0.225488	1.686180
0.225586	1.686515
0.225684	1.687034
0.225781	1.687251
0.225879	1.687697
0.225977	1.687910
0.226074	1.688237
0.226172	1.688193
0.226270	1.687994
0.226367	1.687670
0.226465	1.687261
0.226562	1.686695
0.226660	1.686070
0.226758	1.685658
0.226855	1.685284
0.226953	1.685090
0.227051	1.684957
0.227148	1.685106
0.227246	1.685241
0.227344	1.685449
0.227441	1.685710
0.227539	1.685948
0.227637	1.686296
0.227734	1.686498
0.227832	1.686630
0.227930	1.686641
0.228027	1.686516
0.228125	1.686208
0.228223	1.685673
0.228320	1.685233
0.228418	1.684730
0.228516	1.684431
0.228613	1.684342
0.228711	1.684301
0.228809	1.684064
0.228906	1.683376
0.229004	1.682538
0.229102	1.681970
0.229199	1.682144
0.229297	1.683127
0.229395	1.684491
0.229492	1.686130
0.229590	1.687741
0.229687	1.689281
0.229785	1.691754
0.229883	1.694412
0.229980	1.691521
0.230078	1.689121
0.230176	1.686032
0.230273	1.684266
0.230371	1.684087
0.230469	1.684841
0.230566	1.686100
0.230664	1.689334
0.230762	1.696290
0.230859	1.696218
0.230957	1.694541
0.231055	1.691230
0.231152	1.687625
0.231250	1.684616
0.231348	1.682388
0.231445	1.680363
0.231543	1.678244
0.231641	1.676021
0.231738	1.673866
0.231836	1.671542
0.231934	1.669404
0.232031	1.667366
0.232129	1.665793
0.232227	1.664482
0.232324	1.663741
0.232422	1.663126
0.232520	1.662855
0.232617	1.662707
0.232715	1.662591
0.232812	1.662564
0.232910	1.662531
0.233008	1.662575
0.233105	1.662603
0.233203	1.662766
0.233301	1.662945
0.233398	1.663121
0.233496	1.663294
0.233594	1.663579
0.233691	1.663885
0.233789	1.664166
0.233887	1.664401
0.233984	1.664665
0.234082	1.665103
0.234180	1.665418
0.234277	1.665852
0.234375	1.666273
0.234473	1.666818
0.234570	1.667400
0.234668	1.668101
0.234766	1.668844
0.234863	1.669716
0.234961	1.670586
0.235059	1.671389
0.235156	1.672333
0.235254	1.673168
0.235352	1.674086
0.235449	1.675051
0.235547	1.676113
0.235645	1.677183
0.235742	1.678191
0.235840	1.679082
0.235937	1.680160
0.236035	1.681142
0.236133	1.682078
0.236230	1.683046
0.236328	1.683817
0.236426	1.684486
0.236523	1.684946
0.236621	1.685333
0.236719	1.685560
0.236816	1.685779
0.236914	1.686188
0.237012	1.686880
0.237109	1.687386
0.237207	1.688036
0.237305	1.688317
0.237402	1.688631
0.237500	1.689165
0.237598	1.689525
0.237695	1.689619
0.237793	1.689374
0.237891	1.689160
0.237988	1.688915
0.238086	1.688991
0.238184	1.688915
0.238281	1.689021
0.238379	1.689080
0.238477	1.689075
0.238574	1.689171
0.238672	1.689107
0.238770	1.689160
0.238867	1.689170
0.238965	1.689077
0.239062	1.689177
0.239160	1.689232
0.239258	1.689397
0.239355	1.689686
0.239453	1.689942
0.239551	1.690209
0.239648	1.690336
0.239746	1.690085
0.239844	1.689715
0.239941	1.689292
0.240039	1.688636
0.240137	1.687775
0.240234	1.686857
0.240332	1.685932
0.240430	1.685162
0.240527	1.684506
0.240625	1.683925
0.240723	1.683555
0.240820	1.683124
0.240918	1.682929
0.241016	1.682728
0.241113	1.682484
0.241211	1.682273
0.241309	1.682147
0.241406	1.681972
0.241504	1.681749
0.241602	1.681633
0.241699	1.681278
0.241797	1.681103
0.241895	1.680895
0.241992	1.680773
0.242090	1.680675
0.242187	1.680653
0.242285	1.680705
0.242383	1.680677
0.242480	1.680678
0.242578	1.680552
0.242676	1.680442
0.242773	1.680137
0.242871	1.679962
0.242969	1.679453
0.243066	1.679021
0.243164	1.678494
0.243262	1.677761
0.243359	1.677136
0.243457	1.676419
0.243555	1.675750
0.243652	1.675195
0.243750	1.674610
0.243848	1.674114
0.243945	1.673661
0.244043	1.673214
0.244141	1.672855
0.244238	1.672541
0.244336	1.672294
0.244434	1.672055
0.244531	1.671968
0.244629	1.671853
0.244727	1.671902
0.244824	1.671933
0.244922	1.672043
0.245020	1.672117
0.245117	1.672289
0.245215	1.672442
0.245312	1.672486
0.245410	1.672713
0.245508	1.672996
0.245605	1.673139
0.245703	1.673378
0.245801	1.673601
0.245898	1.673768
0.245996	1.674194
0.246094	1.674437
0.246191	1.674737
0.246289	1.675094
0.246387	1.675412
0.246484	1.675890
0.246582	1.676282
0.246680	1.676726
0.246777	1.677155
0.246875	1.677631
0.246973	1.678122
0.247070	1.678668
0.247168	1.679079
0.247266	1.679610
0.247363	1.680219
0.247461	1.680830
0.247559	1.681463
0.247656	1.682122
0.247754	1.682729
0.247852	1.683526
0.247949	1.684243
0.248047	1.685020
0.248145	1.685868
0.248242	1.686867
0.248340	1.687841
0.248437	1.688813
0.248535	1.689870
0.248633	1.690879
0.248730	1.691665
0.248828	1.692523
0.248926	1.693199
0.249023	1.694068
0.249121	1.694721
0.249219	1.695494
0.249316	1.696148
0.249414	1.696815
0.249512	1.697416
0.249609	1.697798
0.249707	1.698128
0.249805	1.698409
0.249902	1.698672
0.250000	1.698956
0.250098	1.699252
0.250195	1.699326
0.250293	1.699439
0.250391	1.699292
0.250488	1.699154
0.250586	1.698855
0.250684	1.698530
0.250781	1.698151
0.250879	1.697841
0.250977	1.697479
0.251074	1.697178
0.251172	1.696854
0.251270	1.696535
0.251367	1.696330
0.251465	1.696321
0.251562	1.696318
0.251660	1.696519
0.251758	1.696684
0.251855	1.696762
0.251953	1.696963
0.252051	1.696818
0.252148	1.696792
0.252246	1.696592
0.252344	1.696724
0.252441	1.696786
0.252539	1.696957
0.252637	1.697209
0.252734	1.697416
0.252832	1.697606
0.252930	1.698051
0.253027	1.698624
0.253125	1.699426
0.253223	1.699884
0.253320	1.699494
0.253418	1.698846
0.253516	1.697437
0.253613	1.696676
0.253711	1.696504
0.253809	1.695788
0.253906	1.695006
0.254004	1.693593
0.254102	1.692103
0.254199	1.690788
0.254297	1.690398
0.254395	1.690555
0.254492	1.691095
0.254590	1.691319
0.254687	1.690834
0.254785	1.687874
0.254883	1.685261
0.254980	1.684842
0.255078	1.685144
0.255176	1.685410
0.255273	1.685197
0.255371	1.684631
0.255469	1.683869
0.255566	1.682989
0.255664	1.682024
0.255762	1.680816
0.255859	1.679397
0.255957	1.678058
0.256055	1.677023
0.256152	1.675988
0.256250	1.674866
0.256348	1.673791
0.256445	1.672801
0.256543	1.671693
0.256641	1.670805
0.256738	1.669734
0.256836	1.668685
0.256934	1.667581
0.257031	1.666460
0.257129	1.665480
0.257227	1.664613
0.257324	1.663611
0.257422	1.662619
0.257520	1.661584
0.257617	1.660539
0.257715	1.659508
0.257812	1.658391
0.257910	1.657351
0.258008	1.656367
0.258105	1.655507
0.258203	1.654679
0.258301	1.653878
0.258398	1.653271
0.258496	1.652678
0.258594	1.652190
0.258691	1.651776
0.258789	1.651484
0.258887	1.651311
0.258984	1.651094
0.259082	1.651134
0.259180	1.651079
0.259277	1.651055
0.259375	1.651217
0.259473	1.651437
0.259570	1.651684
0.259668	1.652029
0.259766	1.652285
0.259863	1.652811
0.259961	1.653223
0.260059	1.653747
0.260156	1.654408
0.260254	1.654986
0.260352	1.655723
0.260449	1.656346
0.260547	1.657160
0.260645	1.657835
0.260742	1.658673
0.260840	1.659469
0.260937	1.660306
0.261035	1.661015
0.261133	1.661823
0.261230	1.662634
0.261328	1.663482
0.261426	1.664364
0.261523	1.665143
0.261621	1.666074
0.261719	1.666933
0.261816	1.667781
0.261914	1.668676
0.262012	1.669402
0.262109	1.670192
0.262207	1.670978
0.262305	1.671707
0.262402	1.672422
0.262500	1.673006
0.262598	1.673620
0.262695	1.674178
0.262793	1.674718
0.262891	1.675303
0.262988	1.675756
0.263086	1.676246
0.263184	1.676713
0.263281	1.677016
0.263379	1.677399
0.263477	1.677615
0.263574	1.677864
0.263672	1.678198
0.263770	1.678369
0.263867	1.678667
0.263965	1.678928
0.264062	1.679284
0.264160	1.679583
0.264258	1.679964
0.264355	1.680287
0.264453	1.680741
0.264551	1.681031
0.264648	1.681504
0.264746	1.681965
0.264844	1.682371
0.264941	1.682714
0.265039	1.683111
0.265137	1.683338
0.265234	1.683588
0.265332	1.683605
0.265430	1.683769
0.265527	1.683913
0.265625	1.683886
0.265723	1.683726
0.265820	1.683496
0.265918	1.683218
0.266016	1.682797
0.266113	1.682546
0.266211	1.682178
0.266309	1.681832
0.266406	1.681480
0.266504	1.681275
0.266602	1.680988
0.266699	1.680714
0.266797	1.680658
0.266895	1.680428
0.266992	1.680303
0.267090	1.680180
0.267187	1.680046
0.267285	1.679958
0.267383	1.679814
0.267480	1.679638
0.267578	1.679559
0.267676	1.679303
0.267773	1.678985
0.267871	1.678645
0.267969	1.678249
0.268066	1.677667
0.268164	1.677094
0.268262	1.676339
0.268359	1.675741
0.268457	1.675003
0.268555	1.674264
0.268652	1.673498
0.268750	1.672892
0.268848	1.672250
0.268945	1.671619
0.269043	1.670958
0.269141	1.670466
0.269238	1.669978
0.269336	1.669547
0.269434	1.669143
0.269531	1.668750
0.269629	1.668414
0.269727	1.668109
0.269824	1.667793
0.269922	1.667547
0.270020	1.667309
0.270117	1.667062
0.270215	1.666824
0.270312	1.666635
0.270410	1.666465
0.270508	1.666304
0.270605	1.666054
0.270703	1.666038
0.270801	1.665787
0.270898	1.665691
0.270996	1.665551
0.271094	1.665478
0.271191	1.665353
0.271289	1.665297
0.271387	1.665250
0.271484	1.665297
0.271582	1.665254
0.271680	1.665313
0.271777	1.665415
0.271875	1.665419
0.271973	1.665615
0.272070	1.665696
0.272168	1.666029
0.272266	1.666161
0.272363	1.666486
0.272461	1.666722
0.272559	1.667068
0.272656	1.667373
0.272754	1.667771
0.272852	1.668247
0.272949	1.668694
0.273047	1.669202
0.273145	1.669748
0.273242	1.670227
0.273340	1.670714
0.273437	1.671287
0.273535	1.671865
0.273633	1.672484
0.273730	1.673217
0.273828	1.673849
0.273926	1.674655
0.274023	1.675552
0.274121	1.676364
0.274219	1.677364
0.274316	1.678454
0.274414	1.679504
0.274512	1.680523
0.274609	1.681552
0.274707	1.682384
0.274805	1.682966
0.274902	1.683333
0.275000	1.683208
0.275098	1.682903
0.275195	1.682418
0.275293	1.682150
0.275391	1.681870
0.275488	1.681994
0.275586	1.682272
0.275684	1.682682
0.275781	1.683395
0.275879	1.684179
0.275977	1.685056
0.276074	1.685917
0.276172	1.686742
0.276270	1.687440
0.276367	1.687787
0.276465	1.687729
0.276562	1.687462
0.276660	1.687133
0.276758	1.686696
0.276855	1.686301
0.276953	1.685848
0.277051	1.685373
0.277148	1.684840
0.277246	1.684279
0.277344	1.683712
0.277441	1.683379
0.277539	1.682981
0.277637	1.682755
0.277734	1.682626
0.277832	1.682539
0.277930	1.682403
0.278027	1.682407
0.278125	1.682346
0.278223	1.682257
0.278320	1.682321
0.278418	1.682125
0.278516	1.682075
0.278613	1.681932
0.278711	1.681702
0.278809	1.681596
0.278906	1.681392
0.279004	1.681297
0.279102	1.681262
0.279199	1.681342
0.279297	1.681488
0.279395	1.681621
0.279492	1.682021
0.279590	1.682315
0.279687	1.682764
0.279785	1.683116
0.279883	1.683597
0.279980	1.684007
0.280078	1.684521
0.280176	1.684836
0.280273	1.685369
0.280371	1.685671
0.280469	1.686046
0.280566	1.686355
0.280664	1.686721
0.280762	1.687312
0.280859	1.687836
0.280957	1.688408
0.281055	1.688910
0.281152	1.689427
0.281250	1.689531
0.281348	1.689415
0.281445	1.688844
0.281543	1.688182
0.281641	1.687307
0.281738	1.686684
0.281836	1.686099
0.281934	1.685852
0.282031	1.685699
0.282129	1.685618
0.282227	1.685582
0.282324	1.685371
0.282422	1.685034
0.282520	1.684692
0.282617	1.684222
0.282715	1.683781
0.282812	1.683326
0.282910	1.682898
0.283008	1.682401
0.283105	1.681926
0.283203	1.681695
0.283301	1.681494
0.283398	1.681654
0.283496	1.681851
0.283594	1.682060
0.283691	1.682217
0.283789	1.682049
0.283887	1.681605
0.283984	1.680967
0.284082	1.680169
0.284180	1.679443
0.284277	1.678811
0.284375	1.678319
0.284473	1.678116
0.284570	1.677821
0.284668	1.677470
0.284766	1.677219
0.284863	1.676717
0.284961	1.676381
0.285059	1.676018
0.285156	1.675466
0.285254	1.674910
0.285352	1.674220
0.285449	1.673700
0.285547	1.673169
0.285645	1.672524
0.285742	1.671942
0.285840	1.671502
0.285937	1.671134
0.286035	1.670853
0.286133	1.670629
0.286230	1.670507
0.286328	1.670445
0.286426	1.670079
0.286523	1.669909
0.286621	1.670076
0.286719	1.670170
0.286816	1.670539
0.286914	1.670776
0.287012	1.671080
0.287109	1.671542
0.287207	1.671913
0.287305	1.672492
0.287402	1.672800
0.287500	1.673269
0.287598	1.673344
0.287695	1.673428
0.287793	1.673686
0.287891	1.673838
0.287988	1.674064
0.288086	1.674263
0.288184	1.674582
0.288281	1.674853
0.288379	1.675273
0.288477	1.675675
0.288574	1.676104
0.288672	1.676450
0.288770	1.676552
0.288867	1.676528
0.288965	1.676422
0.289062	1.676083
0.289160	1.675674
0.289258	1.675217
0.289355	1.674712
0.289453	1.674358
0.289551	1.673870
0.289648	1.673706
0.289746	1.673464
0.289844	1.673491
0.289941	1.673465
0.290039	1.673581
0.290137	1.673695
0.290234	1.673929
0.290332	1.674078
0.290430	1.674417
0.290527	1.674692
0.290625	1.674907
0.290723	1.675161
0.290820	1.675324
0.290918	1.675409
0.291016	1.675378
0.291113	1.675389
0.291211	1.675274
0.291309	1.675059
0.291406	1.674839
0.291504	1.674599
0.291602	1.674215
0.291699	1.673811
0.291797	1.673230
0.291895	1.672486
0.291992	1.671801
0.292090	1.670983
0.292187	1.670270
0.292285	1.669796
0.292383	1.669208
0.292480	1.668861
0.292578	1.668424
0.292676	1.668106
0.292773	1.667963
0.292871	1.667741
0.292969	1.667768
0.293066	1.667663
0.293164	1.667762
0.293262	1.667694
0.293359	1.667663
0.293457	1.667760
0.293555	1.667811
0.293652	1.667952
0.293750	1.668044
0.293848	1.668095
0.293945	1.668167
0.294043	1.668082
0.294141	1.668171
0.294238	1.668175
0.294336	1.668266
0.294434	1.668254
0.294531	1.668335
0.294629	1.668363
0.294727	1.668574
0.294824	1.668827
0.294922	1.669019
0.295020	1.669333
0.295117	1.669653
0.295215	1.670003
0.295312	1.670287
0.295410	1.670905
0.295508	1.671329
0.295605	1.671951
0.295703	1.672521
0.295801	1.672967
0.295898	1.673519
0.295996	1.674013
0.296094	1.674510
0.296191	1.675023
0.296289	1.675309
0.296387	1.675670
0.296484	1.675848
0.296582	1.676037
0.296680	1.676103
0.296777	1.676142
0.296875	1.676153
0.296973	1.675999
0.297070	1.675927
0.297168	1.675894
0.297266	1.675730
0.297363	1.675536
0.297461	1.675495
0.297559	1.675351
0.297656	1.675291
0.297754	1.675161
0.297852	1.675123
0.297949	1.675056
0.298047	1.675031
0.298145	1.675016
0.298242	1.674985
0.298340	1.674878
0.298437	1.674889
0.298535	1.674786
0.298633	1.674673
0.298730	1.674395
0.298828	1.674233
0.298926	1.673942
0.299023	1.673577
0.299121	1.673144
0.299219	1.672632
0.299316	1.672089
0.299414	1.671539
0.299512	1.670875
0.299609	1.670222
0.299707	1.669568
0.299805	1.669036
0.299902	1.668540
0.300000	1.668117
0.300098	1.667644
0.300195	1.667345
0.300293	1.667233
0.300391	1.666886
0.300488	1.666849
0.300586	1.666758
0.300684	1.666865
0.300781	1.666916
0.300879	1.667074
0.300977	1.667328
0.301074	1.667510
0.301172	1.667752
0.301270	1.668092
0.301367	1.668443
0.301465	1.668721
0.301562	1.669256
0.301660	1.669573
0.301758	1.669971
0.301855	1.670418
0.301953	1.670855
0.302051	1.671325
0.302148	1.671799
0.302246	1.672298
0.302344	1.672915
0.302441	1.673348
0.302539	1.673938
0.302637	1.674614
0.302734	1.675200
0.302832	1.676068
0.302930	1.676865
0.303027	1.677731
0.303125	1.678629
0.303223	1.679615
0.303320	1.680520
0.303418	1.681505
0.303516	1.682414
0.303613	1.683326
0.303711	1.684142
0.303809	1.684832
0.303906	1.685410
0.304004	1.685981
0.304102	1.686619
0.304199	1.687122
0.304297	1.687583
0.304395	1.687949
0.304492	1.688215
0.304590	1.688409
0.304687	1.688455
0.304785	1.688515
0.304883	1.688409
0.304980	1.688298
0.305078	1.688068
0.305176	1.687900
0.305273	1.687537
0.305371	1.687269
0.305469	1.687074
0.305566	1.686699
0.305664	1.686363
0.305762	1.685898
0.305859	1.685425
0.305957	1.684959
0.306055	1.684468
0.306152	1.683955
0.306250	1.683540
0.306348	1.683051
0.306445	1.682701
0.306543	1.682444
0.306641	1.682061
0.306738	1.681844
0.306836	1.681627
0.306934	1.681495
0.307031	1.681435
0.307129	1.681368
0.307227	1.681380
0.307324	1.681481
0.307422	1.681480
0.307520	1.681745
0.307617	1.681868
0.307715	1.682219
0.307812	1.682461
0.307910	1.682953
0.308008	1.683379
0.308105	1.683872
0.308203	1.684489
0.308301	1.685110
0.308398	1.685766
0.308496	1.686438
0.308594	1.687105
0.308691	1.687916
0.308789	1.688455
0.308887	1.689347
0.308984	1.690047
0.309082	1.690814
0.309180	1.691565
0.309277	1.692173
0.309375	1.692591
0.309473	1.692784
0.309570	1.692640
0.309668	1.692321
0.309766	1.691956
0.309863	1.691529
0.309961	1.691203
0.310059	1.690821
0.310156	1.690303
0.310254	1.689910
0.310352	1.689369
0.310449	1.688812
0.310547	1.688043
0.310645	1.687143
0.310742	1.686056
0.310840	1.684871
0.310937	1.683753
0.311035	1.682817
0.311133	1.681978
0.311230	1.681244
0.311328	1.680619
0.311426	1.680102
0.311523	1.679642
0.311621	1.679073
0.311719	1.678693
0.311816	1.678239
0.311914	1.677790
0.312012	1.677296
0.312109	1.676746
0.312207	1.676139
0.312305	1.675440
0.312402	1.674816
0.312500	1.673965
0.312598	1.673327
0.312695	1.672550
0.312793	1.671996
0.312891	1.671434
0.312988	1.670923
0.313086	1.670520
0.313184	1.670023
0.313281	1.669611
0.313379	1.669201
0.313477	1.668881
0.313574	1.668549
0.313672	1.668332
0.313770	1.668021
0.313867	1.667814
0.313965	1.667720
0.314062	1.667503
0.314160	1.667409
0.314258	1.667348
0.314355	1.667305
0.314453	1.667320
0.314551	1.667323
0.314648	1.667286
0.314746	1.667384
0.314844	1.667403
0.314941	1.667394
0.315039	1.667396
0.315137	1.667514
0.315234	1.667427
0.315332	1.667484
0.315430	1.667555
0.315527	1.667679
0.315625	1.667727
0.315723	1.667811
0.315820	1.667831
0.315918	1.667993
0.316016	1.668068
0.316113	1.668162
0.316211	1.668290
0.316309	1.668313
0.316406	1.668484
0.316504	1.668715
0.316602	1.668806
0.316699	1.669003
0.316797	1.669248
0.316895	1.669441
0.316992	1.669695
0.317090	1.669944
0.317187	1.670198
0.317285	1.670417
0.317383	1.670769
0.317480	1.671145
0.317578	1.671539
0.317676	1.671943
0.317773	1.672497
0.317871	1.672919
0.317969	1.673495
0.318066	1.674143
0.318164	1.674785
0.318262	1.675537
0.318359	1.676239
0.318457	1.677186
0.318555	1.678001
0.318652	1.678808
0.318750	1.679707
0.318848	1.680427
0.318945	1.681217
0.319043	1.681901
0.319141	1.682562
0.319238	1.683176
0.319336	1.683588
0.319434	1.683888
0.319531	1.683836
0.319629	1.683805
0.319727	1.683520
0.319824	1.683352
0.319922	1.683297
0.320020	1.683272
0.320117	1.683521
0.320215	1.683723
0.320312	1.684264
0.320410	1.684725
0.320508	1.685093
0.320605	1.685607
0.320703	1.685904
0.320801	1.686223
0.320898	1.686764
0.320996	1.687441
0.321094	1.688057
0.321191	1.688653
0.321289	1.688913
0.321387	1.689125
0.321484	1.689270
0.321582	1.689365
0.321680	1.689226
0.321777	1.688854
0.321875	1.688267
0.321973	1.687543
0.322070	1.686793
0.322168	1.686057
0.322266	1.685381
0.322363	1.684859
0.322461	1.684306
0.322559	1.683919
0.322656	1.683512
0.322754	1.683137
0.322852	1.682923
0.322949	1.682452
0.323047	1.682145
0.323145	1.681783
0.323242	1.681305
0.323340	1.680927
0.323437	1.680503
0.323535	1.680141
0.323633	1.679828
0.323730	1.679589
0.323828	1.679381
0.323926	1.679243
0.324023	1.679108
0.324121	1.679132
0.324219	1.679162
0.324316	1.679241
0.324414	1.679435
0.324512	1.679469
0.324609	1.679742
0.324707	1.679847
0.324805	1.680038
0.324902	1.680301
0.325000	1.680498
0.325098	1.680664
0.325195	1.680950
0.325293	1.680993
0.325391	1.681419
0.325488	1.681760
0.325586	1.682051
0.325684	1.682437
0.325781	1.682786
0.325879	1.683258
0.325977	1.683759
0.326074	1.684354
0.326172	1.685242
0.326270	1.686142
0.326367	1.687345
0.326465	1.688635
0.326562	1.690118
0.326660	1.691739
0.326758	1.693630
0.326855	1.695486
0.326953	1.696564
0.327051	1.694684
0.327148	1.691371
0.327246	1.690708
0.327344	1.691236
0.327441	1.691823
0.327539	1.692163
0.327637	1.692241
0.327734	1.692288
0.327832	1.692464
0.327930	1.692663
0.328027	1.693008
0.328125	1.693672
0.328223	1.694358
0.328320	1.694976
0.328418	1.694862
0.328516	1.694229
0.328613	1.693139
0.328711	1.692143
0.328809	1.691242
0.328906	1.690851
0.329004	1.690516
0.329102	1.690351
0.329199	1.690391
0.329297	1.690435
0.329395	1.690605
0.329492	1.690740
0.329590	1.690936
0.329687	1.690894
0.329785	1.690880
0.329883	1.690751
0.329980	1.690723
0.330078	1.690829
0.330176	1.690857
0.330273	1.690948
0.330371	1.690947
0.330469	1.690884
0.330566	1.690843
0.330664	1.690817
0.330762	1.690754
0.330859	1.690648
0.330957	1.690693
0.331055	1.690671
0.331152	1.690544
0.331250	1.690145
0.331348	1.689791
0.331445	1.689337
0.331543	1.688901
0.331641	1.688358
0.331738	1.687708
0.331836	1.686798
0.331934	1.685685
0.332031	1.684481
0.332129	1.683224
0.332227	1.682144
0.332324	1.681283
0.332422	1.680783
0.332520	1.680580
0.332617	1.680690
0.332715	1.680968
0.332812	1.681540
0.332910	1.682279
0.333008	1.682811
0.333105	1.683168
0.333203	1.683235
0.333301	1.683181
0.333398	1.683092
0.333496	1.682855
0.333594	1.682494
0.333691	1.681778
0.333789	1.680940
0.333887	1.679922
0.333984	1.678912
0.334082	1.677828
0.334180	1.676982
0.334277	1.676121
0.334375	1.675462
0.334473	1.674822
0.334570	1.674347
0.334668	1.674011
0.334766	1.673804
0.334863	1.673696
0.334961	1.673653
0.335059	1.673730
0.335156	1.673783
0.335254	1.673871
0.335352	1.674053
0.335449	1.674371
0.335547	1.674637
0.335645	1.674859
0.335742	1.675065
0.335840	1.675392
0.335937	1.675459
0.336035	1.675649
0.336133	1.675699
0.336230	1.675586
0.336328	1.675296
0.336426	1.674827
0.336523	1.674288
0.336621	1.673568
0.336719	1.673015
0.336816	1.672302
0.336914	1.671853
0.337012	1.671327
0.337109	1.670987
0.337207	1.670607
0.337305	1.670248
0.337402	1.670123
0.337500	1.670055
0.337598	1.670049
0.337695	1.670131
0.337793	1.670351
0.337891	1.670518
0.337988	1.670787
0.338086	1.671068
0.338184	1.671404
0.338281	1.671734
0.338379	1.672085
0.338477	1.672412
0.338574	1.672720
0.338672	1.673029
0.338770	1.673323
0.338867	1.673465
0.338965	1.673698
0.339062	1.673893
0.339160	1.674084
0.339258	1.674229
0.339355	1.674330
0.339453	1.674486
0.339551	1.674719
0.339648	1.674905
0.339746	1.675094
0.339844	1.675468
0.339941	1.675699
0.340039	1.675951
0.340137	1.676230
0.340234	1.676337
0.340332	1.676395
0.340430	1.676370
0.340527	1.676234
0.340625	1.676101
0.340723	1.675966
0.340820	1.676014
0.340918	1.676129
0.341016	1.676298
0.341113	1.676527
0.341211	1.676817
0.341309	1.677195
0.341406	1.677598
0.341504	1.678076
0.341602	1.678624
0.341699	1.679083
0.341797	1.679745
0.341895	1.680395
0.341992	1.681138
0.342090	1.681853
0.342187	1.682659
0.342285	1.683463
0.342383	1.684332
0.342480	1.685131
0.342578	1.685991
0.342676	1.686672
0.342773	1.687493
0.342871	1.688380
0.342969	1.689172
0.343066	1.690143
0.343164	1.690918
0.343262	1.691759
0.343359	1.692490
0.343457	1.693286
0.343555	1.694050
0.343652	1.695022
0.343750	1.696229
0.343848	1.697692
0.343945	1.699375
0.344043	1.701078
0.344141	1.702149
0.344238	1.702877
0.344336	1.701695
0.344434	1.699363
0.344531	1.697025
0.344629	1.694499
0.344727	1.692887
0.344824	1.692157
0.344922	1.691422
0.345020	1.690412
0.345117	1.689366
0.345215	1.688356
0.345312	1.687493
0.345410	1.686783
0.345508	1.686306
0.345605	1.685685
0.345703	1.685083
0.345801	1.684426
0.345898	1.683869
0.345996	1.683237
0.346094	1.682752
0.346191	1.682173
0.346289	1.681630
0.346387	1.681181
0.346484	1.680637
0.346582	1.680160
0.346680	1.679761
0.346777	1.679296
0.346875	1.678900
0.346973	1.678495
0.347070	1.678199
0.347168	1.677801
0.347266	1.677426
0.347363	1.677169
0.347461	1.676906
0.347559	1.676680
0.347656	1.676629
0.347754	1.676513
0.347852	1.676426
0.347949	1.676490
0.348047	1.676488
0.348145	1.676572
0.348242	1.676734
0.348340	1.677039
0.348437	1.677114
0.348535	1.677402
0.348633	1.677482
0.348730	1.677562
0.348828	1.677717
0.348926	1.677860
0.349023	1.677902
0.349121	1.678047
0.349219	1.678208
0.349316	1.678327
0.349414	1.678475
0.349512	1.678523
0.349609	1.678654
0.349707	1.678685
0.349805	1.678782
0.349902	1.678817
0.350000	1.678933
0.350098	1.679126
0.350195	1.679188
0.350293	1.679461
0.350391	1.679632
0.350488	1.679916
0.350586	1.679993
0.350684	1.680394
0.350781	1.680497
0.350879	1.680697
0.350977	1.680934
0.351074	1.681192
0.351172	1.681551
0.351270	1.681997
0.351367	1.682537
0.351465	1.683169
0.351562	1.683799
0.351660	1.684527
0.351758	1.685074
0.351855	1.685443
0.351953	1.685652
0.352051	1.685455
0.352148	1.685239
0.352246	1.684705
0.352344	1.684126
0.352441	1.683467
0.352539	1.683077
0.352637	1.682729
0.352734	1.682516
0.352832	1.682511
0.352930	1.682656
0.353027	1.682899
0.353125	1.683155
0.353223	1.683340
0.353320	1.683535
0.353418	1.683581
0.353516	1.683647
0.353613	1.683462
0.353711	1.683267
0.353809	1.682893
0.353906	1.682581
0.354004	1.682276
0.354102	1.681896
0.354199	1.681519
0.354297	1.681204
0.354395	1.680813
0.354492	1.680471
0.354590	1.680239
0.354687	1.680100
0.354785	1.680022
0.354883	1.680008
0.354980	1.680052
0.355078	1.680123
0.355176	1.680255
0.355273	1.680390
0.355371	1.680528
0.355469	1.680868
0.355566	1.681170
0.355664	1.681365
0.355762	1.681532
0.355859	1.681751
0.355957	1.681950
0.356055	1.682101
0.356152	1.682208
0.356250	1.682291
0.356348	1.682410
0.356445	1.682435
0.356543	1.682597
0.356641	1.682678
0.356738	1.682687
0.356836	1.682749
0.356934	1.682787
0.357031	1.682823
0.357129	1.683013
0.357227	1.683124
0.357324	1.683307
0.357422	1.683581
0.357520	1.683777
0.357617	1.684143
0.357715	1.684335
0.357812	1.684671
0.357910	1.684893
0.358008	1.685339
0.358105	1.685681
0.358203	1.686188
0.358301	1.686773
0.358398	1.687423
0.358496	1.688252
0.358594	1.689091
0.358691	1.690078
0.358789	1.691017
0.358887	1.691994
0.358984	1.693114
0.359082	1.694216
0.359180	1.695377
0.359277	1.696529
0.359375	1.697562
0.359473	1.698661
0.359570	1.699455
0.359668	1.700196
0.359766	1.700896
0.359863	1.701363
0.359961	1.701789
0.360059	1.702336
0.360156	1.702711
0.360254	1.702702
0.360352	1.702807
0.360449	1.702481
0.360547	1.702142
0.360645	1.701694
0.360742	1.701321
0.360840	1.700935
0.360937	1.700615
0.361035	1.700251
0.361133	1.699745
0.361230	1.699156
0.361328	1.698413
0.361426	1.697389
0.361523	1.696207
0.361621	1.694874
0.361719	1.693734
0.361816	1.692638
0.361914	1.691867
0.362012	1.691026
0.362109	1.690485
0.362207	1.689884
0.362305	1.689622
0.362402	1.689260
0.362500	1.688986
0.362598	1.688774
0.362695	1.688627
0.362793	1.688515
0.362891	1.688648
0.362988	1.688808
0.363086	1.689136
0.363184	1.689752
0.363281	1.690596
0.363379	1.692428
0.363477	1.695241
0.363574	1.697343
0.363672	1.698454
0.363770	1.697633
0.363867	1.693869
0.363965	1.689653
0.364062	1.687823
0.364160	1.686405
0.364258	1.685194
0.364355	1.684466
0.364453	1.684291
0.364551	1.684089
0.364648	1.683984
0.364746	1.683630
0.364844	1.683326
0.364941	1.683262
0.365039	1.683512
0.365137	1.683389
0.365234	1.683097
0.365332	1.679083
0.365430	1.674467
0.365527	1.672435
0.365625	1.671722
0.365723	1.671428
0.365820	1.671263
0.365918	1.671140
0.366016	1.670841
0.366113	1.670501
0.366211	1.670076
0.366309	1.669565
0.366406	1.669042
0.366504	1.668591
0.366602	1.668072
0.366699	1.667615
0.366797	1.667318
0.366895	1.666937
0.366992	1.666761
0.367090	1.666495
0.367187	1.666405
0.367285	1.666265
0.367383	1.666269
0.367480	1.666351
0.367578	1.666441
0.367676	1.666681
0.367773	1.666896
0.367871	1.667149
0.367969	1.667499
0.368066	1.667842
0.368164	1.668399
0.368262	1.668908
0.368359	1.669338
0.368457	1.669837
0.368555	1.670273
0.368652	1.670663
0.368750	1.671124
0.368848	1.671435
0.368945	1.671782
0.369043	1.672134
0.369141	1.672323
0.369238	1.672637
0.369336	1.672827
0.369434	1.672916
0.369531	1.673190
0.369629	1.673469
0.369727	1.673573
0.369824	1.673917
0.369922	1.674172
0.370020	1.674451
0.370117	1.674769
0.370215	1.675222
0.370312	1.675544
0.370410	1.675940
0.370508	1.676317
0.370605	1.676679
0.370703	1.677078
0.370801	1.677317
0.370898	1.677778
0.370996	1.678085
0.371094	1.678393
0.371191	1.678769
0.371289	1.678967
0.371387	1.679287
0.371484	1.679523
0.371582	1.679830
0.371680	1.679998
0.371777	1.680311
0.371875	1.680671
0.371973	1.680887
0.372070	1.681216
0.372168	1.681513
0.372266	1.682013
0.372363	1.682423
0.372461	1.682957
0.372559	1.683685
0.372656	1.684479
0.372754	1.685389
0.372852	1.686439
0.372949	1.687578
0.373047	1.689002
0.373145	1.690330
0.373242	1.691717
0.373340	1.693293
0.373437	1.695278
0.373535	1.696620
0.373633	1.694981
0.373730	1.696150
0.373828	1.696175
0.373926	1.696350
0.374023	1.696528
0.374121	1.696922
0.374219	1.697765
0.374316	1.698955
0.374414	1.700056
0.374512	1.701487
0.374609	1.703043
0.374707	1.703533
0.374805	1.703263
0.374902	1.702572
0.375000	1.702215
0.375098	1.702396
0.375195	1.703486
0.375293	1.705416
0.375391	1.706966
0.375488	1.707275
0.375586	1.707571
0.375684	1.703342
0.375781	1.701088
0.375879	1.702456
0.375977	1.702702
0.376074	1.704078
0.376172	1.708067
0.376270	1.696453
0.376367	1.691098
0.376465	1.690606
0.376562	1.690876
0.376660	1.691676
0.376758	1.691963
0.376855	1.688623
0.376953	1.681701
0.377051	1.677151
0.377148	1.676928
0.377246	1.677429
0.377344	1.678457
0.377441	1.679431
0.377539	1.681254
0.377637	1.682673
0.377734	1.684426
0.377832	1.684794
0.377930	1.686531
0.378027	1.688669
0.378125	1.698922
0.378223	1.691020
0.378320	1.673697
0.378418	1.674883
0.378516	1.674060
0.378613	1.674568
0.378711	1.671966
0.378809	1.668069
0.378906	1.662855
0.379004	1.661173
0.379102	1.660092
0.379199	1.659500
0.379297	1.658492
0.379395	1.657958
0.379492	1.657191
0.379590	1.656659
0.379687	1.656140
0.379785	1.655598
0.379883	1.655361
0.379980	1.655002
0.380078	1.654740
0.380176	1.654680
0.380273	1.654582
0.380371	1.654583
0.380469	1.654566
0.380566	1.654626
0.380664	1.654666
0.380762	1.654660
0.380859	1.654556
0.380957	1.654612
0.381055	1.654450
0.381152	1.654280
0.381250	1.654035
0.381348	1.653805
0.381445	1.653461
0.381543	1.653212
0.381641	1.652995
0.381738	1.652775
0.381836	1.652580
0.381934	1.652443
0.382031	1.652323
0.382129	1.652158
0.382227	1.652219
0.382324	1.652262
0.382422	1.652213
0.382520	1.652324
0.382617	1.652408
0.382715	1.652509
0.382812	1.652704
0.382910	1.652933
0.383008	1.653101
0.383105	1.653351
0.383203	1.653582
0.383301	1.653766
0.383398	1.654095
0.383496	1.654455
0.383594	1.654794
0.383691	1.655153
0.383789	1.655518
0.383887	1.656070
0.383984	1.656434
0.384082	1.656989
0.384180	1.657457
0.384277	1.657969
0.384375	1.658551
0.384473	1.659103
0.384570	1.659779
0.384668	1.660371
0.384766	1.661063
0.384863	1.661678
0.384961	1.662428
0.385059	1.663225
0.385156	1.663893
0.385254	1.664734
0.385352	1.665492
0.385449	1.666461
0.385547	1.667122
0.385645	1.667863
0.385742	1.668624
0.385840	1.669199
0.385937	1.670005
0.386035	1.670750
0.386133	1.671538
0.386230	1.672338
0.386328	1.673178
0.386426	1.674054
0.386523	1.674939
0.386621	1.675644
0.386719	1.676581
0.386816	1.677403
0.386914	1.678070
0.387012	1.678901
0.387109	1.679555
0.387207	1.680324
0.387305	1.680979
0.387402	1.681632
0.387500	1.682261
0.387598	1.682825
0.387695	1.683236
0.387793	1.683650
0.387891	1.683919
0.387988	1.684438
0.388086	1.684792
0.388184	1.685222
0.388281	1.685787
0.388379	1.686322
0.388477	1.686963
0.388574	1.687641
0.388672	1.688370
0.388770	1.689005
0.388867	1.689730
0.388965	1.690267
0.389062	1.690969
0.389160	1.691358
0.389258	1.691540
0.389355	1.691602
0.389453	1.691617
0.389551	1.691623
0.389648	1.691585
0.389746	1.691498
0.389844	1.691296
0.389941	1.691281
0.390039	1.691286
0.390137	1.691335
0.390234	1.691622
0.390332	1.691783
0.390430	1.692150
0.390527	1.692351
0.390625	1.692776
0.390723	1.693229
0.390820	1.694020
0.390918	1.694873
0.391016	1.695676
0.391113	1.696047
0.391211	1.695530
0.391309	1.694346
0.391406	1.693521
0.391504	1.693295
0.391602	1.694452
0.391699	1.696675
0.391797	1.700130
0.391895	1.702579
0.391992	1.703822
0.392090	1.705334
0.392187	1.701599
0.392285	1.694098
0.392383	1.692652
0.392480	1.693277
0.392578	1.693043
0.392676	1.689193
0.392773	1.684660
0.392871	1.681353
0.392969	1.678769
0.393066	1.677670
0.393164	1.678453
0.393262	1.680565
0.393359	1.683346
0.393457	1.685602
0.393555	1.690404
0.393652	1.693128
0.393750	1.696662
0.393848	1.700760
0.393945	1.691995
0.394043	1.693135
0.394141	1.690907
0.394238	1.686874
0.394336	1.683691
0.394434	1.686575
0.394531	1.674361
0.394629	1.649401
0.394727	1.638437
0.394824	1.664026
0.394922	1.683157
0.395020	1.681131
0.395117	1.684453
0.395215	1.683523
0.395312	1.674964
0.395410	1.673388
0.395508	1.680603
0.395605	1.680883
0.395703	1.676026
0.395801	1.674382
0.395898	1.673826
0.395996	1.673167
0.396094	1.669734
0.396191	1.668688
0.396289	1.671035
0.396387	1.674324
0.396484	1.674182
0.396582	1.668342
0.396680	1.662368
0.396777	1.659300
0.396875	1.656100
0.396973	1.653034
0.397070	1.650220
0.397168	1.647850
0.397266	1.646062
0.397363	1.644736
0.397461	1.643844
0.397559	1.643381
0.397656	1.643250
0.397754	1.643194
0.397852	1.643397
0.397949	1.643794
0.398047	1.643988
0.398145	1.644268
0.398242	1.644710
0.398340	1.645026
0.398437	1.645400
0.398535	1.645677
0.398633	1.646044
0.398730	1.646314
0.398828	1.646629
0.398926	1.646912
0.399023	1.647149
0.399121	1.647509
0.399219	1.647803
0.399316	1.648060
0.399414	1.648390
0.399512	1.648704
0.399609	1.649002
0.399707	1.649377
0.399805	1.649690
0.399902	1.650194
0.400000	1.650536
0.400098	1.651037
0.400195	1.651397
0.400293	1.651953
0.400391	1.652462
0.400488	1.652944
0.400586	1.653509
0.400684	1.654142
0.400781	1.654663
0.400879	1.655201
0.400977	1.655801
0.401074	1.656319
0.401172	1.656943
0.401270	1.657504
0.401367	1.658137
0.401465	1.658749
0.401562	1.659411
0.401660	1.660095
0.401758	1.660825
0.401855	1.661628
0.401953	1.662541
0.402051	1.663449
0.402148	1.664555
0.402246	1.665629
0.402344	1.666721
0.402441	1.667794
0.402539	1.669052
0.402637	1.670266
0.402734	1.671624
0.402832	1.673006
0.402930	1.674581
0.403027	1.676090
0.403125	1.677753
0.403223	1.679377
0.403320	1.680787
0.403418	1.682062
0.403516	1.683047
0.403613	1.684047
0.403711	1.685004
0.403809	1.686260
0.403906	1.687125
0.404004	1.687226
0.404102	1.686220
0.404199	1.684933
0.404297	1.684026
0.404395	1.683608
0.404492	1.683506
0.404590	1.683693
0.404687	1.684376
0.404785	1.685098
0.404883	1.686112
0.404980	1.686829
0.405078	1.687044
0.405176	1.686546
0.405273	1.685157
0.405371	1.683587
0.405469	1.682129
0.405566	1.681211
0.405664	1.680850
0.405762	1.680873
0.405859	1.680920
0.405957	1.681046
0.406055	1.681114
0.406152	1.681044
0.406250	1.681146
0.406348	1.681058
0.406445	1.681184
0.406543	1.681178
0.406641	1.681273
0.406738	1.681339
0.406836	1.681334
0.406934	1.681455
0.407031	1.681601
0.407129	1.681708
0.407227	1.681942
0.407324	1.682210
0.407422	1.682518
0.407520	1.682848
0.407617	1.683298
0.407715	1.683655
0.407812	1.684224
0.407910	1.684621
0.408008	1.685027
0.408105	1.685444
0.408203	1.685852
0.408301	1.686217
0.408398	1.686649
0.408496	1.687037
0.408594	1.687371
0.408691	1.687560
0.408789	1.687662
0.408887	1.687443
0.408984	1.687128
0.409082	1.686531
0.409180	1.685704
0.409277	1.684828
0.409375	1.683844
0.409473	1.682819
0.409570	1.681752
0.409668	1.680696
0.409766	1.679738
0.409863	1.678839
0.409961	1.677942
0.410059	1.677228
0.410156	1.676671
0.410254	1.676179
0.410352	1.675763
0.410449	1.675434
0.410547	1.675426
0.410645	1.675215
0.410742	1.675234
0.410840	1.675293
0.410937	1.675364
0.411035	1.675496
0.411133	1.675649
0.411230	1.675733
0.411328	1.675755
0.411426	1.675906
0.411523	1.675898
0.411621	1.676028
0.411719	1.676060
0.411816	1.676155
0.411914	1.676009
0.412012	1.675863
0.412109	1.675682
0.412207	1.675384
0.412305	1.675200
0.412402	1.674905
0.412500	1.674603
0.412598	1.674377
0.412695	1.674233
0.412793	1.674382
0.412891	1.674595
0.412988	1.675415
0.413086	1.676369
0.413184	1.678147
0.413281	1.680162
0.413379	1.683385
0.413477	1.689056
0.413574	1.694613
0.413672	1.689281
0.413770	1.678863
0.413867	1.659636
0.413965	1.656003
0.414062	1.667111
0.414160	1.668785
0.414258	1.671259
0.414355	1.673092
0.414453	1.676215
0.414551	1.680381
0.414648	1.685497
0.414746	1.692628
0.414844	1.693957
0.414941	1.687899
0.415039	1.686397
0.415137	1.681764
0.415234	1.678819
0.415332	1.676015
0.415430	1.674257
0.415527	1.672111
0.415625	1.670683
0.415723	1.669200
0.415820	1.668471
0.415918	1.668071
0.416016	1.667937
0.416113	1.667822
0.416211	1.667938
0.416309	1.667736
0.416406	1.667756
0.416504	1.667491
0.416602	1.667243
0.416699	1.666899
0.416797	1.666708
0.416895	1.666335
0.416992	1.666078
0.417090	1.665970
0.417187	1.665673
0.417285	1.665648
0.417383	1.665535
0.417480	1.665486
0.417578	1.665503
0.417676	1.665565
0.417773	1.665620
0.417871	1.665687
0.417969	1.665887
0.418066	1.666051
0.418164	1.666288
0.418262	1.666544
0.418359	1.666718
0.418457	1.666957
0.418555	1.667217
0.418652	1.667524
0.418750	1.667781
0.418848	1.667987
0.418945	1.668231
0.419043	1.668452
0.419141	1.668621
0.419238	1.668882
0.419336	1.669073
0.419434	1.669343
0.419531	1.669485
0.419629	1.669679
0.419727	1.669961
0.419824	1.670130
0.419922	1.670369
0.420020	1.670655
0.420117	1.670790
0.420215	1.670939
0.420312	1.671136
0.420410	1.671345
0.420508	1.671523
0.420605	1.671678
0.420703	1.671830
0.420801	1.671970
0.420898	1.672132
0.420996	1.672261
0.421094	1.672413
0.421191	1.672652
0.421289	1.672779
0.421387	1.673091
0.421484	1.673244
0.421582	1.673496
0.421680	1.673781
0.421777	1.674052
0.421875	1.674424
0.421973	1.674741
0.422070	1.675181
0.422168	1.675585
0.422266	1.676055
0.422363	1.676559
0.422461	1.676947
0.422559	1.677419
0.422656	1.677893
0.422754	1.678423
0.422852	1.678903
0.422949	1.679453
0.423047	1.679880
0.423145	1.680379
0.423242	1.680763
0.423340	1.681251
0.423437	1.681671
0.423535	1.682232
0.423633	1.682857
0.423730	1.683581
0.423828	1.684271
0.423926	1.685009
0.424023	1.685745
0.424121	1.686174
0.424219	1.685858
0.424316	1.685119
0.424414	1.684364
0.424512	1.683972
0.424609	1.683532
0.424707	1.683217
0.424805	1.682812
0.424902	1.682586
0.425000	1.682094
0.425098	1.681637
0.425195	1.680980
0.425293	1.680237
0.425391	1.679744
0.425488	1.679127
0.425586	1.678431
0.425684	1.677980
0.425781	1.677467
0.425879	1.676895
0.425977	1.676496
0.426074	1.675998
0.426172	1.675592
0.426270	1.675195
0.426367	1.674797
0.426465	1.674472
0.426562	1.674055
0.426660	1.673634
0.426758	1.673319
0.426855	1.672955
0.426953	1.672606
0.427051	1.672317
0.427148	1.672004
0.427246	1.671723
0.427344	1.671533
0.427441	1.671285
0.427539	1.671164
0.427637	1.671062
0.427734	1.670966
0.427832	1.670972
0.427930	1.670956
0.428027	1.670932
0.428125	1.671034
0.428223	1.671080
0.428320	1.671094
0.428418	1.671202
0.428516	1.671103
0.428613	1.671228
0.428711	1.671122
0.428809	1.671095
0.428906	1.671095
0.429004	1.671033
0.429102	1.671172
0.429199	1.671263
0.429297	1.671331
0.429395	1.671472
0.429492	1.671538
0.429590	1.671743
0.429687	1.671846
0.429785	1.671968
0.429883	1.672140
0.429980	1.672322
0.430078	1.672782
0.430176	1.673224
0.430273	1.673843
0.430371	1.674601
0.430469	1.675412
0.430566	1.676322
0.430664	1.677399
0.430762	1.678415
0.430859	1.679316
0.430957	1.680578
0.431055	1.681670
0.431152	1.682827
0.431250	1.683420
0.431348	1.682361
0.431445	1.681300
0.431543	1.680589
0.431641	1.679946
0.431738	1.679348
0.431836	1.678731
0.431934	1.678220
0.432031	1.677842
0.432129	1.677429
0.432227	1.677115
0.432324	1.676725
0.432422	1.676172
0.432520	1.675501
0.432617	1.674766
0.432715	1.673833
0.432812	1.673144
0.432910	1.672566
0.433008	1.672163
0.433105	1.671730
0.433203	1.671422
0.433301	1.671230
0.433398	1.671144
0.433496	1.671104
0.433594	1.671226
0.433691	1.671423
0.433789	1.671654
0.433887	1.671986
0.433984	1.672229
0.434082	1.672612
0.434180	1.672875
0.434277	1.673351
0.434375	1.673717
0.434473	1.674105
0.434570	1.674460
0.434668	1.674850
0.434766	1.675172
0.434863	1.675505
0.434961	1.675785
0.435059	1.676043
0.435156	1.676259
0.435254	1.676438
0.435352	1.676695
0.435449	1.676991
0.435547	1.677221
0.435645	1.677519
0.435742	1.677823
0.435840	1.678091
0.435937	1.678512
0.436035	1.678842
0.436133	1.679312
0.436230	1.679883
0.436328	1.680357
0.436426	1.680964
0.436523	1.681477
0.436621	1.681979
0.436719	1.682505
0.436816	1.682942
0.436914	1.683309
0.437012	1.683700
0.437109	1.684160
0.437207	1.684458
0.437305	1.684789
0.437402	1.685013
0.437500	1.685361
0.437598	1.685621
0.437695	1.686004
0.437793	1.686285
0.437891	1.686624
0.437988	1.687042
0.438086	1.687486
0.438184	1.688142
0.438281	1.688886
0.438379	1.689871
0.438477	1.690822
0.438574	1.691798
0.438672	1.692377
0.438770	1.692812
0.438867	1.692650
0.438965	1.692449
0.439062	1.691828
0.439160	1.690943
0.439258	1.690053
0.439355	1.689029
0.439453	1.688244
0.439551	1.687740
0.439648	1.687365
0.439746	1.686770
0.439844	1.685842
0.439941	1.685012
0.440039	1.684570
0.440137	1.684428
0.440234	1.684210
0.440332	1.683733
0.440430	1.682532
0.440527	1.680838
0.440625	1.679326
0.440723	1.677992
0.440820	1.676890
0.440918	1.675814
0.441016	1.674642
0.441113	1.673380
0.441211	1.672018
0.441309	1.670761
0.441406	1.669556
0.441504	1.668352
0.441602	1.667233
0.441699	1.666270
0.441797	1.665344
0.441895	1.664444
0.441992	1.663579
0.442090	1.662784
0.442187	1.662075
0.442285	1.661460
0.442383	1.660760
0.442480	1.660248
0.442578	1.659662
0.442676	1.659201
0.442773	1.658845
0.442871	1.658563
0.442969	1.658335
0.443066	1.658156
0.443164	1.657915
0.443262	1.657852
0.443359	1.657703
0.443457	1.657739
0.443555	1.657736
0.443652	1.657702
0.443750	1.657764
0.443848	1.657893
0.443945	1.658010
0.444043	1.658109
0.444141	1.658240
0.444238	1.658515
0.444336	1.658721
0.444434	1.658973
0.444531	1.659269
0.444629	1.659543
0.444727	1.659929
0.444824	1.660243
0.444922	1.660656
0.445020	1.661140
0.445117	1.661583
0.445215	1.662021
0.445312	1.662572
0.445410	1.663369
0.445508	1.664001
0.445605	1.664825
0.445703	1.665520
0.445801	1.666371
0.445898	1.667265
0.445996	1.668191
0.446094	1.669164
0.446191	1.670288
0.446289	1.671295
0.446387	1.672559
0.446484	1.673706
0.446582	1.674952
0.446680	1.676128
0.446777	1.677486
0.446875	1.678670
0.446973	1.679897
0.447070	1.681155
0.447168	1.682138
0.447266	1.683361
0.447363	1.684382
0.447461	1.685335
0.447559	1.686119
0.447656	1.686965
0.447754	1.687831
0.447852	1.688499
0.447949	1.689181
0.448047	1.689709
0.448145	1.690193
0.448242	1.690733
0.448340	1.691416
0.448437	1.692167
0.448535	1.692979
0.448633	1.693796
0.448730	1.694826
0.448828	1.695588
0.448926	1.696202
0.449023	1.695775
0.449121	1.694166
0.449219	1.693062
0.449316	1.692500
0.449414	1.691809
0.449512	1.690990
0.449609	1.690073
0.449707	1.689126
0.449805	1.688116
0.449902	1.687488
0.450000	1.687063
0.450098	1.687147
0.450195	1.687482
0.450293	1.688197
0.450391	1.689002
0.450488	1.689702
0.450586	1.690143
0.450684	1.690137
0.450781	1.689671
0.450879	1.689215
0.450977	1.688882
0.451074	1.688492
0.451172	1.688271
0.451270	1.687938
0.451367	1.687636
0.451465	1.687290
0.451562	1.686987
0.451660	1.686728
0.451758	1.686426
0.451855	1.686180
0.451953	1.685927
0.452051	1.685517
0.452148	1.684965
0.452246	1.684243
0.452344	1.683407
0.452441	1.682369
0.452539	1.681325
0.452637	1.679993
0.452734	1.678752
0.452832	1.677361
0.452930	1.676110
0.453027	1.674874
0.453125	1.673692
0.453223	1.672608
0.453320	1.671696
0.453418	1.670801
0.453516	1.670182
0.453613	1.669537
0.453711	1.668984
0.453809	1.668613
0.453906	1.668189
0.454004	1.667924
0.454102	1.667697
0.454199	1.667457
0.454297	1.667395
0.454395	1.667260
0.454492	1.667248
0.454590	1.667279
0.454687	1.667264
0.454785	1.667295
0.454883	1.667389
0.454980	1.667376
0.455078	1.667466
0.455176	1.667470
0.455273	1.667436
0.455371	1.667535
0.455469	1.667570
0.455566	1.667616
0.455664	1.667580
0.455762	1.667521
0.455859	1.667464
0.455957	1.667303
0.456055	1.667230
0.456152	1.667068
0.456250	1.666917
0.456348	1.666741
0.456445	1.666503
0.456543	1.666436
0.456641	1.666338
0.456738	1.666252
0.456836	1.666307
0.456934	1.666297
0.457031	1.666399
0.457129	1.666542
0.457227	1.666808
0.457324	1.667026
0.457422	1.667449
0.457520	1.667965
0.457617	1.668626
0.457715	1.669276
0.457812	1.670137
0.457910	1.670924
0.458008	1.671857
0.458105	1.672641
0.458203	1.673477
0.458301	1.674051
0.458398	1.674643
0.458496	1.674994
0.458594	1.675051
0.458691	1.674758
0.458789	1.674229
0.458887	1.673600
0.458984	1.672999
0.459082	1.672364
0.459180	1.671693
0.459277	1.671143
0.459375	1.670642
0.459473	1.670022
0.459570	1.669618
0.459668	1.669258
0.459766	1.668860
0.459863	1.668616
0.459961	1.668530
0.460059	1.668385
0.460156	1.668418
0.460254	1.668454
0.460352	1.668551
0.460449	1.668687
0.460547	1.669037
0.460645	1.669250
0.460742	1.669692
0.460840	1.670135
0.460937	1.670609
0.461035	1.671141
0.461133	1.671667
0.461230	1.672260
0.461328	1.672844
0.461426	1.673477
0.461523	1.674174
0.461621	1.674778
0.461719	1.675409
0.461816	1.676096
0.461914	1.676527
0.462012	1.677166
0.462109	1.677659
0.462207	1.678152
0.462305	1.678475
0.462402	1.678863
0.462500	1.679131
0.462598	1.679497
0.462695	1.679774
0.462793	1.680198
0.462891	1.680511
0.462988	1.680880
0.463086	1.681340
0.463184	1.681701
0.463281	1.682210
0.463379	1.682713
0.463477	1.683432
0.463574	1.684016
0.463672	1.684739
0.463770	1.685378
0.463867	1.686003
0.463965	1.686432
0.464062	1.686616
0.464160	1.686592
0.464258	1.686414
0.464355	1.686039
0.464453	1.685569
0.464551	1.684973
0.464648	1.684686
0.464746	1.684569
0.464844	1.684935
0.464941	1.685528
0.465039	1.686560
0.465137	1.687894
0.465234	1.689107
0.465332	1.690425
0.465430	1.691619
0.465527	1.692442
0.465625	1.692933
0.465723	1.693029
0.465820	1.692324
0.465918	1.691107
0.466016	1.689453
0.466113	1.687527
0.466211	1.685885
0.466309	1.684370
0.466406	1.683091
0.466504	1.682213
0.466602	1.681256
0.466699	1.680578
0.466797	1.679997
0.466895	1.679399
0.466992	1.678836
0.467090	1.678380
0.467187	1.678081
0.467285	1.677754
0.467383	1.677643
0.467480	1.677522
0.467578	1.677564
0.467676	1.677635
0.467773	1.677812
0.467871	1.678132
0.467969	1.678398
0.468066	1.678870
0.468164	1.679332
0.468262	1.679797
0.468359	1.680345
0.468457	1.680874
0.468555	1.681236
0.468652	1.681578
0.468750	1.681811
0.468848	1.682088
0.468945	1.682191
0.469043	1.682362
0.469141	1.682450
0.469238	1.682473
0.469336	1.682397
0.469434	1.682391
0.469531	1.682365
0.469629	1.682338
0.469727	1.682450
0.469824	1.682558
0.469922	1.682707
0.470020	1.682872
0.470117	1.683005
0.470215	1.683118
0.470312	1.683153
0.470410	1.683125
0.470508	1.683146
0.470605	1.683020
0.470703	1.682853
0.470801	1.682446
0.470898	1.682019
0.470996	1.681320
0.471094	1.680366
0.471191	1.679272
0.471289	1.678163
0.471387	1.676943
0.471484	1.675602
0.471582	1.674368
0.471680	1.673135
0.471777	1.671860
0.471875	1.670749
0.471973	1.669514
0.472070	1.668527
0.472168	1.667413
0.472266	1.666522
0.472363	1.665555
0.472461	1.664720
0.472559	1.663940
0.472656	1.663209
0.472754	1.662605
0.472852	1.661961
0.472949	1.661470
0.473047	1.660927
0.473145	1.660475
0.473242	1.660034
0.473340	1.659613
0.473437	1.659173
0.473535	1.658902
0.473633	1.658629
0.473730	1.658412
0.473828	1.658219
0.473926	1.658128
0.474023	1.657930
0.474121	1.657996
0.474219	1.658018
0.474316	1.658101
0.474414	1.658262
0.474512	1.658381
0.474609	1.658628
0.474707	1.658825
0.474805	1.659065
0.474902	1.659384
0.475000	1.659671
0.475098	1.660036
0.475195	1.660356
0.475293	1.660757
0.475391	1.661427
0.475488	1.661794
0.475586	1.662401
0.475684	1.662978
0.475781	1.663524
0.475879	1.664232
0.475977	1.664822
0.476074	1.665514
0.476172	1.666166
0.476270	1.666847
0.476367	1.667505
0.476465	1.668151
0.476562	1.668709
0.476660	1.669230
0.476758	1.669693
0.476855	1.670010
0.476953	1.670364
0.477051	1.670546
0.477148	1.670888
0.477246	1.671029
0.477344	1.671306
0.477441	1.671603
0.477539	1.671880
0.477637	1.672203
0.477734	1.672558
0.477832	1.672915
0.477930	1.673266
0.478027	1.673767
0.478125	1.674119
0.478223	1.674640
0.478320	1.675152
0.478418	1.675724
0.478516	1.676345
0.478613	1.677098
0.478711	1.677758
0.478809	1.678637
0.478906	1.679360
0.479004	1.680279
0.479102	1.681173
0.479199	1.681974
0.479297	1.682850
0.479395	1.683737
0.479492	1.684681
0.479590	1.685518
0.479687	1.686466
0.479785	1.687394
0.479883	1.688371
0.479980	1.689379
0.480078	1.690364
0.480176	1.691309
0.480273	1.692053
0.480371	1.692628
0.480469	1.692861
0.480566	1.692850
0.480664	1.692593
0.480762	1.692161
0.480859	1.691800
0.480957	1.691547
0.481055	1.691457
0.481152	1.691425
0.481250	1.691582
0.481348	1.691726
0.481445	1.691814
0.481543	1.691810
0.481641	1.691722
0.481738	1.691466
0.481836	1.690872
0.481934	1.690425
0.482031	1.689830
0.482129	1.689286
0.482227	1.688800
0.482324	1.688142
0.482422	1.687557
0.482520	1.686963
0.482617	1.686443
0.482715	1.685752
0.482812	1.685295
0.482910	1.684629
0.483008	1.683975
0.483105	1.683350
0.483203	1.682704
0.483301	1.681997
0.483398	1.681384
0.483496	1.680792
0.483594	1.680095
0.483691	1.679453
0.483789	1.678737
0.483887	1.678007
0.483984	1.677234
0.484082	1.676355
0.484180	1.675551
0.484277	1.674697
0.484375	1.673774
0.484473	1.672979
0.484570	1.672088
0.484668	1.671403
0.484766	1.670567
0.484863	1.669926
0.484961	1.669515
0.485059	1.668927
0.485156	1.668602
0.485254	1.668141
0.485352	1.668055
0.485449	1.667921
0.485547	1.667885
0.485645	1.667735
0.485742	1.667771
0.485840	1.667738
0.485937	1.667768
0.486035	1.668002
0.486133	1.668112
0.486230	1.668462
0.486328	1.668779
0.486426	1.669349
0.486523	1.669993
0.486621	1.670536
0.486719	1.671513
0.486816	1.672291
0.486914	1.673510
0.487012	1.674406
0.487109	1.675821
0.487207	1.676946
0.487305	1.678625
0.487402	1.680301
0.487500	1.683332
0.487598	1.686919
0.487695	1.693368
0.487793	1.700750
0.487891	1.709725
0.487988	1.711895
0.488086	1.707272
0.488184	1.706877
0.488281	1.711296
0.488379	1.704144
0.488477	1.702664
0.488574	1.702264
0.488672	1.684379
0.488770	1.676087
0.488867	1.683196
0.488965	1.679434
0.489062	1.676148
0.489160	1.682393
0.489258	1.687166
0.489355	1.694229
0.489453	1.702151
0.489551	1.716015
0.489648	1.710988
0.489746	1.694225
0.489844	1.682853
0.489941	1.677454
0.490039	1.675256
0.490137	1.673848
0.490234	1.673046
0.490332	1.672203
0.490430	1.671774
0.490527	1.671144
0.490625	1.670997
0.490723	1.670828
0.490820	1.670892
0.490918	1.670911
0.491016	1.671099
0.491113	1.671337
0.491211	1.671472
0.491309	1.671777
0.491406	1.672118
0.491504	1.672418
0.491602	1.672777
0.491699	1.673105
0.491797	1.673491
0.491895	1.673854
0.491992	1.674243
0.492090	1.674612
0.492187	1.675083
0.492285	1.675470
0.492383	1.675857
0.492480	1.676366
0.492578	1.676892
0.492676	1.677414
0.492773	1.678161
0.492871	1.678831
0.492969	1.679526
0.493066	1.680329
0.493164	1.681107
0.493262	1.681811
0.493359	1.682551
0.493457	1.683345
0.493555	1.684203
0.493652	1.684946
0.493750	1.685622
0.493848	1.686197
0.493945	1.686829
0.494043	1.687350
0.494141	1.687831
0.494238	1.688212
0.494336	1.688587
0.494434	1.688970
0.494531	1.689295
0.494629	1.689614
0.494727	1.689755
0.494824	1.689953
0.494922	1.689982
0.495020	1.690075
0.495117	1.690272
0.495215	1.690300
0.495312	1.690560
0.495410	1.690810
0.495508	1.691031
0.495605	1.691255
0.495703	1.691286
0.495801	1.691034
0.495898	1.690745
0.495996	1.690128
0.496094	1.689596
0.496191	1.688940
0.496289	1.688240
0.496387	1.687739
0.496484	1.687071
0.496582	1.686394
0.496680	1.685870
0.496777	1.685190
0.496875	1.684496
0.496973	1.683714
0.497070	1.682933
0.497168	1.682140
0.497266	1.681420
0.497363	1.680680
0.497461	1.679955
0.497559	1.679289
0.497656	1.678589
0.497754	1.678022
0.497852	1.677470
0.497949	1.676810
0.498047	1.676326
0.498145	1.675733
0.498242	1.675198
0.498340	1.674757
0.498437	1.674223
0.498535	1.673708
0.498633	1.673159
0.498730	1.672658
0.498828	1.672175
0.498926	1.671810
0.499023	1.671305
0.499121	1.670919
0.499219	1.670578
0.499316	1.670176
0.499414	1.669936
0.499512	1.669706
0.499609	1.669459
0.499707	1.669284
0.499805	1.669131
0.499902	1.668850
0.500000	1.668712
0.500098	1.668599
0.500195	1.668441
0.500293	1.668317
0.500391	1.668229
0.500488	1.668176
0.500586	1.668033
0.500684	1.668027
0.500781	1.667840
0.500879	1.667774
0.500977	1.667759
0.501074	1.667679
0.501172	1.667552
0.501270	1.667473
0.501367	1.667409
0.501465	1.667159
0.501562	1.667065
0.501660	1.666808
0.501758	1.666601
0.501855	1.666335
0.501953	1.666097
0.502051	1.665878
0.502148	1.665588
0.502246	1.665277
0.502344	1.664983
0.502441	1.664759
0.502539	1.664492
0.502637	1.664238
0.502734	1.664202
0.502832	1.664001
0.502930	1.663992
0.503027	1.663936
0.503125	1.663849
0.503223	1.663976
0.503320	1.664078
0.503418	1.664149
0.503516	1.664360
0.503613	1.664558
0.503711	1.664825
0.503809	1.665084
0.503906	1.665278
0.504004	1.665574
0.504102	1.665960
0.504199	1.666252
0.504297	1.666617
0.504395	1.666904
0.504492	1.667184
0.504590	1.667508
0.504687	1.667737
0.504785	1.667959
0.504883	1.668208
0.504980	1.668487
0.505078	1.668554
0.505176	1.668754
0.505273	1.668777
0.505371	1.669077
0.505469	1.669227
0.505566	1.669453
0.505664	1.669579
0.505762	1.669748
0.505859	1.670024
0.505957	1.670215
0.506055	1.670434
0.506152	1.670670
0.506250	1.670925
0.506348	1.671162
0.506445	1.671433
0.506543	1.671643
0.506641	1.671933
0.506738	1.672150
0.506836	1.672485
0.506934	1.672651
0.507031	1.672896
0.507129	1.673115
0.507227	1.673355
0.507324	1.673581
0.507422	1.673797
0.507520	1.674025
0.507617	1.674243
0.507715	1.674439
0.507812	1.674592
0.507910	1.674740
0.508008	1.674722
0.508105	1.674772
0.508203	1.674637
0.508301	1.674618
0.508398	1.674545
0.508496	1.674384
0.508594	1.674222
0.508691	1.674123
0.508789	1.673909
0.508887	1.673815
0.508984	1.673659
0.509082	1.673533
0.509180	1.673607
0.509277	1.673530
0.509375	1.673595
0.509473	1.673726
0.509570	1.673900
0.509668	1.674127
0.509766	1.674459
0.509863	1.674867
0.509961	1.675320
0.510059	1.675916
0.510156	1.676564
0.510254	1.677270
0.510352	1.678135
0.510449	1.678983
0.510547	1.680028
0.510645	1.681208
0.510742	1.682404
0.510840	1.683579
0.510937	1.684885
0.511035	1.686221
0.511133	1.687625
0.511230	1.688952
0.511328	1.690126
0.511426	1.691185
0.511523	1.691809
0.511621	1.692263
0.511719	1.692659
0.511816	1.692842
0.511914	1.693090
0.512012	1.693226
0.512109	1.693237
0.512207	1.693139
0.512305	1.693034
0.512402	1.692625
0.512500	1.691996
0.512598	1.691007
0.512695	1.689946
0.512793	1.688960
0.512891	1.688136
0.512988	1.687327
0.513086	1.686674
0.513184	1.686012
0.513281	1.685209
0.513379	1.684452
0.513477	1.683561
0.513574	1.682687
0.513672	1.681693
0.513770	1.680687
0.513867	1.679608
0.513965	1.678643
0.514062	1.677771
0.514160	1.676883
0.514258	1.676148
0.514355	1.675451
0.514453	1.674834
0.514551	1.674238
0.514648	1.673725
0.514746	1.673357
0.514844	1.672834
0.514941	1.672350
0.515039	1.671959
0.515137	1.671553
0.515234	1.671135
0.515332	1.670908
0.515430	1.670648
0.515527	1.670387
0.515625	1.670088
0.515723	1.669825
0.515820	1.669646
0.515918	1.669521
0.516016	1.669292
0.516113	1.669177
0.516211	1.669088
0.516309	1.668954
0.516406	1.668897
0.516504	1.668888
0.516602	1.668857
0.516699	1.668940
0.516797	1.669045
0.516895	1.669106
0.516992	1.669279
0.517090	1.669448
0.517187	1.669548
0.517285	1.669825
0.517383	1.670095
0.517480	1.670331
0.517578	1.670680
0.517676	1.670975
0.517773	1.671296
0.517871	1.671570
0.517969	1.671882
0.518066	1.672157
0.518164	1.672428
0.518262	1.672631
0.518359	1.672879
0.518457	1.672964
0.518555	1.673050
0.518652	1.673192
0.518750	1.673149
0.518848	1.673133
0.518945	1.673084
0.519043	1.673034
0.519141	1.672985
0.519238	1.672808
0.519336	1.672781
0.519434	1.672728
0.519531	1.672572
0.519629	1.672609
0.519727	1.672485
0.519824	1.672532
0.519922	1.672541
0.520020	1.672629
0.520117	1.672690
0.520215	1.672796
0.520312	1.672982
0.520410	1.673160
0.520508	1.673377
0.520605	1.673667
0.520703	1.673866
0.520801	1.674133
0.520898	1.674388
0.520996	1.674664
0.521094	1.674975
0.521191	1.675295
0.521289	1.675564
0.521387	1.675840
0.521484	1.676095
0.521582	1.676284
0.521680	1.676550
0.521777	1.676853
0.521875	1.677106
0.521973	1.677294
0.522070	1.677577
0.522168	1.677888
0.522266	1.678324
0.522363	1.678468
0.522461	1.678892
0.522559	1.679172
0.522656	1.679571
0.522754	1.680076
0.522852	1.680487
0.522949	1.680852
0.523047	1.681416
0.523145	1.681856
0.523242	1.682253
0.523340	1.682748
0.523437	1.683118
0.523535	1.683649
0.523633	1.684173
0.523730	1.684619
0.523828	1.685135
0.523926	1.685659
0.524023	1.686083
0.524121	1.686673
0.524219	1.687226
0.524316	1.687833
0.524414	1.688493
0.524512	1.689132
0.524609	1.689894
0.524707	1.690687
0.524805	1.691522
0.524902	1.692448
0.525000	1.693399
0.525098	1.694271
0.525195	1.695101
0.525293	1.695922
0.525391	1.696756
0.525488	1.697542
0.525586	1.698403
0.525684	1.699385
0.525781	1.700633
0.525879	1.702355
0.525977	1.704574
0.526074	1.706880
0.526172	1.708530
0.526270	1.708557
0.526367	1.707642
0.526465	1.706857
0.526562	1.705495
0.526660	1.703456
0.526758	1.701388
0.526855	1.699230
0.526953	1.697002
0.527051	1.694946
0.527148	1.693218
0.527246	1.691659
0.527344	1.690378
0.527441	1.689199
0.527539	1.688129
0.527637	1.687352
0.527734	1.686707
0.527832	1.686401
0.527930	1.686408
0.528027	1.686635
0.528125	1.687182
0.528223	1.687982
0.528320	1.688941
0.528418	1.690060
0.528516	1.691192
0.528613	1.692317
0.528711	1.693116
0.528809	1.693674
0.528906	1.693901
0.529004	1.693775
0.529102	1.693321
0.529199	1.692410
0.529297	1.691161
0.529395	1.690118
0.529492	1.688940
0.529590	1.687930
0.529687	1.687034
0.529785	1.686241
0.529883	1.685644
0.529980	1.685067
0.530078	1.684544
0.530176	1.683968
0.530273	1.683343
0.530371	1.682601
0.530469	1.681851
0.530566	1.681031
0.530664	1.680307
0.530762	1.679683
0.530859	1.679109
0.530957	1.678571
0.531055	1.678081
0.531152	1.677601
0.531250	1.677080
0.531348	1.676438
0.531445	1.675753
0.531543	1.675018
0.531641	1.674165
0.531738	1.673382
0.531836	1.672511
0.531934	1.671546
0.532031	1.670691
0.532129	1.669739
0.532227	1.668810
0.532324	1.667863
0.532422	1.666883
0.532520	1.665989
0.532617	1.665124
0.532715	1.664391
0.532812	1.663663
0.532910	1.663094
0.533008	1.662501
0.533105	1.662014
0.533203	1.661410
0.533301	1.661013
0.533398	1.660702
0.533496	1.660510
0.533594	1.660232
0.533691	1.660127
0.533789	1.660058
0.533887	1.659934
0.533984	1.659905
0.534082	1.659951
0.534180	1.659997
0.534277	1.660202
0.534375	1.660294
0.534473	1.660471
0.534570	1.660770
0.534668	1.660992
0.534766	1.661237
0.534863	1.661532
0.534961	1.661781
0.535059	1.662012
0.535156	1.662228
0.535254	1.662464
0.535352	1.662885
0.535449	1.663233
0.535547	1.663626
0.535645	1.663919
0.535742	1.664231
0.535840	1.664584
0.535937	1.664944
0.536035	1.665416
0.536133	1.665822
0.536230	1.666407
0.536328	1.666846
0.536426	1.667496
0.536523	1.668186
0.536621	1.668868
0.536719	1.669621
0.536816	1.670410
0.536914	1.671325
0.537012	1.672234
0.537109	1.673185
0.537207	1.674162
0.537305	1.675165
0.537402	1.676194
0.537500	1.677248
0.537598	1.678202
0.537695	1.679043
0.537793	1.679905
0.537891	1.680640
0.537988	1.681332
0.538086	1.681956
0.538184	1.682523
0.538281	1.682921
0.538379	1.683404
0.538477	1.683742
0.538574	1.684331
0.538672	1.684784
0.538770	1.685462
0.538867	1.686200
0.538965	1.687111
0.539062	1.688168
0.539160	1.689533
0.539258	1.691291
0.539355	1.693325
0.539453	1.695391
0.539551	1.697077
0.539648	1.696876
0.539746	1.695670
0.539844	1.694715
0.539941	1.694618
0.540039	1.695229
0.540137	1.695272
0.540234	1.694601
0.540332	1.693472
0.540430	1.692540
0.540527	1.693332
0.540625	1.696194
0.540723	1.705925
0.540820	1.716099
0.540918	1.698210
0.541016	1.686802
0.541113	1.674573
0.541211	1.678692
0.541309	1.708553
0.541406	1.697749
0.541504	1.692731
0.541602	1.691513
0.541699	1.691075
0.541797	1.693462
0.541895	1.696417
0.541992	1.699748
0.542090	1.702248
0.542187	1.704306
0.542285	1.705611
0.542383	1.705173
0.542480	1.702381
0.542578	1.698691
0.542676	1.695931
0.542773	1.694555
0.542871	1.694101
0.542969	1.694367
0.543066	1.694946
0.543164	1.695114
0.543262	1.694934
0.543359	1.694564
0.543457	1.694217
0.543555	1.694178
0.543652	1.694641
0.543750	1.695418
0.543848	1.696115
0.543945	1.695017
0.544043	1.692681
0.544141	1.690814
0.544238	1.689452
0.544336	1.688924
0.544434	1.688675
0.544531	1.688041
0.544629	1.686837
0.544727	1.685287
0.544824	1.683646
0.544922	1.681942
0.545020	1.679983
0.545117	1.676562
0.545215	1.671564
0.545312	1.667459
0.545410	1.664935
0.545508	1.663144
0.545605	1.661972
0.545703	1.660935
0.545801	1.660168
0.545898	1.659252
0.545996	1.658651
0.546094	1.657879
0.546191	1.657407
0.546289	1.656853
0.546387	1.656350
0.546484	1.655919
0.546582	1.655533
0.546680	1.655109
0.546777	1.654731
0.546875	1.654475
0.546973	1.654145
0.547070	1.653910
0.547168	1.653606
0.547266	1.653464
0.547363	1.653238
0.547461	1.653016
0.547559	1.653078
0.547656	1.652941
0.547754	1.653026
0.547852	1.652981
0.547949	1.652975
0.548047	1.653005
0.548145	1.653014
0.548242	1.652983
0.548340	1.652967
0.548437	1.652827
0.548535	1.652723
0.548633	1.652629
0.548730	1.652399
0.548828	1.652197
0.548926	1.651982
0.549023	1.651794
0.549121	1.651613
0.549219	1.651437
0.549316	1.651200
0.549414	1.651048
0.549512	1.650892
0.549609	1.650741
0.549707	1.650637
0.549805	1.650615
0.549902	1.650487
0.550000	1.650618
0.550098	1.650555
0.550195	1.650602
0.550293	1.650655
0.550391	1.650867
0.550488	1.650911
0.550586	1.651077
0.550684	1.651247
0.550781	1.651394
0.550879	1.651576
0.550977	1.651931
0.551074	1.652098
0.551172	1.652265
0.551270	1.652588
0.551367	1.652913
0.551465	1.653233
0.551562	1.653511
0.551660	1.653858
0.551758	1.654170
0.551855	1.654582
0.551953	1.655021
0.552051	1.655316
0.552148	1.655847
0.552246	1.656255
0.552344	1.656655
0.552441	1.657109
0.552539	1.657647
0.552637	1.658160
0.552734	1.658819
0.552832	1.659394
0.552930	1.660081
0.553027	1.660704
0.553125	1.661356
0.553223	1.661916
0.553320	1.662595
0.553418	1.663311
0.553516	1.664038
0.553613	1.664715
0.553711	1.665482
0.553809	1.666129
0.553906	1.666854
0.554004	1.667541
0.554102	1.668313
0.554199	1.668857
0.554297	1.669616
0.554395	1.670106
0.554492	1.670779
0.554590	1.671378
0.554687	1.671874
0.554785	1.672483
0.554883	1.673021
0.554980	1.673463
0.555078	1.673848
0.555176	1.674262
0.555273	1.674611
0.555371	1.675092
0.555469	1.675508
0.555566	1.675845
0.555664	1.676250
0.555762	1.676652
0.555859	1.677164
0.555957	1.677668
0.556055	1.678274
0.556152	1.679038
0.556250	1.679739
0.556348	1.680616
0.556445	1.681374
0.556543	1.682241
0.556641	1.683100
0.556738	1.683835
0.556836	1.684429
0.556934	1.684661
0.557031	1.684950
0.557129	1.685084
0.557227	1.685432
0.557324	1.686050
0.557422	1.687074
0.557520	1.688623
0.557617	1.690864
0.557715	1.693814
0.557812	1.697183
0.557910	1.700585
0.558008	1.702777
0.558105	1.703248
0.558203	1.702222
0.558301	1.700496
0.558398	1.698050
0.558496	1.695228
0.558594	1.692401
0.558691	1.689658
0.558789	1.687111
0.558887	1.684897
0.558984	1.682834
0.559082	1.681161
0.559180	1.679575
0.559277	1.678310
0.559375	1.677180
0.559473	1.676101
0.559570	1.675157
0.559668	1.674100
0.559766	1.673185
0.559863	1.672154
0.559961	1.671260
0.560059	1.670278
0.560156	1.669439
0.560254	1.668659
0.560352	1.667910
0.560449	1.667318
0.560547	1.666671
0.560645	1.666113
0.560742	1.665642
0.560840	1.665106
0.560937	1.664757
0.561035	1.664434
0.561133	1.664162
0.561230	1.663929
0.561328	1.663814
0.561426	1.663620
0.561523	1.663536
0.561621	1.663550
0.561719	1.663626
0.561816	1.663669
0.561914	1.663736
0.562012	1.663978
0.562109	1.664114
0.562207	1.664350
0.562305	1.664596
0.562402	1.664889
0.562500	1.665254
0.562598	1.665607
0.562695	1.666163
0.562793	1.666553
0.562891	1.667223
0.562988	1.667785
0.563086	1.668424
0.563184	1.668980
0.563281	1.669720
0.563379	1.670489
0.563477	1.671229
0.563574	1.672082
0.563672	1.672798
0.563770	1.673569
0.563867	1.674226
0.563965	1.674884
0.564062	1.675461
0.564160	1.676002
0.564258	1.676461
0.564355	1.676896
0.564453	1.677303
0.564551	1.677744
0.564648	1.678043
0.564746	1.678455
0.564844	1.678753
0.564941	1.679094
0.565039	1.679266
0.565137	1.679454
0.565234	1.679341
0.565332	1.679559
0.565430	1.679580
0.565527	1.679650
0.565625	1.679675
0.565723	1.679752
0.565820	1.679886
0.565918	1.680043
0.566016	1.680134
0.566113	1.680142
0.566211	1.680046
0.566309	1.679806
0.566406	1.679623
0.566504	1.679260
0.566602	1.679021
0.566699	1.678795
0.566797	1.678749
0.566895	1.678787
0.566992	1.678907
0.567090	1.679201
0.567187	1.679652
0.567285	1.680221
0.567383	1.680959
0.567480	1.681826
0.567578	1.682712
0.567676	1.683723
0.567773	1.684697
0.567871	1.685480
0.567969	1.686321
0.568066	1.687031
0.568164	1.687637
0.568262	1.688000
0.568359	1.688013
0.568457	1.687878
0.568555	1.687417
0.568652	1.686792
0.568750	1.686219
0.568848	1.685630
0.568945	1.685052
0.569043	1.684707
0.569141	1.684428
0.569238	1.684464
0.569336	1.684633
0.569434	1.685104
0.569531	1.685804
0.569629	1.686711
0.569727	1.687824
0.569824	1.689169
0.569922	1.690515
0.570020	1.692024
0.570117	1.693548
0.570215	1.695291
0.570312	1.697140
0.570410	1.699119
0.570508	1.701091
0.570605	1.702988
0.570703	1.704631
0.570801	1.705078
0.570898	1.704163
0.570996	1.701920
0.571094	1.698902
0.571191	1.695748
0.571289	1.692797
0.571387	1.690106
0.571484	1.688009
0.571582	1.686476
0.571680	1.685192
0.571777	1.683931
0.571875	1.682599
0.571973	1.681208
0.572070	1.680060
0.572168	1.679313
0.572266	1.678708
0.572363	1.678604
0.572461	1.679258
0.572559	1.680547
0.572656	1.681906
0.572754	1.683212
0.572852	1.684011
0.572949	1.684299
0.573047	1.684433
0.573145	1.684182
0.573242	1.683273
0.573340	1.682024
0.573437	1.680601
0.573535	1.679364
0.573633	1.678202
0.573730	1.677006
0.573828	1.676063
0.573926	1.675242
0.574023	1.674751
0.574121	1.674179
0.574219	1.673870
0.574316	1.673677
0.574414	1.673468
0.574512	1.673438
0.574609	1.673404
0.574707	1.673454
0.574805	1.673596
0.574902	1.673942
0.575000	1.674180
0.575098	1.674529
0.575195	1.674934
0.575293	1.675388
0.575391	1.676197
0.575488	1.676576
0.575586	1.677386
0.575684	1.677829
0.575781	1.678725
0.575879	1.679090
0.575977	1.679884
0.576074	1.679943
0.576172	1.681060
0.576270	1.681060
0.576367	1.683698
0.576465	1.685396
0.576562	1.694045
0.576660	1.689801
0.576758	1.671019
0.576855	1.662030
0.576953	1.674350
0.577051	1.682911
0.577148	1.703125
0.577246	1.684681
0.577344	1.670719
0.577441	1.671116
0.577539	1.670844
0.577637	1.670776
0.577734	1.671696
0.577832	1.670615
0.577930	1.674824
0.578027	1.675242
0.578125	1.686029
0.578223	1.666672
0.578320	1.656022
0.578418	1.637873
0.578516	1.606991
0.578613	1.654884
0.578711	1.648409
0.578809	1.650422
0.578906	1.665844
0.579004	1.670512
0.579102	1.667947
0.579199	1.669424
0.579297	1.668552
0.579395	1.669531
0.579492	1.668912
0.579590	1.669512
0.579687	1.669178
0.579785	1.669754
0.579883	1.669703
0.579980	1.670300
0.580078	1.670515
0.580176	1.671182
0.580273	1.671630
0.580371	1.672407
0.580469	1.673110
0.580566	1.673983
0.580664	1.674814
0.580762	1.675871
0.580859	1.676928
0.580957	1.678030
0.581055	1.679206
0.581152	1.680462
0.581250	1.681847
0.581348	1.683167
0.581445	1.684727
0.581543	1.686205
0.581641	1.687842
0.581738	1.689484
0.581836	1.691147
0.581934	1.692903
0.582031	1.694596
0.582129	1.696389
0.582227	1.698158
0.582324	1.699676
0.582422	1.701097
0.582520	1.702505
0.582617	1.704199
0.582715	1.706365
0.582812	1.709024
0.582910	1.710174
0.583008	1.710873
0.583105	1.709257
0.583203	1.708188
0.583301	1.709589
0.583398	1.709846
0.583496	1.709391
0.583594	1.708038
0.583691	1.706413
0.583789	1.704498
0.583887	1.702698
0.583984	1.701013
0.584082	1.699160
0.584180	1.697292
0.584277	1.695261
0.584375	1.693242
0.584473	1.691203
0.584570	1.689361
0.584668	1.687612
0.584766	1.686140
0.584863	1.684680
0.584961	1.683329
0.585059	1.682075
0.585156	1.681014
0.585254	1.680156
0.585352	1.679621
0.585449	1.679230
0.585547	1.679003
0.585645	1.678708
0.585742	1.678513
0.585840	1.678040
0.585937	1.677712
0.586035	1.677153
0.586133	1.676691
0.586230	1.676060
0.586328	1.675307
0.586426	1.674623
0.586523	1.673846
0.586621	1.673184
0.586719	1.672432
0.586816	1.671852
0.586914	1.671362
0.587012	1.670989
0.587109	1.670752
0.587207	1.670774
0.587305	1.670834
0.587402	1.671024
0.587500	1.671368
0.587598	1.671772
0.587695	1.672264
0.587793	1.672785
0.587891	1.673405
0.587988	1.674188
0.588086	1.675234
0.588184	1.676105
0.588281	1.677110
0.588379	1.678145
0.588477	1.679387
0.588574	1.679919
0.588672	1.680509
0.588770	1.681748
0.588867	1.683844
0.588965	1.685502
0.589062	1.687356
0.589160	1.688434
0.589258	1.690399
0.589355	1.691526
0.589453	1.693818
0.589551	1.692775
0.589648	1.692067
0.589746	1.690569
0.589844	1.692281
0.589941	1.691630
0.590039	1.696198
0.590137	1.698577
0.590234	1.705647
0.590332	1.699878
0.590430	1.711705
0.590527	1.701457
0.590625	1.678449
0.590723	1.689703
0.590820	1.677944
0.590918	1.680982
0.591016	1.677942
0.591113	1.679495
0.591211	1.676252
0.591309	1.677371
0.591406	1.676460
0.591504	1.677652
0.591602	1.677098
0.591699	1.677869
0.591797	1.677281
0.591895	1.677691
0.591992	1.677234
0.592090	1.677263
0.592187	1.676807
0.592285	1.676709
0.592383	1.676392
0.592480	1.676451
0.592578	1.676291
0.592676	1.676570
0.592773	1.676664
0.592871	1.677076
0.592969	1.677360
0.593066	1.677742
0.593164	1.678070
0.593262	1.678397
0.593359	1.678764
0.593457	1.679082
0.593555	1.679252
0.593652	1.679390
0.593750	1.679449
0.593848	1.679501
0.593945	1.679505
0.594043	1.679402
0.594141	1.679448
0.594238	1.679415
0.594336	1.679404
0.594434	1.679542
0.594531	1.679601
0.594629	1.679978
0.594727	1.680220
0.594824	1.680748
0.594922	1.681095
0.595020	1.681516
0.595117	1.681818
0.595215	1.681956
0.595312	1.682046
0.595410	1.682112
0.595508	1.682102
0.595605	1.682056
0.595703	1.681987
0.595801	1.681927
0.595898	1.681846
0.595996	1.681736
0.596094	1.681724
0.596191	1.681700
0.596289	1.681934
0.596387	1.682132
0.596484	1.682279
0.596582	1.682308
0.596680	1.682037
0.596777	1.681344
0.596875	1.680592
0.596973	1.679792
0.597070	1.679147
0.597168	1.678797
0.597266	1.678636
0.597363	1.678551
0.597461	1.678668
0.597559	1.678596
0.597656	1.678784
0.597754	1.679010
0.597852	1.679194
0.597949	1.679416
0.598047	1.679564
0.598145	1.679729
0.598242	1.679797
0.598340	1.679808
0.598437	1.679625
0.598535	1.679754
0.598633	1.679662
0.598730	1.679738
0.598828	1.679816
0.598926	1.679880
0.599023	1.679945
0.599121	1.680195
0.599219	1.680292
0.599316	1.680519
0.599414	1.680851
0.599512	1.681114
0.599609	1.681453
0.599707	1.681720
0.599805	1.682091
0.599902	1.682375
0.600000	1.682800
0.600098	1.683145
0.600195	1.683523
0.600293	1.683997
0.600391	1.684519
0.600488	1.684937
0.600586	1.685579
0.600684	1.686061
0.600781	1.686480
0.600879	1.686809
0.600977	1.687042
0.601074	1.687344
0.601172	1.687602
0.601270	1.687978
0.601367	1.688479
0.601465	1.689152
0.601562	1.689830
0.601660	1.690650
0.601758	1.691604
0.601855	1.692558
0.601953	1.693497
0.602051	1.694498
0.602148	1.695205
0.602246	1.695734
0.602344	1.696250
0.602441	1.696940
0.602539	1.697670
0.602637	1.698003
0.602734	1.697459
0.602832	1.696542
0.602930	1.695310
0.603027	1.693608
0.603125	1.691556
0.603223	1.690065
0.603320	1.689278
0.603418	1.688816
0.603516	1.688383
0.603613	1.687578
0.603711	1.686301
0.603809	1.684786
0.603906	1.682687
0.604004	1.680291
0.604102	1.678145
0.604199	1.676503
0.604297	1.675218
0.604395	1.674138
0.604492	1.673167
0.604590	1.672363
0.604687	1.671611
0.604785	1.670867
0.604883	1.670578
0.604980	1.670197
0.605078	1.670034
0.605176	1.669783
0.605273	1.669566
0.605371	1.669473
0.605469	1.669262
0.605566	1.669017
0.605664	1.668742
0.605762	1.668300
0.605859	1.667968
0.605957	1.667567
0.606055	1.667114
0.606152	1.666762
0.606250	1.666470
0.606348	1.666049
0.606445	1.665687
0.606543	1.665384
0.606641	1.665110
0.606738	1.664872
0.606836	1.664638
0.606934	1.664397
0.607031	1.664286
0.607129	1.664217
0.607227	1.664018
0.607324	1.664028
0.607422	1.663997
0.607520	1.664080
0.607617	1.664261
0.607715	1.664534
0.607812	1.664828
0.607910	1.665227
0.608008	1.665741
0.608105	1.666400
0.608203	1.667084
0.608301	1.667924
0.608398	1.668975
0.608496	1.669958
0.608594	1.671059
0.608691	1.672247
0.608789	1.673408
0.608887	1.674548
0.608984	1.675680
0.609082	1.676743
0.609180	1.677604
0.609277	1.678501
0.609375	1.679517
0.609473	1.680533
0.609570	1.681456
0.609668	1.682380
0.609766	1.683283
0.609863	1.684404
0.609961	1.685593
0.610059	1.686609
0.610156	1.687412
0.610254	1.687762
0.610352	1.688099
0.610449	1.688376
0.610547	1.688520
0.610645	1.688619
0.610742	1.688690
0.610840	1.688846
0.610937	1.688811
0.611035	1.688867
0.611133	1.688858
0.611230	1.688860
0.611328	1.688855
0.611426	1.688936
0.611523	1.689132
0.611621	1.689462
0.611719	1.689657
0.611816	1.690082
0.611914	1.690493
0.612012	1.690970
0.612109	1.691421
0.612207	1.692109
0.612305	1.692693
0.612402	1.693334
0.612500	1.693971
0.612598	1.694558
0.612695	1.695175
0.612793	1.695788
0.612891	1.696362
0.612988	1.696845
0.613086	1.697158
0.613184	1.697110
0.613281	1.696598
0.613379	1.695803
0.613477	1.694983
0.613574	1.694325
0.613672	1.693962
0.613770	1.693666
0.613867	1.693491
0.613965	1.693453
0.614062	1.693492
0.614160	1.693385
0.614258	1.693268
0.614355	1.693400
0.614453	1.693393
0.614551	1.693550
0.614648	1.693705
0.614746	1.693863
0.614844	1.693846
0.614941	1.693658
0.615039	1.693548
0.615137	1.693274
0.615234	1.692897
0.615332	1.692675
0.615430	1.692575
0.615527	1.692409
0.615625	1.692304
0.615723	1.692212
0.615820	1.691827
0.615918	1.691078
0.616016	1.690041
0.616113	1.688566
0.616211	1.687147
0.616309	1.685712
0.616406	1.684351
0.616504	1.683165
0.616602	1.681535
0.616699	1.680398
0.616797	1.679147
0.616895	1.677972
0.616992	1.676953
0.617090	1.676012
0.617187	1.675204
0.617285	1.674670
0.617383	1.674013
0.617480	1.673644
0.617578	1.673308
0.617676	1.673092
0.617773	1.672971
0.617871	1.672925
0.617969	1.673029
0.618066	1.673120
0.618164	1.673278
0.618262	1.673451
0.618359	1.673739
0.618457	1.674037
0.618555	1.674279
0.618652	1.674665
0.618750	1.675154
0.618848	1.675645
0.618945	1.676225
0.619043	1.676726
0.619141	1.677404
0.619238	1.677985
0.619336	1.678617
0.619434	1.679204
0.619531	1.679740
0.619629	1.680212
0.619727	1.680648
0.619824	1.680963
0.619922	1.681323
0.620020	1.681600
0.620117	1.681860
0.620215	1.682062
0.620312	1.682333
0.620410	1.682514
0.620508	1.682630
0.620605	1.682792
0.620703	1.682919
0.620801	1.683072
0.620898	1.683216
0.620996	1.683218
0.621094	1.683263
0.621191	1.683235
0.621289	1.683227
0.621387	1.683210
0.621484	1.682986
0.621582	1.683028
0.621680	1.682923
0.621777	1.682972
0.621875	1.682948
0.621973	1.682876
0.622070	1.682887
0.622168	1.682946
0.622266	1.682961
0.622363	1.682796
0.622461	1.682687
0.622559	1.682454
0.622656	1.682079
0.622754	1.681685
0.622852	1.681201
0.622949	1.680662
0.623047	1.680149
0.623145	1.679560
0.623242	1.678988
0.623340	1.678403
0.623437	1.677829
0.623535	1.677259
0.623633	1.676632
0.623730	1.675958
0.623828	1.675324
0.623926	1.674640
0.624023	1.673844
0.624121	1.673175
0.624219	1.672477
0.624316	1.671841
0.624414	1.671286
0.624512	1.670893
0.624609	1.670482
0.624707	1.670141
0.624805	1.669960
0.624902	1.669826
0.625000	1.669744
0.625098	1.669726
0.625195	1.669724
0.625293	1.669974
0.625391	1.670174
0.625488	1.670464
0.625586	1.670652
0.625684	1.670803
0.625781	1.671016
0.625879	1.671132
0.625977	1.671300
0.626074	1.671287
0.626172	1.671260
0.626270	1.671303
0.626367	1.671444
0.626465	1.671422
0.626562	1.671450
0.626660	1.671502
0.626758	1.671502
0.626855	1.671577
0.626953	1.671576
0.627051	1.671558
0.627148	1.671688
0.627246	1.671705
0.627344	1.671858
0.627441	1.672013
0.627539	1.672130
0.627637	1.672386
0.627734	1.672525
0.627832	1.672749
0.627930	1.673002
0.628027	1.673191
0.628125	1.673316
0.628223	1.673579
0.628320	1.673740
0.628418	1.673979
0.628516	1.674274
0.628613	1.674642
0.628711	1.675104
0.628809	1.675598
0.628906	1.676193
0.629004	1.676834
0.629102	1.677515
0.629199	1.678113
0.629297	1.678927
0.629395	1.679525
0.629492	1.680146
0.629590	1.680849
0.629687	1.681366
0.629785	1.681975
0.629883	1.682430
0.629980	1.682765
0.630078	1.683162
0.630176	1.683342
0.630273	1.683548
0.630371	1.683608
0.630469	1.683606
0.630566	1.683576
0.630664	1.683478
0.630762	1.683337
0.630859	1.683335
0.630957	1.683261
0.631055	1.683463
0.631152	1.683666
0.631250	1.683953
0.631348	1.684318
0.631445	1.684770
0.631543	1.685240
0.631641	1.685719
0.631738	1.686272
0.631836	1.686747
0.631934	1.687220
0.632031	1.687617
0.632129	1.687994
0.632227	1.688231
0.632324	1.688323
0.632422	1.688245
0.632520	1.688144
0.632617	1.687957
0.632715	1.687570
0.632812	1.687193
0.632910	1.686712
0.633008	1.686094
0.633105	1.685532
0.633203	1.684852
0.633301	1.684170
0.633398	1.683592
0.633496	1.682922
0.633594	1.682361
0.633691	1.681723
0.633789	1.681164
0.633887	1.680600
0.633984	1.680140
0.634082	1.679634
0.634180	1.679138
0.634277	1.678774
0.634375	1.678377
0.634473	1.678131
0.634570	1.677801
0.634668	1.677650
0.634766	1.677375
0.634863	1.677186
0.634961	1.677002
0.635059	1.676856
0.635156	1.676622
0.635254	1.676453
0.635352	1.676426
0.635449	1.676278
0.635547	1.676153
0.635645	1.675887
0.635742	1.675758
0.635840	1.675458
0.635937	1.675150
0.636035	1.674859
0.636133	1.674483
0.636230	1.674222
0.636328	1.673923
0.636426	1.673620
0.636523	1.673382
0.636621	1.673056
0.636719	1.672862
0.636816	1.672527
0.636914	1.672208
0.637012	1.671924
0.637109	1.671654
0.637207	1.671533
0.637305	1.671455
0.637402	1.671427
0.637500	1.671301
0.637598	1.671430
0.637695	1.671526
0.637793	1.671646
0.637891	1.671769
0.637988	1.671964
0.638086	1.672117
0.638184	1.672180
0.638281	1.672303
0.638379	1.672473
0.638477	1.672587
0.638574	1.672784
0.638672	1.672884
0.638770	1.673051
0.638867	1.673281
0.638965	1.673565
0.639062	1.673859
0.639160	1.674087
0.639258	1.674370
0.639355	1.674680
0.639453	1.674993
0.639551	1.675245
0.639648	1.675603
0.639746	1.675783
0.639844	1.676138
0.639941	1.676518
0.640039	1.676946
0.640137	1.677444
0.640234	1.678057
0.640332	1.678484
0.640430	1.679260
0.640527	1.679840
0.640625	1.680545
0.640723	1.681192
0.640820	1.681844
0.640918	1.682520
0.641016	1.683183
0.641113	1.683842
0.641211	1.684556
0.641309	1.685279
0.641406	1.686100
0.641504	1.686898
0.641602	1.687786
0.641699	1.688749
0.641797	1.689744
0.641895	1.690803
0.641992	1.691709
0.642090	1.692351
0.642187	1.692701
0.642285	1.692399
0.642383	1.691221
0.642480	1.689113
0.642578	1.686908
0.642676	1.685410
0.642773	1.684676
0.642871	1.684107
0.642969	1.683776
0.643066	1.683506
0.643164	1.683027
0.643262	1.682723
0.643359	1.682207
0.643457	1.681794
0.643555	1.681200
0.643652	1.680742
0.643750	1.680184
0.643848	1.679686
0.643945	1.679247
0.644043	1.678825
0.644141	1.678412
0.644238	1.678034
0.644336	1.677735
0.644434	1.677374
0.644531	1.677075
0.644629	1.676769
0.644727	1.676422
0.644824	1.676192
0.644922	1.675828
0.645020	1.675600
0.645117	1.675238
0.645215	1.674996
0.645312	1.674840
0.645410	1.674556
0.645508	1.674346
0.645605	1.674181
0.645703	1.673962
0.645801	1.673653
0.645898	1.673515
0.645996	1.673289
0.646094	1.673178
0.646191	1.673018
0.646289	1.672796
0.646387	1.672704
0.646484	1.672601
0.646582	1.672459
0.646680	1.672480
0.646777	1.672301
0.646875	1.672331
0.646973	1.672314
0.647070	1.672373
0.647168	1.672394
0.647266	1.672330
0.647363	1.672352
0.647461	1.672446
0.647559	1.672559
0.647656	1.672619
0.647754	1.672759
0.647852	1.672792
0.647949	1.672951
0.648047	1.673093
0.648145	1.673349
0.648242	1.673524
0.648340	1.673843
0.648437	1.674052
0.648535	1.674487
0.648633	1.674740
0.648730	1.675116
0.648828	1.675493
0.648926	1.675836
0.649023	1.676279
0.649121	1.676555
0.649219	1.676940
0.649316	1.677158
0.649414	1.677529
0.649512	1.677810
0.649609	1.678108
0.649707	1.678426
0.649805	1.678748
0.649902	1.679055
0.650000	1.679271
0.650098	1.679577
0.650195	1.679816
0.650293	1.680093
0.650391	1.680276
0.650488	1.680434
0.650586	1.680637
0.650684	1.680848
0.650781	1.681084
0.650879	1.681194
0.650977	1.681493
0.651074	1.681704
0.651172	1.681987
0.651270	1.682185
0.651367	1.682554
0.651465	1.682887
0.651562	1.683217
0.651660	1.683622
0.651758	1.684281
0.651855	1.684869
0.651953	1.685557
0.652051	1.686329
0.652148	1.687356
0.652246	1.688226
0.652344	1.689190
0.652441	1.690311
0.652539	1.691323
0.652637	1.692453
0.652734	1.693552
0.652832	1.694442
0.652930	1.695261
0.653027	1.695948
0.653125	1.696517
0.653223	1.697057
0.653320	1.697673
0.653418	1.698284
0.653516	1.698717
0.653613	1.699087
0.653711	1.699428
0.653809	1.699560
0.653906	1.699480
0.654004	1.698783
0.654102	1.697520
0.654199	1.696186
0.654297	1.695026
0.654395	1.694159
0.654492	1.693464
0.654590	1.692633
0.654687	1.691831
0.654785	1.690652
0.654883	1.689306
0.654980	1.687770
0.655078	1.686369
0.655176	1.685200
0.655273	1.684226
0.655371	1.683402
0.655469	1.682757
0.655566	1.682094
0.655664	1.681327
0.655762	1.680470
0.655859	1.679503
0.655957	1.678606
0.656055	1.677726
0.656152	1.677155
0.656250	1.676637
0.656348	1.676478
0.656445	1.676198
0.656543	1.676096
0.656641	1.676065
0.656738	1.676085
0.656836	1.675996
0.656934	1.676060
0.657031	1.675997
0.657129	1.675991
0.657227	1.675896
0.657324	1.675913
0.657422	1.675897
0.657520	1.675893
0.657617	1.675785
0.657715	1.675709
0.657812	1.675610
0.657910	1.675517
0.658008	1.675418
0.658105	1.675132
0.658203	1.674831
0.658301	1.674633
0.658398	1.674276
0.658496	1.673901
0.658594	1.673574
0.658691	1.673230
0.658789	1.673017
0.658887	1.672645
0.658984	1.672363
0.659082	1.672062
0.659180	1.671705
0.659277	1.671481
0.659375	1.671219
0.659473	1.670923
0.659570	1.670637
0.659668	1.670353
0.659766	1.670096
0.659863	1.669806
0.659961	1.669465
0.660059	1.669200
0.660156	1.668956
0.660254	1.668540
0.660352	1.668341
0.660449	1.667971
0.660547	1.667793
0.660645	1.667510
0.660742	1.667281
0.660840	1.666983
0.660937	1.666771
0.661035	1.666737
0.661133	1.666641
0.661230	1.666573
0.661328	1.666556
0.661426	1.666664
0.661523	1.666896
0.661621	1.667029
0.661719	1.667398
0.661816	1.667607
0.661914	1.668061
0.662012	1.668590
0.662109	1.669076
0.662207	1.669573
0.662305	1.670116
0.662402	1.670763
0.662500	1.671291
0.662598	1.671768
0.662695	1.672185
0.662793	1.672611
0.662891	1.672911
0.662988	1.673257
0.663086	1.673498
0.663184	1.673804
0.663281	1.674019
0.663379	1.674259
0.663477	1.674420
0.663574	1.674673
0.663672	1.674728
0.663770	1.674834
0.663867	1.674727
0.663965	1.674840
0.664062	1.674834
0.664160	1.674752
0.664258	1.674709
0.664355	1.674544
0.664453	1.674579
0.664551	1.674509
0.664648	1.674598
0.664746	1.674817
0.664844	1.675000
0.664941	1.675286
0.665039	1.675541
0.665137	1.675852
0.665234	1.676257
0.665332	1.676739
0.665430	1.677275
0.665527	1.677609
0.665625	1.678153
0.665723	1.678583
0.665820	1.679018
0.665918	1.679444
0.666016	1.679824
0.666113	1.680094
0.666211	1.680333
0.666309	1.680510
0.666406	1.680536
0.666504	1.680406
0.666602	1.680003
0.666699	1.679644
0.666797	1.679100
0.666895	1.678408
0.666992	1.677692
0.667090	1.677090
0.667187	1.676468
0.667285	1.675912
0.667383	1.675334
0.667480	1.674842
0.667578	1.674537
0.667676	1.674088
0.667773	1.673858
0.667871	1.673618
0.667969	1.673349
0.668066	1.673224
0.668164	1.673050
0.668262	1.672929
0.668359	1.672861
0.668457	1.672855
0.668555	1.672837
0.668652	1.672856
0.668750	1.672912
0.668848	1.673008
0.668945	1.673188
0.669043	1.673383
0.669141	1.673606
0.669238	1.673885
0.669336	1.674163
0.669434	1.674466
0.669531	1.674952
0.669629	1.675299
0.669727	1.675642
0.669824	1.676043
0.669922	1.676543
0.670020	1.676879
0.670117	1.677228
0.670215	1.677441
0.670312	1.677684
0.670410	1.677872
0.670508	1.677953
0.670605	1.677983
0.670703	1.678082
0.670801	1.678084
0.670898	1.678171
0.670996	1.678268
0.671094	1.678466
0.671191	1.678621
0.671289	1.678803
0.671387	1.678875
0.671484	1.679044
0.671582	1.678969
0.671680	1.678983
0.671777	1.678906
0.671875	1.678842
0.671973	1.678765
0.672070	1.678656
0.672168	1.678598
0.672266	1.678357
0.672363	1.678170
0.672461	1.677940
0.672559	1.677691
0.672656	1.677480
0.672754	1.677347
0.672852	1.677270
0.672949	1.677169
0.673047	1.677086
0.673145	1.677005
0.673242	1.677109
0.673340	1.677132
0.673437	1.677339
0.673535	1.677488
0.673633	1.677674
0.673730	1.677978
0.673828	1.678202
0.673926	1.678498
0.674023	1.678804
0.674121	1.679216
0.674219	1.679494
0.674316	1.679775
0.674414	1.679976
0.674512	1.680218
0.674609	1.680301
0.674707	1.680357
0.674805	1.680290
0.674902	1.680178
0.675000	1.680019
0.675098	1.679898
0.675195	1.679805
0.675293	1.679811
0.675391	1.679730
0.675488	1.679623
0.675586	1.679500
0.675684	1.679393
0.675781	1.679273
0.675879	1.679218
0.675977	1.679313
0.676074	1.679457
0.676172	1.679608
0.676270	1.680041
0.676367	1.680461
0.676465	1.680959
0.676562	1.681476
0.676660	1.681549
0.676758	1.680881
0.676855	1.680292
0.676953	1.680571
0.677051	1.681096
0.677148	1.681231
0.677246	1.681238
0.677344	1.681574
0.677441	1.682642
0.677539	1.684022
0.677637	1.685809
0.677734	1.687335
0.677832	1.688349
0.677930	1.689358
0.678027	1.689943
0.678125	1.690353
0.678223	1.691263
0.678320	1.692966
0.678418	1.694310
0.678516	1.694367
0.678613	1.696377
0.678711	1.695767
0.678809	1.692849
0.678906	1.693336
0.679004	1.691339
0.679102	1.683481
0.679199	1.680522
0.679297	1.679822
0.679395	1.678664
0.679492	1.677685
0.679590	1.676656
0.679687	1.675439
0.679785	1.674158
0.679883	1.672796
0.679980	1.671664
0.680078	1.670800
0.680176	1.670243
0.680273	1.669891
0.680371	1.669690
0.680469	1.669761
0.680566	1.670022
0.680664	1.670490
0.680762	1.670919
0.680859	1.671514
0.680957	1.672211
0.681055	1.673031
0.681152	1.673776
0.681250	1.674625
0.681348	1.675425
0.681445	1.676272
0.681543	1.676993
0.681641	1.677637
0.681738	1.678132
0.681836	1.678403
0.681934	1.678565
0.682031	1.678506
0.682129	1.678487
0.682227	1.678478
0.682324	1.678239
0.682422	1.678036
0.682520	1.677820
0.682617	1.677621
0.682715	1.677386
0.682812	1.677279
0.682910	1.677180
0.683008	1.677202
0.683105	1.677119
0.683203	1.677223
0.683301	1.677461
0.683398	1.677624
0.683496	1.677986
0.683594	1.678492
0.683691	1.678909
0.683789	1.679447
0.683887	1.680109
0.683984	1.680692
0.684082	1.681416
0.684180	1.682056
0.684277	1.682645
0.684375	1.683371
0.684473	1.683947
0.684570	1.684532
0.684668	1.684955
0.684766	1.685404
0.684863	1.685601
0.684961	1.685700
0.685059	1.685717
0.685156	1.685501
0.685254	1.685370
0.685352	1.685126
0.685449	1.684975
0.685547	1.684675
0.685645	1.684470
0.685742	1.684339
0.685840	1.684156
0.685937	1.684068
0.686035	1.683961
0.686133	1.683795
0.686230	1.683678
0.686328	1.683566
0.686426	1.683451
0.686523	1.683360
0.686621	1.683261
0.686719	1.683097
0.686816	1.682960
0.686914	1.682757
0.687012	1.682530
0.687109	1.682285
0.687207	1.681964
0.687305	1.681605
0.687402	1.681205
0.687500	1.680690
0.687598	1.680256
0.687695	1.679749
0.687793	1.679224
0.687891	1.678673
0.687988	1.678163
0.688086	1.677709
0.688184	1.677165
0.688281	1.676807
0.688379	1.676290
0.688477	1.675921
0.688574	1.675489
0.688672	1.675052
0.688770	1.674773
0.688867	1.674426
0.688965	1.674157
0.689062	1.673846
0.689160	1.673598
0.689258	1.673398
0.689355	1.673130
0.689453	1.672907
0.689551	1.672818
0.689648	1.672725
0.689746	1.672634
0.689844	1.672531
0.689941	1.672620
0.690039	1.672641
0.690137	1.672742
0.690234	1.672911
0.690332	1.673082
0.690430	1.673515
0.690527	1.673920
0.690625	1.674387
0.690723	1.675096
0.690820	1.675836
0.690918	1.676618
0.691016	1.677516
0.691113	1.678395
0.691211	1.679324
0.691309	1.680123
0.691406	1.680906
0.691504	1.681439
0.691602	1.681917
0.691699	1.682313
0.691797	1.682685
0.691895	1.682735
0.691992	1.682400
0.692090	1.681876
0.692187	1.681294
0.692285	1.680776
0.692383	1.680424
0.692480	1.680331
0.692578	1.680300
0.692676	1.680605
0.692773	1.680913
0.692871	1.681475
0.692969	1.682122
0.693066	1.682692
0.693164	1.683346
0.693262	1.684009
0.693359	1.684609
0.693457	1.685198
0.693555	1.685737
0.693652	1.686188
0.693750	1.686522
0.693848	1.687063
0.693945	1.687704
0.694043	1.688373
0.694141	1.689079
0.694238	1.689813
0.694336	1.690369
0.694434	1.690763
0.694531	1.691060
0.694629	1.691537
0.694727	1.692036
0.694824	1.692587
0.694922	1.692940
0.695020	1.693068
0.695117	1.692910
0.695215	1.692498
0.695312	1.692119
0.695410	1.691599
0.695508	1.690801
0.695605	1.689999
0.695703	1.688991
0.695801	1.687849
0.695898	1.686568
0.695996	1.685377
0.696094	1.684110
0.696191	1.683022
0.696289	1.682071
0.696387	1.681283
0.696484	1.680682
0.696582	1.680281
0.696680	1.679875
0.696777	1.679749
0.696875	1.679508
0.696973	1.679448
0.697070	1.679273
0.697168	1.679221
0.697266	1.679080
0.697363	1.678928
0.697461	1.678823
0.697559	1.678658
0.697656	1.678544
0.697754	1.678393
0.697852	1.678387
0.697949	1.678306
0.698047	1.678265
0.698145	1.678216
0.698242	1.678270
0.698340	1.678283
0.698437	1.678463
0.698535	1.678529
0.698633	1.678651
0.698730	1.678834
0.698828	1.678864
0.698926	1.678962
0.699023	1.679007
0.699121	1.679040
0.699219	1.679038
0.699316	1.678950
0.699414	1.678868
0.699512	1.678792
0.699609	1.678745
0.699707	1.678494
0.699805	1.678513
0.699902	1.678368
0.700000	1.678382
0.700098	1.678280
0.700195	1.678316
0.700293	1.678273
0.700391	1.678315
0.700488	1.678355
0.700586	1.678297
0.700684	1.678312
0.700781	1.678257
0.700879	1.678266
0.700977	1.678344
0.701074	1.678423
0.701172	1.678686
0.701270	1.678979
0.701367	1.679518
0.701465	1.679940
0.701562	1.680738
0.701660	1.681524
0.701758	1.682363
0.701855	1.683442
0.701953	1.684395
0.702051	1.685521
0.702148	1.686412
0.702246	1.687416
0.702344	1.688180
0.702441	1.689016
0.702539	1.690036
0.702637	1.691719
0.702734	1.694059
0.702832	1.697404
0.702930	1.700003
0.703027	1.694897
0.703125	1.697531
0.703223	1.697209
0.703320	1.695913
0.703418	1.694069
0.703516	1.692504
0.703613	1.691233
0.703711	1.690605
0.703809	1.690827
0.703906	1.689234
0.704004	1.683906
0.704102	1.679202
0.704199	1.677438
0.704297	1.677393
0.704395	1.677734
0.704492	1.678036
0.704590	1.678019
0.704687	1.677843
0.704785	1.677422
0.704883	1.676973
0.704980	1.676588
0.705078	1.676413
0.705176	1.676367
0.705273	1.676541
0.705371	1.676701
0.705469	1.676823
0.705566	1.676765
0.705664	1.676642
0.705762	1.676372
0.705859	1.675948
0.705957	1.675639
0.706055	1.675228
0.706152	1.674826
0.706250	1.674509
0.706348	1.674265
0.706445	1.674062
0.706543	1.673876
0.706641	1.673783
0.706738	1.673683
0.706836	1.673651
0.706934	1.673654
0.707031	1.673618
0.707129	1.673576
0.707227	1.673679
0.707324	1.673559
0.707422	1.673311
0.707520	1.672896
0.707617	1.672260
0.707715	1.671361
0.707812	1.670319
0.707910	1.669230
0.708008	1.668413
0.708105	1.667633
0.708203	1.667239
0.708301	1.667065
0.708398	1.667134
0.708496	1.667274
0.708594	1.667520
0.708691	1.667805
0.708789	1.668272
0.708887	1.668841
0.708984	1.669367
0.709082	1.670054
0.709180	1.670790
0.709277	1.671555
0.709375	1.672266
0.709473	1.673193
0.709570	1.674204
0.709668	1.675308
0.709766	1.676602
0.709863	1.677961
0.709961	1.679299
0.710059	1.680035
0.710156	1.680415
0.710254	1.681184
0.710352	1.681726
0.710449	1.682091
0.710547	1.682272
0.710645	1.682382
0.710742	1.682266
0.710840	1.682160
0.710937	1.681985
0.711035	1.681712
0.711133	1.681319
0.711230	1.680880
0.711328	1.680239
0.711426	1.679552
0.711523	1.678861
0.711621	1.678256
0.711719	1.677817
0.711816	1.677377
0.711914	1.677120
0.712012	1.676889
0.712109	1.676707
0.712207	1.676725
0.712305	1.676765
0.712402	1.676991
0.712500	1.677155
0.712598	1.677659
0.712695	1.678322
0.712793	1.679056
0.712891	1.679952
0.712988	1.680948
0.713086	1.681947
0.713184	1.683101
0.713281	1.684259
0.713379	1.685454
0.713477	1.686460
0.713574	1.687193
0.713672	1.687562
0.713770	1.687654
0.713867	1.687470
0.713965	1.687030
0.714062	1.686576
0.714160	1.685942
0.714258	1.685427
0.714355	1.684824
0.714453	1.684152
0.714551	1.683532
0.714648	1.683006
0.714746	1.682537
0.714844	1.682096
0.714941	1.681771
0.715039	1.681463
0.715137	1.681248
0.715234	1.681191
0.715332	1.681256
0.715430	1.681250
0.715527	1.681377
0.715625	1.681460
0.715723	1.681702
0.715820	1.681992
0.715918	1.682397
0.716016	1.683000
0.716113	1.683714
0.716211	1.684948
0.716309	1.686413
0.716406	1.688249
0.716504	1.690574
0.716602	1.692982
0.716699	1.695289
0.716797	1.697321
0.716895	1.699068
0.716992	1.699668
0.717090	1.699299
0.717187	1.698601
0.717285	1.697697
0.717383	1.696026
0.717480	1.694387
0.717578	1.693348
0.717676	1.692986
0.717773	1.692700
0.717871	1.692460
0.717969	1.691961
0.718066	1.691147
0.718164	1.690121
0.718262	1.688790
0.718359	1.687467
0.718457	1.685990
0.718555	1.684514
0.718652	1.683055
0.718750	1.681771
0.718848	1.680674
0.718945	1.679593
0.719043	1.678714
0.719141	1.677732
0.719238	1.677048
0.719336	1.676331
0.719434	1.675663
0.719531	1.675054
0.719629	1.674449
0.719727	1.673817
0.719824	1.673409
0.719922	1.672938
0.720020	1.672458
0.720117	1.672015
0.720215	1.671695
0.720312	1.671430
0.720410	1.671033
0.720508	1.670795
0.720605	1.670646
0.720703	1.670521
0.720801	1.670436
0.720898	1.670409
0.720996	1.670514
0.721094	1.670528
0.721191	1.670689
0.721289	1.671063
0.721387	1.671350
0.721484	1.671848
0.721582	1.672328
0.721680	1.672939
0.721777	1.673589
0.721875	1.674402
0.721973	1.675174
0.722070	1.676089
0.722168	1.677002
0.722266	1.677870
0.722363	1.678956
0.722461	1.680061
0.722559	1.681103
0.722656	1.682428
0.722754	1.683596
0.722852	1.684849
0.722949	1.685998
0.723047	1.686966
0.723145	1.687723
0.723242	1.688129
0.723340	1.688323
0.723437	1.688310
0.723535	1.688061
0.723633	1.687597
0.723730	1.687329
0.723828	1.686871
0.723926	1.686581
0.724023	1.686471
0.724121	1.686569
0.724219	1.686803
0.724316	1.687085
0.724414	1.687414
0.724512	1.687955
0.724609	1.688392
0.724707	1.688449
0.724805	1.688404
0.724902	1.688270
0.725000	1.688411
0.725098	1.688113
0.725195	1.687267
0.725293	1.686692
0.725391	1.685804
0.725488	1.685308
0.725586	1.685331
0.725684	1.685862
0.725781	1.686064
0.725879	1.685487
0.725977	1.684263
0.726074	1.682903
0.726172	1.681421
0.726270	1.680055
0.726367	1.679422
0.726465	1.678958
0.726562	1.678959
0.726660	1.678909
0.726758	1.678754
0.726855	1.678287
0.726953	1.677558
0.727051	1.676536
0.727148	1.675533
0.727246	1.674671
0.727344	1.673832
0.727441	1.673452
0.727539	1.673201
0.727637	1.672980
0.727734	1.673017
0.727832	1.672998
0.727930	1.673018
0.728027	1.673089
0.728125	1.673182
0.728223	1.673303
0.728320	1.673510
0.728418	1.673576
0.728516	1.673661
0.728613	1.673818
0.728711	1.673999
0.728809	1.674208
0.728906	1.674371
0.729004	1.674542
0.729102	1.674769
0.729199	1.675052
0.729297	1.675309
0.729395	1.675499
0.729492	1.675819
0.729590	1.676128
0.729687	1.676510
0.729785	1.676973
0.729883	1.677284
0.729980	1.677718
0.730078	1.678171
0.730176	1.678595
0.730273	1.679035
0.730371	1.679474
0.730469	1.679918
0.730566	1.680361
0.730664	1.680772
0.730762	1.681211
0.730859	1.681733
0.730957	1.682139
0.731055	1.682618
0.731152	1.683174
0.731250	1.683648
0.731348	1.684168
0.731445	1.684587
0.731543	1.685026
0.731641	1.685546
0.731738	1.685944
0.731836	1.686388
0.731934	1.686904
0.732031	1.687454
0.732129	1.687969
0.732227	1.688505
0.732324	1.689114
0.732422	1.689736
0.732520	1.690309
0.732617	1.690921
0.732715	1.691555
0.732812	1.692172
0.732910	1.692839
0.733008	1.693486
0.733105	1.694254
0.733203	1.694883
0.733301	1.695335
0.733398	1.695479
0.733496	1.695269
0.733594	1.694973
0.733691	1.694568
0.733789	1.694359
0.733887	1.693863
0.733984	1.693613
0.734082	1.693184
0.734180	1.693175
0.734277	1.693257
0.734375	1.694045
0.734473	1.695109
0.734570	1.697354
0.734668	1.699104
0.734766	1.701372
0.734863	1.704430
0.734961	1.710226
0.735059	1.702231
0.735156	1.698677
0.735254	1.699435
0.735352	1.688960
0.735449	1.700565
0.735547	1.680529
0.735645	1.672483
0.735742	1.666027
0.735840	1.669440
0.735937	1.672297
0.736035	1.670770
0.736133	1.670562
0.736230	1.669505
0.736328	1.669234
0.736426	1.668511
0.736523	1.668073
0.736621	1.667323
0.736719	1.666885
0.736816	1.666129
0.736914	1.665685
0.737012	1.664905
0.737109	1.664531
0.737207	1.663989
0.737305	1.663586
0.737402	1.663094
0.737500	1.662774
0.737598	1.662494
0.737695	1.662077
0.737793	1.661722
0.737891	1.661293
0.737988	1.660841
0.738086	1.660388
0.738184	1.659914
0.738281	1.659385
0.738379	1.658848
0.738477	1.658393
0.738574	1.657855
0.738672	1.657486
0.738770	1.656911
0.738867	1.656527
0.738965	1.656135
0.739062	1.655763
0.739160	1.655486
0.739258	1.655225
0.739355	1.655046
0.739453	1.655027
0.739551	1.654883
0.739648	1.654863
0.739746	1.654797
0.739844	1.654729
0.739941	1.654701
0.740039	1.654657
0.740137	1.654528
0.740234	1.654357
0.740332	1.654161
0.740430	1.654071
0.740527	1.653823
0.740625	1.653689
0.740723	1.653487
0.740820	1.653310
0.740918	1.653271
0.741016	1.652970
0.741113	1.653071
0.741211	1.652872
0.741309	1.652927
0.741406	1.652872
0.741504	1.653004
0.741602	1.652966
0.741699	1.653014
0.741797	1.653154
0.741895	1.653432
0.741992	1.653656
0.742090	1.653886
0.742187	1.654241
0.742285	1.654512
0.742383	1.654930
0.742480	1.655318
0.742578	1.655765
0.742676	1.656258
0.742773	1.656737
0.742871	1.657101
0.742969	1.657643
0.743066	1.657948
0.743164	1.658330
0.743262	1.658680
0.743359	1.659106
0.743457	1.659553
0.743555	1.659902
0.743652	1.660451
0.743750	1.660865
0.743848	1.661285
0.743945	1.661835
0.744043	1.662265
0.744141	1.662771
0.744238	1.663259
0.744336	1.663813
0.744434	1.664374
0.744531	1.664912
0.744629	1.665504
0.744727	1.666051
0.744824	1.666634
0.744922	1.667122
0.745020	1.667591
0.745117	1.668028
0.745215	1.668558
0.745312	1.669055
0.745410	1.669461
0.745508	1.669924
0.745605	1.670309
0.745703	1.670681
0.745801	1.671001
0.745898	1.671437
0.745996	1.671689
0.746094	1.672125
0.746191	1.672488
0.746289	1.672862
0.746387	1.673283
0.746484	1.673654
0.746582	1.673964
0.746680	1.674255
0.746777	1.674543
0.746875	1.674795
0.746973	1.675011
0.747070	1.675215
0.747168	1.675262
0.747266	1.675465
0.747363	1.675528
0.747461	1.675593
0.747559	1.675656
0.747656	1.675695
0.747754	1.675753
0.747852	1.675768
0.747949	1.675744
0.748047	1.675762
0.748145	1.675782
0.748242	1.675658
0.748340	1.675691
0.748437	1.675699
0.748535	1.675736
0.748633	1.675769
0.748730	1.675831
0.748828	1.675898
0.748926	1.675952
0.749023	1.676140
0.749121	1.676247
0.749219	1.676442
0.749316	1.676627
0.749414	1.676827
0.749512	1.677000
0.749609	1.677238
0.749707	1.677352
0.749805	1.677483
0.749902	1.677514
0.750000	1.677627
0.750098	1.677635
0.750195	1.677558
0.750293	1.677425
0.750391	1.677286
0.750488	1.677167
0.750586	1.676979
0.750684	1.676732
0.750781	1.676655
0.750879	1.676483
0.750977	1.676281
0.751074	1.675991
0.751172	1.675817
0.751270	1.675541
0.751367	1.675260
0.751465	1.675060
0.751562	1.674882
0.751660	1.674770
0.751758	1.674687
0.751855	1.674720
0.751953	1.674747
0.752051	1.674942
0.752148	1.675119
0.752246	1.675353
0.752344	1.675739
0.752441	1.676033
0.752539	1.676395
0.752637	1.676795
0.752734	1.677326
0.752832	1.677657
0.752930	1.677935
0.753027	1.678189
0.753125	1.678480
0.753223	1.678558
0.753320	1.678592
0.753418	1.678545
0.753516	1.678463
0.753613	1.678347
0.753711	1.678236
0.753809	1.678051
0.753906	1.677836
0.754004	1.677633
0.754102	1.677386
0.754199	1.677120
0.754297	1.676911
0.754395	1.676644
0.754492	1.676417
0.754590	1.676175
0.754687	1.675925
0.754785	1.675709
0.754883	1.675556
0.754980	1.675285
0.755078	1.675201
0.755176	1.674989
0.755273	1.675071
0.755371	1.675071
0.755469	1.675168
0.755566	1.675277
0.755664	1.675406
0.755762	1.675562
0.755859	1.675887
0.755957	1.676104
0.756055	1.676337
0.756152	1.676676
0.756250	1.676869
0.756348	1.677085
0.756445	1.677336
0.756543	1.677477
0.756641	1.677588
0.756738	1.677688
0.756836	1.677790
0.756934	1.677890
0.757031	1.677912
0.757129	1.678065
0.757227	1.678203
0.757324	1.678272
0.757422	1.678450
0.757520	1.678496
0.757617	1.678607
0.757715	1.678714
0.757812	1.678842
0.757910	1.678942
0.758008	1.679026
0.758105	1.679133
0.758203	1.679201
0.758301	1.679249
0.758398	1.679363
0.758496	1.679384
0.758594	1.679514
0.758691	1.679616
0.758789	1.679702
0.758887	1.679824
0.758984	1.679938
0.759082	1.680123
0.759180	1.680248
0.759277	1.680663
0.759375	1.681037
0.759473	1.681541
0.759570	1.682039
0.759668	1.682867
0.759766	1.683573
0.759863	1.684454
0.759961	1.685535
0.760059	1.686592
0.760156	1.687677
0.760254	1.688639
0.760352	1.689588
0.760449	1.690463
0.760547	1.691286
0.760645	1.692037
0.760742	1.692506
0.760840	1.692922
0.760937	1.693110
0.761035	1.693315
0.761133	1.693516
0.761230	1.693730
0.761328	1.694207
0.761426	1.694910
0.761523	1.695497
0.761621	1.696405
0.761719	1.697313
0.761816	1.698190
0.761914	1.699032
0.762012	1.699892
0.762109	1.700796
0.762207	1.701453
0.762305	1.702066
0.762402	1.702614
0.762500	1.702687
0.762598	1.702046
0.762695	1.700814
0.762793	1.699546
0.762891	1.698722
0.762988	1.697883
0.763086	1.697179
0.763184	1.696771
0.763281	1.696554
0.763379	1.696284
0.763477	1.696132
0.763574	1.695785
0.763672	1.695220
0.763770	1.694550
0.763867	1.693852
0.763965	1.692988
0.764062	1.692153
0.764160	1.691297
0.764258	1.690515
0.764355	1.689712
0.764453	1.688996
0.764551	1.688279
0.764648	1.687550
0.764746	1.686706
0.764844	1.685943
0.764941	1.684957
0.765039	1.684041
0.765137	1.683024
0.765234	1.682147
0.765332	1.681294
0.765430	1.680444
0.765527	1.679490
0.765625	1.678643
0.765723	1.677806
0.765820	1.677156
0.765918	1.676554
0.766016	1.675892
0.766113	1.675486
0.766211	1.675029
0.766309	1.674740
0.766406	1.674504
0.766504	1.674110
0.766602	1.674067
0.766699	1.673794
0.766797	1.673704
0.766895	1.673636
0.766992	1.673555
0.767090	1.673504
0.767187	1.673502
0.767285	1.673485
0.767383	1.673538
0.767480	1.673538
0.767578	1.673542
0.767676	1.673726
0.767773	1.673743
0.767871	1.673881
0.767969	1.674030
0.768066	1.674086
0.768164	1.674251
0.768262	1.674354
0.768359	1.674391
0.768457	1.674581
0.768555	1.674800
0.768652	1.675019
0.768750	1.675213
0.768848	1.675559
0.768945	1.675677
0.769043	1.675869
0.769141	1.675984
0.769238	1.676062
0.769336	1.676110
0.769434	1.676164
0.769531	1.676262
0.769629	1.676458
0.769727	1.676813
0.769824	1.677199
0.769922	1.677804
0.770020	1.678594
0.770117	1.679437
0.770215	1.680428
0.770312	1.681722
0.770410	1.683349
0.770508	1.685723
0.770605	1.688798
0.770703	1.691909
0.770801	1.691632
0.770898	1.694755
0.770996	1.695881
0.771094	1.693894
0.771191	1.693136
0.771289	1.691411
0.771387	1.689312
0.771484	1.685976
0.771582	1.682759
0.771680	1.680207
0.771777	1.678322
0.771875	1.676863
0.771973	1.675826
0.772070	1.674855
0.772168	1.674160
0.772266	1.673421
0.772363	1.672828
0.772461	1.672300
0.772559	1.671961
0.772656	1.671682
0.772754	1.671569
0.772852	1.671414
0.772949	1.671370
0.773047	1.671428
0.773145	1.671350
0.773242	1.671348
0.773340	1.671242
0.773437	1.671277
0.773535	1.671259
0.773633	1.671205
0.773730	1.671160
0.773828	1.671055
0.773926	1.670925
0.774023	1.670705
0.774121	1.670637
0.774219	1.670363
0.774316	1.670239
0.774414	1.669947
0.774512	1.669643
0.774609	1.669271
0.774707	1.668890
0.774805	1.668477
0.774902	1.668026
0.775000	1.667645
0.775098	1.667065
0.775195	1.666789
0.775293	1.666572
0.775391	1.666321
0.775488	1.666135
0.775586	1.665977
0.775684	1.665832
0.775781	1.665852
0.775879	1.665881
0.775977	1.665877
0.776074	1.665932
0.776172	1.666123
0.776270	1.666274
0.776367	1.666638
0.776465	1.666879
0.776562	1.667247
0.776660	1.667535
0.776758	1.667991
0.776855	1.668389
0.776953	1.668841
0.777051	1.669339
0.777148	1.669861
0.777246	1.670429
0.777344	1.671013
0.777441	1.671627
0.777539	1.672260
0.777637	1.672903
0.777734	1.673562
0.777832	1.674270
0.777930	1.674942
0.778027	1.675739
0.778125	1.676391
0.778223	1.677173
0.778320	1.677859
0.778418	1.678559
0.778516	1.679285
0.778613	1.679922
0.778711	1.680580
0.778809	1.681245
0.778906	1.681860
0.779004	1.682483
0.779102	1.683185
0.779199	1.683789
0.779297	1.684458
0.779395	1.685071
0.779492	1.685728
0.779590	1.686353
0.779687	1.687019
0.779785	1.687482
0.779883	1.687986
0.779980	1.688373
0.780078	1.688813
0.780176	1.689085
0.780273	1.689290
0.780371	1.689567
0.780469	1.689738
0.780566	1.690067
0.780664	1.690273
0.780762	1.690747
0.780859	1.691137
0.780957	1.691609
0.781055	1.692290
0.781152	1.692869
0.781250	1.693296
0.781348	1.693573
0.781445	1.693545
0.781543	1.692633
0.781641	1.692145
0.781738	1.692056
0.781836	1.691668
0.781934	1.690998
0.782031	1.690129
0.782129	1.689308
0.782227	1.688634
0.782324	1.687970
0.782422	1.687759
0.782520	1.687786
0.782617	1.688014
0.782715	1.688548
0.782812	1.689109
0.782910	1.689678
0.783008	1.690150
0.783105	1.690788
0.783203	1.691430
0.783301	1.692097
0.783398	1.691709
0.783496	1.689779
0.783594	1.687161
0.783691	1.684998
0.783789	1.683190
0.783887	1.681381
0.783984	1.679429
0.784082	1.677649
0.784180	1.675966
0.784277	1.674709
0.784375	1.673588
0.784473	1.672733
0.784570	1.672034
0.784668	1.671289
0.784766	1.670742
0.784863	1.670248
0.784961	1.669720
0.785059	1.669271
0.785156	1.668887
0.785254	1.668767
0.785352	1.668591
0.785449	1.668475
0.785547	1.668353
0.785645	1.668428
0.785742	1.668437
0.785840	1.668577
0.785937	1.668663
0.786035	1.669003
0.786133	1.669426
0.786230	1.669853
0.786328	1.670460
0.786426	1.671144
0.786523	1.671894
0.786621	1.672619
0.786719	1.673241
0.786816	1.673726
0.786914	1.673856
0.787012	1.673916
0.787109	1.673953
0.787207	1.673937
0.787305	1.673776
0.787402	1.673730
0.787500	1.673760
0.787598	1.673652
0.787695	1.673623
0.787793	1.673629
0.787891	1.673685
0.787988	1.673736
0.788086	1.673718
0.788184	1.673815
0.788281	1.673826
0.788379	1.673794
0.788477	1.673690
0.788574	1.673598
0.788672	1.673492
0.788770	1.673381
0.788867	1.673120
0.788965	1.673134
0.789062	1.672937
0.789160	1.672746
0.789258	1.672686
0.789355	1.672533
0.789453	1.672489
0.789551	1.672442
0.789648	1.672383
0.789746	1.672292
0.789844	1.672383
0.789941	1.672342
0.790039	1.672507
0.790137	1.672532
0.790234	1.672765
0.790332	1.672923
0.790430	1.673023
0.790527	1.673197
0.790625	1.673313
0.790723	1.673523
0.790820	1.673773
0.790918	1.673875
0.791016	1.674102
0.791113	1.674314
0.791211	1.674695
0.791309	1.674869
0.791406	1.675238
0.791504	1.675605
0.791602	1.676110
0.791699	1.676582
0.791797	1.677153
0.791895	1.677896
0.791992	1.678556
0.792090	1.679345
0.792187	1.680110
0.792285	1.680959
0.792383	1.681774
0.792480	1.682613
0.792578	1.683354
0.792676	1.684080
0.792773	1.684556
0.792871	1.684951
0.792969	1.685301
0.793066	1.685655
0.793164	1.686177
0.793262	1.686792
0.793359	1.687379
0.793457	1.687993
0.793555	1.688829
0.793652	1.689729
0.793750	1.690791
0.793848	1.691912
0.793945	1.693027
0.794043	1.693959
0.794141	1.694953
0.794238	1.695392
0.794336	1.695556
0.794434	1.695283
0.794531	1.694889
0.794629	1.694245
0.794727	1.693280
0.794824	1.692504
0.794922	1.691701
0.795020	1.690875
0.795117	1.690113
0.795215	1.689488
0.795312	1.688932
0.795410	1.688091
0.795508	1.687381
0.795605	1.686701
0.795703	1.686034
0.795801	1.685370
0.795898	1.685037
0.795996	1.684675
0.796094	1.684407
0.796191	1.684284
0.796289	1.684169
0.796387	1.683932
0.796484	1.683665
0.796582	1.683464
0.796680	1.683174
0.796777	1.682815
0.796875	1.682471
0.796973	1.682172
0.797070	1.681818
0.797168	1.681579
0.797266	1.681355
0.797363	1.681316
0.797461	1.681340
0.797559	1.681511
0.797656	1.681745
0.797754	1.682131
0.797852	1.682768
0.797949	1.683580
0.798047	1.684635
0.798145	1.686023
0.798242	1.687580
0.798340	1.689209
0.798437	1.690805
0.798535	1.691812
0.798633	1.692252
0.798730	1.691852
0.798828	1.691140
0.798926	1.689840
0.799023	1.688835
0.799121	1.687451
0.799219	1.686522
0.799316	1.684981
0.799414	1.684213
0.799512	1.682772
0.799609	1.682573
0.799707	1.681309
0.799805	1.681550
0.799902	1.680073
0.800000	1.680937
0.800098	1.678250
0.800195	1.679934
0.800293	1.669381
0.800391	1.683344
0.800488	1.713317
0.800586	1.679626
0.800684	1.678050
0.800781	1.696259
0.800879	1.697979
0.800977	1.680270
0.801074	1.684413
0.801172	1.687292
0.801270	1.687711
0.801367	1.690712
0.801465	1.692334
0.801562	1.691612
0.801660	1.690339
0.801758	1.690686
0.801855	1.690945
0.801953	1.688303
0.802051	1.686078
0.802148	1.685897
0.802246	1.686868
0.802344	1.688628
0.802441	1.688358
0.802539	1.687326
0.802637	1.686250
0.802734	1.685588
0.802832	1.683738
0.802930	1.679670
0.803027	1.675646
0.803125	1.671484
0.803223	1.668544
0.803320	1.666524
0.803418	1.665182
0.803516	1.663992
0.803613	1.663403
0.803711	1.663259
0.803809	1.663322
0.803906	1.663508
0.804004	1.663796
0.804102	1.664013
0.804199	1.664230
0.804297	1.664513
0.804395	1.664776
0.804492	1.665049
0.804590	1.665354
0.804687	1.665615
0.804785	1.665826
0.804883	1.666123
0.804980	1.666462
0.805078	1.666708
0.805176	1.667145
0.805273	1.667658
0.805371	1.668096
0.805469	1.668754
0.805566	1.669328
0.805664	1.670007
0.805762	1.670590
0.805859	1.671188
0.805957	1.671955
0.806055	1.672547
0.806152	1.673256
0.806250	1.673961
0.806348	1.674577
0.806445	1.675255
0.806543	1.675957
0.806641	1.676533
0.806738	1.677088
0.806836	1.677572
0.806934	1.677794
0.807031	1.677968
0.807129	1.677904
0.807227	1.677773
0.807324	1.677545
0.807422	1.677297
0.807520	1.676982
0.807617	1.676739
0.807715	1.676351
0.807812	1.676096
0.807910	1.675769
0.808008	1.675445
0.808105	1.675035
0.808203	1.674689
0.808301	1.674326
0.808398	1.674081
0.808496	1.673750
0.808594	1.673483
0.808691	1.673401
0.808789	1.673239
0.808887	1.673283
0.808984	1.673309
0.809082	1.673546
0.809180	1.673789
0.809277	1.674110
0.809375	1.674485
0.809473	1.674921
0.809570	1.675492
0.809668	1.676128
0.809766	1.676730
0.809863	1.677491
0.809961	1.678218
0.810059	1.679083
0.810156	1.680003
0.810254	1.680886
0.810352	1.681864
0.810449	1.682920
0.810547	1.684018
0.810645	1.685059
0.810742	1.686408
0.810840	1.687609
0.810937	1.688933
0.811035	1.690224
0.811133	1.691150
0.811230	1.691592
0.811328	1.691804
0.811426	1.692174
0.811523	1.692705
0.811621	1.693140
0.811719	1.693600
0.811816	1.694195
0.811914	1.694722
0.812012	1.695289
0.812109	1.695626
0.812207	1.695712
0.812305	1.695455
0.812402	1.695249
0.812500	1.694986
0.812598	1.694655
0.812695	1.694092
0.812793	1.693469
0.812891	1.692712
0.812988	1.691954
0.813086	1.691076
0.813184	1.690306
0.813281	1.689619
0.813379	1.689011
0.813477	1.688648
0.813574	1.688286
0.813672	1.688067
0.813770	1.687765
0.813867	1.687495
0.813965	1.687263
0.814062	1.686879
0.814160	1.686401
0.814258	1.685566
0.814355	1.684303
0.814453	1.682779
0.814551	1.680934
0.814648	1.679361
0.814746	1.678020
0.814844	1.677183
0.814941	1.676322
0.815039	1.675518
0.815137	1.674826
0.815234	1.674429
0.815332	1.674079
0.815430	1.673715
0.815527	1.673546
0.815625	1.673345
0.815723	1.673254
0.815820	1.673173
0.815918	1.673134
0.816016	1.673247
0.816113	1.673292
0.816211	1.673418
0.816309	1.673624
0.816406	1.673814
0.816504	1.674057
0.816602	1.674321
0.816699	1.674654
0.816797	1.674802
0.816895	1.675270
0.816992	1.675530
0.817090	1.675870
0.817187	1.676223
0.817285	1.676627
0.817383	1.676985
0.817480	1.677319
0.817578	1.677589
0.817676	1.678053
0.817773	1.678311
0.817871	1.678799
0.817969	1.679137
0.818066	1.679572
0.818164	1.679938
0.818262	1.680328
0.818359	1.680499
0.818457	1.680562
0.818555	1.680389
0.818652	1.679951
0.818750	1.679489
0.818848	1.678850
0.818945	1.678160
0.819043	1.677533
0.819141	1.676848
0.819238	1.676332
0.819336	1.675815
0.819434	1.675421
0.819531	1.675048
0.819629	1.674809
0.819727	1.674683
0.819824	1.674560
0.819922	1.674632
0.820020	1.674888
0.820117	1.675250
0.820215	1.675200
0.820312	1.674240
0.820410	1.671497
0.820508	1.669352
0.820605	1.669449
0.820703	1.669687
0.820801	1.669689
0.820898	1.669493
0.820996	1.669191
0.821094	1.668989
0.821191	1.668719
0.821289	1.668505
0.821387	1.668419
0.821484	1.668261
0.821582	1.668277
0.821680	1.668270
0.821777	1.668309
0.821875	1.668408
0.821973	1.668551
0.822070	1.668616
0.822168	1.668789
0.822266	1.668843
0.822363	1.669052
0.822461	1.669184
0.822559	1.669408
0.822656	1.669653
0.822754	1.669934
0.822852	1.670274
0.822949	1.670565
0.823047	1.670783
0.823145	1.671148
0.823242	1.671372
0.823340	1.671613
0.823437	1.671761
0.823535	1.671934
0.823633	1.671967
0.823730	1.671946
0.823828	1.671801
0.823926	1.671653
0.824023	1.671578
0.824121	1.671304
0.824219	1.671217
0.824316	1.671033
0.824414	1.670994
0.824512	1.670924
0.824609	1.670989
0.824707	1.671036
0.824805	1.671257
0.824902	1.671483
0.825000	1.671649
0.825098	1.671868
0.825195	1.672259
0.825293	1.672734
0.825391	1.673047
0.825488	1.673611
0.825586	1.673906
0.825684	1.674377
0.825781	1.674675
0.825879	1.674905
0.825977	1.675105
0.826074	1.675281
0.826172	1.675394
0.826270	1.675558
0.826367	1.675764
0.826465	1.675926
0.826562	1.676165
0.826660	1.676392
0.826758	1.676712
0.826855	1.677174
0.826953	1.677573
0.827051	1.678089
0.827148	1.678657
0.827246	1.679299
0.827344	1.680041
0.827441	1.680727
0.827539	1.681505
0.827637	1.682372
0.827734	1.683412
0.827832	1.684392
0.827930	1.685497
0.828027	1.686682
0.828125	1.687959
0.828223	1.689331
0.828320	1.690792
0.828418	1.692316
0.828516	1.693923
0.828613	1.694956
0.828711	1.695255
0.828809	1.694884
0.828906	1.694125
0.829004	1.693419
0.829102	1.693487
0.829199	1.693337
0.829297	1.693165
0.829395	1.692757
0.829492	1.692220
0.829590	1.691618
0.829687	1.690704
0.829785	1.689516
0.829883	1.688329
0.829980	1.686934
0.830078	1.685817
0.830176	1.684752
0.830273	1.683974
0.830371	1.683272
0.830469	1.682639
0.830566	1.682048
0.830664	1.681365
0.830762	1.680754
0.830859	1.680008
0.830957	1.679389
0.831055	1.678521
0.831152	1.677797
0.831250	1.677148
0.831348	1.676414
0.831445	1.676060
0.831543	1.675564
0.831641	1.675219
0.831738	1.674967
0.831836	1.674709
0.831934	1.674564
0.832031	1.674470
0.832129	1.674417
0.832227	1.674236
0.832324	1.674273
0.832422	1.674343
0.832520	1.674301
0.832617	1.674404
0.832715	1.674514
0.832812	1.674684
0.832910	1.674944
0.833008	1.674957
0.833105	1.675204
0.833203	1.675460
0.833301	1.675778
0.833398	1.676038
0.833496	1.676433
0.833594	1.677013
0.833691	1.677386
0.833789	1.677888
0.833887	1.678345
0.833984	1.678656
0.834082	1.678844
0.834180	1.678884
0.834277	1.678595
0.834375	1.678373
0.834473	1.678134
0.834570	1.678107
0.834668	1.677978
0.834766	1.677951
0.834863	1.678014
0.834961	1.677984
0.835059	1.678052
0.835156	1.678078
0.835254	1.678434
0.835352	1.678647
0.835449	1.678756
0.835547	1.678839
0.835645	1.678933
0.835742	1.678822
0.835840	1.678618
0.835937	1.678152
0.836035	1.677469
0.836133	1.676659
0.836230	1.675553
0.836328	1.674395
0.836426	1.673278
0.836523	1.672024
0.836621	1.670942
0.836719	1.670025
0.836816	1.669185
0.836914	1.668466
0.837012	1.667922
0.837109	1.667478
0.837207	1.667181
0.837305	1.667076
0.837402	1.667027
0.837500	1.667228
0.837598	1.667549
0.837695	1.667989
0.837793	1.668612
0.837891	1.669345
0.837988	1.670154
0.838086	1.671005
0.838184	1.671880
0.838281	1.672647
0.838379	1.673421
0.838477	1.673927
0.838574	1.674299
0.838672	1.674589
0.838770	1.674771
0.838867	1.675048
0.838965	1.675201
0.839062	1.675485
0.839160	1.675707
0.839258	1.675860
0.839355	1.676069
0.839453	1.676208
0.839551	1.676273
0.839648	1.676372
0.839746	1.676469
0.839844	1.676529
0.839941	1.676648
0.840039	1.676776
0.840137	1.676870
0.840234	1.676987
0.840332	1.677162
0.840430	1.677383
0.840527	1.677652
0.840625	1.677923
0.840723	1.678209
0.840820	1.678679
0.840918	1.679019
0.841016	1.679368
0.841113	1.679944
0.841211	1.680442
0.841309	1.681018
0.841406	1.681463
0.841504	1.681889
0.841602	1.682262
0.841699	1.682739
0.841797	1.683113
0.841895	1.683433
0.841992	1.683741
0.842090	1.684064
0.842187	1.684188
0.842285	1.684409
0.842383	1.684588
0.842480	1.684726
0.842578	1.684839
0.842676	1.684751
0.842773	1.684559
0.842871	1.684330
0.842969	1.683942
0.843066	1.683600
0.843164	1.683229
0.843262	1.682772
0.843359	1.682373
0.843457	1.681850
0.843555	1.681114
0.843652	1.680465
0.843750	1.679932
0.843848	1.679497
0.843945	1.679132
0.844043	1.678956
0.844141	1.678743
0.844238	1.678538
0.844336	1.678539
0.844434	1.678535
0.844531	1.678602
0.844629	1.678737
0.844727	1.678989
0.844824	1.679295
0.844922	1.679669
0.845020	1.680066
0.845117	1.680542
0.845215	1.681181
0.845312	1.681856
0.845410	1.682539
0.845508	1.683266
0.845605	1.684038
0.845703	1.684864
0.845801	1.685752
0.845898	1.686647
0.845996	1.687574
0.846094	1.688518
0.846191	1.689412
0.846289	1.690180
0.846387	1.690938
0.846484	1.691480
0.846582	1.692132
0.846680	1.692443
0.846777	1.692676
0.846875	1.692548
0.846973	1.692460
0.847070	1.692565
0.847168	1.692513
0.847266	1.692764
0.847363	1.692898
0.847461	1.692936
0.847559	1.692693
0.847656	1.692241
0.847754	1.691876
0.847852	1.691519
0.847949	1.691106
0.848047	1.690871
0.848145	1.690589
0.848242	1.690519
0.848340	1.690685
0.848437	1.690904
0.848535	1.690989
0.848633	1.690975
0.848730	1.690641
0.848828	1.690140
0.848926	1.689489
0.849023	1.688849
0.849121	1.688369
0.849219	1.687767
0.849316	1.686753
0.849414	1.685754
0.849512	1.684715
0.849609	1.684048
0.849707	1.683860
0.849805	1.683907
0.849902	1.684100
0.850000	1.683856
0.850098	1.683225
0.850195	1.681998
0.850293	1.680650
0.850391	1.679265
0.850488	1.678128
0.850586	1.677004
0.850684	1.675929
0.850781	1.674616
0.850879	1.673105
0.850977	1.671329
0.851074	1.669330
0.851172	1.667450
0.851270	1.665552
0.851367	1.663934
0.851465	1.662531
0.851562	1.661374
0.851660	1.660264
0.851758	1.659300
0.851855	1.658538
0.851953	1.657759
0.852051	1.657028
0.852148	1.656344
0.852246	1.655737
0.852344	1.655118
0.852441	1.654452
0.852539	1.653973
0.852637	1.653490
0.852734	1.653020
0.852832	1.652605
0.852930	1.652196
0.853027	1.651826
0.853125	1.651354
0.853223	1.651007
0.853320	1.650767
0.853418	1.650446
0.853516	1.650253
0.853613	1.650051
0.853711	1.649909
0.853809	1.649832
0.853906	1.649721
0.854004	1.649710
0.854102	1.649741
0.854199	1.649758
0.854297	1.649873
0.854395	1.650001
0.854492	1.650258
0.854590	1.650420
0.854687	1.650689
0.854785	1.651026
0.854883	1.651355
0.854980	1.651775
0.855078	1.652179
0.855176	1.652747
0.855273	1.653474
0.855371	1.654022
0.855469	1.654832
0.855566	1.655538
0.855664	1.656436
0.855762	1.657284
0.855859	1.658275
0.855957	1.659303
0.856055	1.660347
0.856152	1.661357
0.856250	1.662501
0.856348	1.663546
0.856445	1.664588
0.856543	1.665595
0.856641	1.666651
0.856738	1.667452
0.856836	1.668306
0.856934	1.669098
0.857031	1.669849
0.857129	1.670588
0.857227	1.671231
0.857324	1.672018
0.857422	1.672838
0.857520	1.673620
0.857617	1.674373
0.857715	1.675364
0.857812	1.676254
0.857910	1.677180
0.858008	1.678194
0.858105	1.679056
0.858203	1.679977
0.858301	1.680879
0.858398	1.681644
0.858496	1.682557
0.858594	1.683394
0.858691	1.684218
0.858789	1.685023
0.858887	1.685845
0.858984	1.686676
0.859082	1.687342
0.859180	1.688083
0.859277	1.688653
0.859375	1.689281
0.859473	1.689844
0.859570	1.690497
0.859668	1.691179
0.859766	1.691939
0.859863	1.692925
0.859961	1.693822
0.860059	1.694765
0.860156	1.695516
0.860254	1.695934
0.860352	1.695807
0.860449	1.695354
0.860547	1.694515
0.860645	1.693608
0.860742	1.692766
0.860840	1.691572
0.860937	1.690330
0.861035	1.688865
0.861133	1.687388
0.861230	1.685975
0.861328	1.684638
0.861426	1.683375
0.861523	1.682308
0.861621	1.681297
0.861719	1.680420
0.861816	1.679547
0.861914	1.678934
0.862012	1.678219
0.862109	1.677666
0.862207	1.677076
0.862305	1.676546
0.862402	1.676102
0.862500	1.675698
0.862598	1.675314
0.862695	1.675060
0.862793	1.674701
0.862891	1.674402
0.862988	1.674140
0.863086	1.673861
0.863184	1.673562
0.863281	1.673263
0.863379	1.672885
0.863477	1.672643
0.863574	1.672300
0.863672	1.672031
0.863770	1.671664
0.863867	1.671278
0.863965	1.670848
0.864062	1.670457
0.864160	1.670053
0.864258	1.669543
0.864355	1.669034
0.864453	1.668657
0.864551	1.668113
0.864648	1.667652
0.864746	1.667201
0.864844	1.666682
0.864941	1.666229
0.865039	1.665738
0.865137	1.665258
0.865234	1.664964
0.865332	1.664595
0.865430	1.664319
0.865527	1.663934
0.865625	1.663725
0.865723	1.663448
0.865820	1.663214
0.865918	1.663038
0.866016	1.662936
0.866113	1.662819
0.866211	1.662793
0.866309	1.662760
0.866406	1.662663
0.866504	1.662779
0.866602	1.662732
0.866699	1.662863
0.866797	1.662844
0.866895	1.663017
0.866992	1.663203
0.867090	1.663250
0.867187	1.663364
0.867285	1.663532
0.867383	1.663521
0.867480	1.663850
0.867578	1.663874
0.867676	1.664048
0.867773	1.664192
0.867871	1.664390
0.867969	1.664534
0.868066	1.664656
0.868164	1.664774
0.868262	1.664974
0.868359	1.665152
0.868457	1.665352
0.868555	1.665551
0.868652	1.665769
0.868750	1.665996
0.868848	1.666287
0.868945	1.666567
0.869043	1.666830
0.869141	1.667168
0.869238	1.667402
0.869336	1.667793
0.869434	1.668103
0.869531	1.668456
0.869629	1.668889
0.869727	1.669227
0.869824	1.669589
0.869922	1.670013
0.870020	1.670507
0.870117	1.670965
0.870215	1.671516
0.870312	1.672084
0.870410	1.672714
0.870508	1.673441
0.870605	1.674069
0.870703	1.674786
0.870801	1.675504
0.870898	1.676118
0.870996	1.676630
0.871094	1.677280
0.871191	1.677746
0.871289	1.678090
0.871387	1.678516
0.871484	1.678886
0.871582	1.679468
0.871680	1.680088
0.871777	1.680907
0.871875	1.681932
0.871973	1.683023
0.872070	1.684489
0.872168	1.685973
0.872266	1.687222
0.872363	1.688304
0.872461	1.689190
0.872559	1.689550
0.872656	1.689511
0.872754	1.689341
0.872852	1.689551
0.872949	1.690046
0.873047	1.690544
0.873145	1.691077
0.873242	1.691631
0.873340	1.692319
0.873437	1.692938
0.873535	1.693635
0.873633	1.694441
0.873730	1.695280
0.873828	1.696282
0.873926	1.696237
0.874023	1.697028
0.874121	1.698745
0.874219	1.699836
0.874316	1.701241
0.874414	1.702545
0.874512	1.704014
0.874609	1.705363
0.874707	1.706764
0.874805	1.708090
0.874902	1.708495
0.875000	1.708117
0.875098	1.707511
0.875195	1.707065
0.875293	1.706490
0.875391	1.704407
0.875488	1.702719
0.875586	1.701439
0.875684	1.700404
0.875781	1.699558
0.875879	1.698962
0.875977	1.698414
0.876074	1.698037
0.876172	1.697702
0.876270	1.697434
0.876367	1.697265
0.876465	1.697062
0.876562	1.696877
0.876660	1.696772
0.876758	1.696711
0.876855	1.696612
0.876953	1.696624
0.877051	1.696470
0.877148	1.696238
0.877246	1.695877
0.877344	1.695500
0.877441	1.694935
0.877539	1.694225
0.877637	1.693498
0.877734	1.692644
0.877832	1.691936
0.877930	1.691091
0.878027	1.690277
0.878125	1.689483
0.878223	1.688708
0.878320	1.687818
0.878418	1.687079
0.878516	1.686205
0.878613	1.685289
0.878711	1.684202
0.878809	1.682914
0.878906	1.681444
0.879004	1.679692
0.879102	1.678089
0.879199	1.676707
0.879297	1.675472
0.879395	1.674119
0.879492	1.672861
0.879590	1.671544
0.879687	1.670216
0.879785	1.669009
0.879883	1.667748
0.879980	1.666374
0.880078	1.665025
0.880176	1.663682
0.880273	1.662221
0.880371	1.660789
0.880469	1.659352
0.880566	1.658096
0.880664	1.656829
0.880762	1.655593
0.880859	1.654383
0.880957	1.653424
0.881055	1.652238
0.881152	1.651368
0.881250	1.650272
0.881348	1.649426
0.881445	1.648477
0.881543	1.647619
0.881641	1.646809
0.881738	1.645954
0.881836	1.645127
0.881934	1.644484
0.882031	1.643802
0.882129	1.643121
0.882227	1.642550
0.882324	1.641955
0.882422	1.641399
0.882520	1.641035
0.882617	1.640661
0.882715	1.640285
0.882812	1.640096
0.882910	1.639896
0.883008	1.639742
0.883105	1.639615
0.883203	1.639543
0.883301	1.639576
0.883398	1.639631
0.883496	1.639719
0.883594	1.639907
0.883691	1.640135
0.883789	1.640434
0.883887	1.640666
0.883984	1.641102
0.884082	1.641503
0.884180	1.641893
0.884277	1.642280
0.884375	1.642776
0.884473	1.643261
0.884570	1.643760
0.884668	1.644304
0.884766	1.644883
0.884863	1.645497
0.884961	1.646051
0.885059	1.646629
0.885156	1.647427
0.885254	1.648209
0.885352	1.649046
0.885449	1.649876
0.885547	1.650691
0.885645	1.651695
0.885742	1.652612
0.885840	1.653509
0.885937	1.654509
0.886035	1.655325
0.886133	1.656202
0.886230	1.657215
0.886328	1.658024
0.886426	1.658813
0.886523	1.659577
0.886621	1.660288
0.886719	1.660936
0.886816	1.661572
0.886914	1.662135
0.887012	1.662716
0.887109	1.663059
0.887207	1.663448
0.887305	1.663809
0.887402	1.663997
0.887500	1.664331
0.887598	1.664537
0.887695	1.664584
0.887793	1.664780
0.887891	1.664977
0.887988	1.665111
0.888086	1.665308
0.888184	1.665547
0.888281	1.665781
0.888379	1.666057
0.888477	1.666367
0.888574	1.666541
0.888672	1.666926
0.888770	1.667218
0.888867	1.667474
0.888965	1.667864
0.889062	1.668120
0.889160	1.668355
0.889258	1.668641
0.889355	1.668827
0.889453	1.669322
0.889551	1.669594
0.889648	1.669946
0.889746	1.670312
0.889844	1.670679
0.889941	1.671109
0.890039	1.671506
0.890137	1.671850
0.890234	1.672348
0.890332	1.672738
0.890430	1.673117
0.890527	1.673585
0.890625	1.673993
0.890723	1.674409
0.890820	1.674770
0.890918	1.675219
0.891016	1.675477
0.891113	1.675857
0.891211	1.676184
0.891309	1.676494
0.891406	1.676806
0.891504	1.677065
0.891602	1.677285
0.891699	1.677512
0.891797	1.677693
0.891895	1.677784
0.891992	1.677961
0.892090	1.678091
0.892187	1.678116
0.892285	1.678129
0.892383	1.678258
0.892480	1.678390
0.892578	1.678659
0.892676	1.678914
0.892773	1.679236
0.892871	1.679462
0.892969	1.679958
0.893066	1.680193
0.893164	1.680720
0.893262	1.681053
0.893359	1.681635
0.893457	1.681976
0.893555	1.682815
0.893652	1.683157
0.893750	1.684140
0.893848	1.684661
0.893945	1.686078
0.894043	1.686853
0.894141	1.689193
0.894238	1.690091
0.894336	1.692844
0.894434	1.694600
0.894531	1.701941
0.894629	1.705897
0.894727	1.713562
0.894824	1.720873
0.894922	1.702284
0.895020	1.698816
0.895117	1.683210
0.895215	1.697097
0.895312	1.695540
0.895410	1.692927
0.895508	1.689679
0.895605	1.686112
0.895703	1.681482
0.895801	1.678008
0.895898	1.675391
0.895996	1.673792
0.896094	1.672474
0.896191	1.671856
0.896289	1.671073
0.896387	1.670575
0.896484	1.669650
0.896582	1.668731
0.896680	1.667458
0.896777	1.666168
0.896875	1.664705
0.896973	1.663357
0.897070	1.662013
0.897168	1.660984
0.897266	1.660208
0.897363	1.659420
0.897461	1.658897
0.897559	1.658401
0.897656	1.658064
0.897754	1.657661
0.897852	1.657439
0.897949	1.657227
0.898047	1.656949
0.898145	1.656825
0.898242	1.656735
0.898340	1.656622
0.898437	1.656612
0.898535	1.656588
0.898633	1.656556
0.898730	1.656581
0.898828	1.656649
0.898926	1.656787
0.899023	1.656938
0.899121	1.657065
0.899219	1.657279
0.899316	1.657507
0.899414	1.657756
0.899512	1.657967
0.899609	1.658341
0.899707	1.658704
0.899805	1.659084
0.899902	1.659486
0.900000	1.659953
0.900098	1.660363
0.900195	1.660786
0.900293	1.661176
0.900391	1.661761
0.900488	1.662206
0.900586	1.662739
0.900684	1.663305
0.900781	1.663879
0.900879	1.664426
0.900977	1.665033
0.901074	1.665681
0.901172	1.666299
0.901270	1.666948
0.901367	1.667504
0.901465	1.668172
0.901562	1.668839
0.901660	1.669412
0.901758	1.669944
0.901855	1.670459
0.901953	1.670974
0.902051	1.671305
0.902148	1.671822
0.902246	1.672024
0.902344	1.672454
0.902441	1.672826
0.902539	1.673093
0.902637	1.673584
0.902734	1.673864
0.902832	1.674214
0.902930	1.674759
0.903027	1.675008
0.903125	1.675351
0.903223	1.675718
0.903320	1.676119
0.903418	1.676402
0.903516	1.676847
0.903613	1.677150
0.903711	1.677555
0.903809	1.678138
0.903906	1.678587
0.904004	1.679229
0.904102	1.679769
0.904199	1.680372
0.904297	1.680896
0.904395	1.681803
0.904492	1.682612
0.904590	1.683442
0.904687	1.684303
0.904785	1.685262
0.904883	1.686079
0.904980	1.687152
0.905078	1.688046
0.905176	1.688754
0.905273	1.688500
0.905371	1.688062
0.905469	1.688167
0.905566	1.688460
0.905664	1.688280
0.905762	1.687844
0.905859	1.686940
0.905957	1.685856
0.906055	1.684710
0.906152	1.683465
0.906250	1.682427
0.906348	1.681478
0.906445	1.680760
0.906543	1.680167
0.906641	1.679784
0.906738	1.679431
0.906836	1.679351
0.906934	1.679323
0.907031	1.679495
0.907129	1.679650
0.907227	1.679897
0.907324	1.680271
0.907422	1.680605
0.907520	1.681067
0.907617	1.681393
0.907715	1.681786
0.907812	1.682145
0.907910	1.682343
0.908008	1.682588
0.908105	1.682693
0.908203	1.682731
0.908301	1.682639
0.908398	1.682430
0.908496	1.681995
0.908594	1.681529
0.908691	1.681050
0.908789	1.680611
0.908887	1.680099
0.908984	1.679819
0.909082	1.679413
0.909180	1.679268
0.909277	1.679016
0.909375	1.678840
0.909473	1.678648
0.909570	1.678360
0.909668	1.678147
0.909766	1.677792
0.909863	1.677511
0.909961	1.677128
0.910059	1.676605
0.910156	1.676167
0.910254	1.675486
0.910352	1.674770
0.910449	1.674031
0.910547	1.673176
0.910645	1.672287
0.910742	1.671495
0.910840	1.670686
0.910937	1.670000
0.911035	1.669320
0.911133	1.668737
0.911230	1.668289
0.911328	1.667925
0.911426	1.667629
0.911523	1.667459
0.911621	1.667283
0.911719	1.667235
0.911816	1.667251
0.911914	1.667373
0.912012	1.667489
0.912109	1.667695
0.912207	1.667872
0.912305	1.668160
0.912402	1.668446
0.912500	1.668829
0.912598	1.669281
0.912695	1.669741
0.912793	1.670221
0.912891	1.670665
0.912988	1.671210
0.913086	1.671603
0.913184	1.672104
0.913281	1.672487
0.913379	1.673008
0.913477	1.673461
0.913574	1.673871
0.913672	1.674274
0.913770	1.674655
0.913867	1.675009
0.913965	1.675333
0.914062	1.675619
0.914160	1.675933
0.914258	1.676140
0.914355	1.676409
0.914453	1.676632
0.914551	1.676796
0.914648	1.677059
0.914746	1.677074
0.914844	1.677322
0.914941	1.677410
0.915039	1.677383
0.915137	1.677385
0.915234	1.677525
0.915332	1.677455
0.915430	1.677582
0.915527	1.677574
0.915625	1.677688
0.915723	1.677924
0.915820	1.678061
0.915918	1.678279
0.916016	1.678579
0.916113	1.678800
0.916211	1.679091
0.916309	1.679328
0.916406	1.679550
0.916504	1.679819
0.916602	1.679973
0.916699	1.680269
0.916797	1.680499
0.916895	1.680842
0.916992	1.681129
0.917090	1.681499
0.917187	1.681903
0.917285	1.682358
0.917383	1.682708
0.917480	1.683171
0.917578	1.683471
0.917676	1.683846
0.917773	1.684055
0.917871	1.684406
0.917969	1.684448
0.918066	1.684572
0.918164	1.684650
0.918262	1.684592
0.918359	1.684412
0.918457	1.684226
0.918555	1.684004
0.918652	1.683644
0.918750	1.683227
0.918848	1.682776
0.918945	1.682219
0.919043	1.681867
0.919141	1.681337
0.919238	1.680874
0.919336	1.680397
0.919434	1.679962
0.919531	1.679555
0.919629	1.679221
0.919727	1.678906
0.919824	1.678644
0.919922	1.678513
0.920020	1.678332
0.920117	1.678185
0.920215	1.678147
0.920312	1.678189
0.920410	1.678127
0.920508	1.678220
0.920605	1.678169
0.920703	1.678202
0.920801	1.678132
0.920898	1.677973
0.920996	1.677818
0.921094	1.677521
0.921191	1.677308
0.921289	1.677042
0.921387	1.676773
0.921484	1.676295
0.921582	1.676078
0.921680	1.675732
0.921777	1.675415
0.921875	1.675193
0.921973	1.674913
0.922070	1.674755
0.922168	1.674544
0.922266	1.674412
0.922363	1.674285
0.922461	1.674266
0.922559	1.674299
0.922656	1.674385
0.922754	1.674516
0.922852	1.674666
0.922949	1.674744
0.923047	1.674924
0.923145	1.675220
0.923242	1.675528
0.923340	1.675760
0.923437	1.676123
0.923535	1.676652
0.923633	1.677083
0.923730	1.677815
0.923828	1.678523
0.923926	1.679534
0.924023	1.680468
0.924121	1.681718
0.924219	1.683269
0.924316	1.686020
0.924414	1.688617
0.924512	1.686173
0.924609	1.685378
0.924707	1.678555
0.924805	1.676925
0.924902	1.677626
0.925000	1.676249
0.925098	1.674749
0.925195	1.673193
0.925293	1.672267
0.925391	1.671507
0.925488	1.671146
0.925586	1.670836
0.925684	1.670576
0.925781	1.670274
0.925879	1.670219
0.925977	1.669938
0.926074	1.669893
0.926172	1.669852
0.926270	1.669802
0.926367	1.669924
0.926465	1.669975
0.926562	1.670198
0.926660	1.670321
0.926758	1.670629
0.926855	1.670980
0.926953	1.671397
0.927051	1.671848
0.927148	1.672391
0.927246	1.672984
0.927344	1.673633
0.927441	1.674447
0.927539	1.675309
0.927637	1.676144
0.927734	1.677183
0.927832	1.678214
0.927930	1.679245
0.928027	1.680414
0.928125	1.681535
0.928223	1.682574
0.928320	1.683729
0.928418	1.684851
0.928516	1.685946
0.928613	1.687042
0.928711	1.688219
0.928809	1.689372
0.928906	1.690916
0.929004	1.692467
0.929102	1.694611
0.929199	1.696405
0.929297	1.697843
0.929395	1.695033
0.929492	1.695052
0.929590	1.698298
0.929687	1.698874
0.929785	1.699935
0.929883	1.699313
0.929980	1.698313
0.930078	1.697055
0.930176	1.695435
0.930273	1.694543
0.930371	1.693801
0.930469	1.693001
0.930566	1.691981
0.930664	1.690914
0.930762	1.689813
0.930859	1.688749
0.930957	1.687645
0.931055	1.686551
0.931152	1.685441
0.931250	1.684363
0.931348	1.683237
0.931445	1.682209
0.931543	1.681177
0.931641	1.680081
0.931738	1.679002
0.931836	1.677914
0.931934	1.676821
0.932031	1.675652
0.932129	1.674518
0.932227	1.673322
0.932324	1.672359
0.932422	1.671367
0.932520	1.670456
0.932617	1.669659
0.932715	1.668876
0.932812	1.668178
0.932910	1.667715
0.933008	1.666985
0.933105	1.666366
0.933203	1.666013
0.933301	1.665559
0.933398	1.665271
0.933496	1.664961
0.933594	1.664678
0.933691	1.664418
0.933789	1.664294
0.933887	1.664094
0.933984	1.664037
0.934082	1.664006
0.934180	1.664069
0.934277	1.664048
0.934375	1.664106
0.934473	1.664277
0.934570	1.664485
0.934668	1.664681
0.934766	1.664917
0.934863	1.665141
0.934961	1.665459
0.935059	1.665719
0.935156	1.666143
0.935254	1.666642
0.935352	1.666938
0.935449	1.667495
0.935547	1.667911
0.935645	1.668295
0.935742	1.668698
0.935840	1.669226
0.935937	1.669587
0.936035	1.669972
0.936133	1.670316
0.936230	1.670796
0.936328	1.671161
0.936426	1.671551
0.936523	1.671944
0.936621	1.672233
0.936719	1.672598
0.936816	1.672896
0.936914	1.673357
0.937012	1.673668
0.937109	1.674045
0.937207	1.674562
0.937305	1.674941
0.937402	1.675459
0.937500	1.676004
0.937598	1.676495
0.937695	1.677091
0.937793	1.677619
0.937891	1.678077
0.937988	1.678604
0.938086	1.678986
0.938184	1.679425
0.938281	1.679724
0.938379	1.680214
0.938477	1.680619
0.938574	1.681054
0.938672	1.681487
0.938770	1.681851
0.938867	1.682344
0.938965	1.682693
0.939062	1.683046
0.939160	1.683323
0.939258	1.683818
0.939355	1.684030
0.939453	1.684379
0.939551	1.684586
0.939648	1.684827
0.939746	1.684980
0.939844	1.685103
0.939941	1.685245
0.940039	1.685377
0.940137	1.685339
0.940234	1.685328
0.940332	1.685165
0.940430	1.685000
0.940527	1.684696
0.940625	1.684415
0.940723	1.684138
0.940820	1.683891
0.940918	1.683625
0.941016	1.683360
0.941113	1.683244
0.941211	1.683205
0.941309	1.683176
0.941406	1.683249
0.941504	1.683201
0.941602	1.683325
0.941699	1.683383
0.941797	1.683572
0.941895	1.683622
0.941992	1.683644
0.942090	1.683850
0.942187	1.683667
0.942285	1.683659
0.942383	1.683669
0.942480	1.683525
0.942578	1.683453
0.942676	1.683298
0.942773	1.683219
0.942871	1.683011
0.942969	1.682811
0.943066	1.682493
0.943164	1.682224
0.943262	1.681911
0.943359	1.681571
0.943457	1.681233
0.943555	1.680929
0.943652	1.680626
0.943750	1.680340
0.943848	1.679955
0.943945	1.679662
0.944043	1.679396
0.944141	1.679240
0.944238	1.678861
0.944336	1.678702
0.944434	1.678487
0.944531	1.678304
0.944629	1.678104
0.944727	1.677978
0.944824	1.677847
0.944922	1.677745
0.945020	1.677673
0.945117	1.677575
0.945215	1.677748
0.945312	1.677651
0.945410	1.677699
0.945508	1.677693
0.945605	1.677662
0.945703	1.677688
0.945801	1.677662
0.945898	1.677632
0.945996	1.677639
0.946094	1.677700
0.946191	1.677689
0.946289	1.677738
0.946387	1.677751
0.946484	1.677774
0.946582	1.677815
0.946680	1.677764
0.946777	1.677686
0.946875	1.677549
0.946973	1.677210
0.947070	1.676902
0.947168	1.676459
0.947266	1.676079
0.947363	1.675508
0.947461	1.675016
0.947559	1.674479
0.947656	1.673922
0.947754	1.673307
0.947852	1.672770
0.947949	1.672233
0.948047	1.671801
0.948145	1.671246
0.948242	1.670790
0.948340	1.670249
0.948437	1.669816
0.948535	1.669361
0.948633	1.668995
0.948730	1.668756
0.948828	1.668371
0.948926	1.668186
0.949023	1.668039
0.949121	1.667891
0.949219	1.667890
0.949316	1.667763
0.949414	1.667898
0.949512	1.667928
0.949609	1.668068
0.949707	1.668335
0.949805	1.668510
0.949902	1.668724
0.950000	1.669124
0.950098	1.669444
0.950195	1.669688
0.950293	1.670130
0.950391	1.670507
0.950488	1.670955
0.950586	1.671340
0.950684	1.671830
0.950781	1.672250
0.950879	1.672724
0.950977	1.673245
0.951074	1.673651
0.951172	1.674086
0.951270	1.674568
0.951367	1.675033
0.951465	1.675444
0.951562	1.675849
0.951660	1.676270
0.951758	1.676626
0.951855	1.676990
0.951953	1.677278
0.952051	1.677485
0.952148	1.677768
0.952246	1.677882
0.952344	1.678136
0.952441	1.678260
0.952539	1.678499
0.952637	1.678632
0.952734	1.678856
0.952832	1.679023
0.952930	1.679233
0.953027	1.679371
0.953125	1.679399
0.953223	1.679535
0.953320	1.679680
0.953418	1.679717
0.953516	1.679889
0.953613	1.680151
0.953711	1.680309
0.953809	1.680773
0.953906	1.681030
0.954004	1.681493
0.954102	1.681965
0.954199	1.682514
0.954297	1.682980
0.954395	1.683497
0.954492	1.684129
0.954590	1.684671
0.954687	1.685368
0.954785	1.686029
0.954883	1.686552
0.954980	1.687208
0.955078	1.687832
0.955176	1.688571
0.955273	1.689264
0.955371	1.690006
0.955469	1.690673
0.955566	1.691282
0.955664	1.691975
0.955762	1.692572
0.955859	1.693109
0.955957	1.693467
0.956055	1.693796
0.956152	1.693735
0.956250	1.693586
0.956348	1.693317
0.956445	1.693042
0.956543	1.692614
0.956641	1.692053
0.956738	1.691814
0.956836	1.691448
0.956934	1.691067
0.957031	1.690574
0.957129	1.689774
0.957227	1.688949
0.957324	1.687933
0.957422	1.686907
0.957520	1.685749
0.957617	1.684862
0.957715	1.683975
0.957812	1.683123
0.957910	1.682453
0.958008	1.681835
0.958105	1.681247
0.958203	1.680675
0.958301	1.680116
0.958398	1.679579
0.958496	1.678992
0.958594	1.678315
0.958691	1.677588
0.958789	1.676760
0.958887	1.675944
0.958984	1.674934
0.959082	1.674087
0.959180	1.672998
0.959277	1.671914
0.959375	1.670852
0.959473	1.669726
0.959570	1.668556
0.959668	1.667397
0.959766	1.666276
0.959863	1.665191
0.959961	1.664176
0.960059	1.663229
0.960156	1.662202
0.960254	1.661301
0.960352	1.660467
0.960449	1.659685
0.960547	1.658865
0.960645	1.658074
0.960742	1.657540
0.960840	1.656893
0.960937	1.656341
0.961035	1.655786
0.961133	1.655266
0.961230	1.654846
0.961328	1.654467
0.961426	1.653984
0.961523	1.653564
0.961621	1.653289
0.961719	1.652886
0.961816	1.652653
0.961914	1.652319
0.962012	1.652203
0.962109	1.651869
0.962207	1.651653
0.962305	1.651448
0.962402	1.651246
0.962500	1.651045
0.962598	1.651011
0.962695	1.650852
0.962793	1.650815
0.962891	1.650744
0.962988	1.650625
0.963086	1.650625
0.963184	1.650555
0.963281	1.650590
0.963379	1.650553
0.963477	1.650663
0.963574	1.650581
0.963672	1.650798
0.963770	1.650870
0.963867	1.651125
0.963965	1.651230
0.964062	1.651433
0.964160	1.651632
0.964258	1.651894
0.964355	1.652176
0.964453	1.652490
0.964551	1.652891
0.964648	1.653200
0.964746	1.653583
0.964844	1.654034
0.964941	1.654367
0.965039	1.654745
0.965137	1.655269
0.965234	1.655686
0.965332	1.656232
0.965430	1.656704
0.965527	1.657269
0.965625	1.657734
0.965723	1.658301
0.965820	1.658787
0.965918	1.659347
0.966016	1.659923
0.966113	1.660538
0.966211	1.661168
0.966309	1.661836
0.966406	1.662443
0.966504	1.663096
0.966602	1.663914
0.966699	1.664680
0.966797	1.665490
0.966895	1.666321
0.966992	1.667289
0.967090	1.668244
0.967187	1.669232
0.967285	1.670184
0.967383	1.671225
0.967480	1.672264
0.967578	1.673424
0.967676	1.674481
0.967773	1.675672
0.967871	1.676871
0.967969	1.678132
0.968066	1.679262
0.968164	1.680455
0.968262	1.681501
0.968359	1.682463
0.968457	1.683404
0.968555	1.684228
0.968652	1.685007
0.968750	1.685868
0.968848	1.686853
0.968945	1.687846
0.969043	1.689015
0.969141	1.690250
0.969238	1.691585
0.969336	1.693254
0.969434	1.695278
0.969531	1.696881
0.969629	1.696246
0.969727	1.694208
0.969824	1.692700
0.969922	1.693586
0.970020	1.692050
0.970117	1.689776
0.970215	1.690345
0.970312	1.690573
0.970410	1.690683
0.970508	1.690210
0.970605	1.689290
0.970703	1.687636
0.970801	1.685615
0.970898	1.684005
0.970996	1.683085
0.971094	1.682031
0.971191	1.680900
0.971289	1.679794
0.971387	1.678712
0.971484	1.677596
0.971582	1.676492
0.971680	1.675636
0.971777	1.674745
0.971875	1.674014
0.971973	1.673330
0.972070	1.672929
0.972168	1.672505
0.972266	1.672267
0.972363	1.672015
0.972461	1.671890
0.972559	1.671871
0.972656	1.671892
0.972754	1.671886
0.972852	1.672031
0.972949	1.672024
0.973047	1.671933
0.973145	1.671970
0.973242	1.671936
0.973340	1.671974
0.973437	1.671915
0.973535	1.671819
0.973633	1.671837
0.973730	1.671699
0.973828	1.671643
0.973926	1.671722
0.974023	1.671689
0.974121	1.671649
0.974219	1.671827
0.974316	1.671796
0.974414	1.671940
0.974512	1.672142
0.974609	1.672202
0.974707	1.672436
0.974805	1.672682
0.974902	1.672897
0.975000	1.673060
0.975098	1.673283
0.975195	1.673640
0.975293	1.674007
0.975391	1.674365
0.975488	1.674672
0.975586	1.675041
0.975684	1.675520
0.975781	1.675865
0.975879	1.676464
0.975977	1.677050
0.976074	1.677632
0.976172	1.678333
0.976270	1.679129
0.976367	1.680015
0.976465	1.680817

