LabVIEW Measurement	
Writer_Version	2
Reader_Version	2
Separator	Tab
Decimal_Separator	.
Multi_Headings	Yes
X_Columns	One
Time_Pref	Absolute
Operator	W-Tunnel
Date	1904/01/01
Time	01:00:00
***End_of_Header***	
	
Channels	1	
Samples	10000	
Date	2024/05/17	
Time	18:33:19.2095047562499039229	
Y_Unit_Label	Volts	
X_Dimension	Time	
X0	0.0000000000000000E+0	
Delta_X	9.765625E-5	
***End_of_Header***		
X_Value	Voltage	Comment
0.000000	1.693926
9.765625E-5	1.692235
0.000195	1.691625
0.000293	1.692144
0.000391	1.693591
0.000488	1.695626
0.000586	1.696933
0.000684	1.697065
0.000781	1.696241
0.000879	1.695299
0.000977	1.696063
0.001074	1.698364
0.001172	1.701911
0.001270	1.706256
0.001367	1.708826
0.001465	1.708552
0.001562	1.708235
0.001660	1.708206
0.001758	1.709039
0.001855	1.709539
0.001953	1.709701
0.002051	1.710554
0.002148	1.712262
0.002246	1.714037
0.002344	1.719248
0.002441	1.725157
0.002539	1.719566
0.002637	1.716018
0.002734	1.717148
0.002832	1.725817
0.002930	1.724738
0.003027	1.726274
0.003125	1.734241
0.003223	1.682188
0.003320	1.695224
0.003418	1.705524
0.003516	1.693213
0.003613	1.725420
0.003711	1.708626
0.003809	1.703248
0.003906	1.701502
0.004004	1.709673
0.004102	1.712043
0.004199	1.715470
0.004297	1.716402
0.004395	1.720333
0.004492	1.718819
0.004590	1.721023
0.004687	1.706151
0.004785	1.652534
0.004883	1.621504
0.004980	1.605703
0.005078	1.606930
0.005176	1.650106
0.005273	1.674484
0.005371	1.694436
0.005469	1.701060
0.005566	1.698329
0.005664	1.702402
0.005762	1.695045
0.005859	1.699072
0.005957	1.687831
0.006055	1.678888
0.006152	1.684234
0.006250	1.670692
0.006348	1.654029
0.006445	1.685676
0.006543	1.685602
0.006641	1.698193
0.006738	1.678316
0.006836	1.639270
0.006934	1.683761
0.007031	1.684886
0.007129	1.607751
0.007227	1.585037
0.007324	1.640915
0.007422	1.633022
0.007520	1.634683
0.007617	1.640214
0.007715	1.649992
0.007812	1.657542
0.007910	1.663731
0.008008	1.642981
0.008105	1.633123
0.008203	1.578221
0.008301	1.561937
0.008398	1.514653
0.008496	1.493569
0.008594	1.566283
0.008691	1.623212
0.008789	1.652441
0.008887	1.645023
0.008984	1.638562
0.009082	1.611440
0.009180	1.605080
0.009277	1.602927
0.009375	1.605257
0.009473	1.605371
0.009570	1.607882
0.009668	1.609250
0.009766	1.610998
0.009863	1.611238
0.009961	1.612622
0.010059	1.613119
0.010156	1.614129
0.010254	1.614440
0.010352	1.615461
0.010449	1.616113
0.010547	1.617509
0.010645	1.618796
0.010742	1.620500
0.010840	1.622193
0.010937	1.624108
0.011035	1.626072
0.011133	1.628252
0.011230	1.630882
0.011328	1.634028
0.011426	1.637675
0.011523	1.641734
0.011621	1.646311
0.011719	1.651144
0.011816	1.656227
0.011914	1.660903
0.012012	1.665282
0.012109	1.668019
0.012207	1.670107
0.012305	1.670564
0.012402	1.670816
0.012500	1.672918
0.012598	1.675963
0.012695	1.676217
0.012793	1.678063
0.012891	1.681972
0.012988	1.680179
0.013086	1.679697
0.013184	1.680914
0.013281	1.681291
0.013379	1.681472
0.013477	1.682850
0.013574	1.684170
0.013672	1.685668
0.013770	1.687889
0.013867	1.691346
0.013965	1.695756
0.014062	1.701122
0.014160	1.703726
0.014258	1.703821
0.014355	1.703142
0.014453	1.701543
0.014551	1.699585
0.014648	1.699054
0.014746	1.702736
0.014844	1.702358
0.014941	1.706689
0.015039	1.714276
0.015137	1.707027
0.015234	1.676440
0.015332	1.692433
0.015430	1.710766
0.015527	1.714026
0.015625	1.718560
0.015723	1.725298
0.015820	1.722201
0.015918	1.713415
0.016016	1.705654
0.016113	1.706854
0.016211	1.711361
0.016309	1.715138
0.016406	1.698121
0.016504	1.681859
0.016602	1.674464
0.016699	1.671237
0.016797	1.673953
0.016895	1.693028
0.016992	1.666787
0.017090	1.688357
0.017187	1.732561
0.017285	1.742146
0.017383	1.750483
0.017480	1.735964
0.017578	1.706006
0.017676	1.702357
0.017773	1.709046
0.017871	1.702275
0.017969	1.696809
0.018066	1.694941
0.018164	1.693692
0.018262	1.694969
0.018359	1.696227
0.018457	1.706968
0.018555	1.717323
0.018652	1.724597
0.018750	1.717406
0.018848	1.732338
0.018945	1.733459
0.019043	1.714301
0.019141	1.723396
0.019238	1.724460
0.019336	1.718863
0.019434	1.712506
0.019531	1.705932
0.019629	1.706373
0.019727	1.711199
0.019824	1.704248
0.019922	1.703579
0.020020	1.702864
0.020117	1.701011
0.020215	1.694256
0.020312	1.707419
0.020410	1.716350
0.020508	1.708248
0.020605	1.713474
0.020703	1.715693
0.020801	1.717657
0.020898	1.685916
0.020996	1.662063
0.021094	1.661689
0.021191	1.665106
0.021289	1.663244
0.021387	1.661925
0.021484	1.661359
0.021582	1.661006
0.021680	1.660502
0.021777	1.658242
0.021875	1.658098
0.021973	1.660197
0.022070	1.659089
0.022168	1.656244
0.022266	1.656058
0.022363	1.658097
0.022461	1.659890
0.022559	1.656513
0.022656	1.653840
0.022754	1.652683
0.022852	1.652633
0.022949	1.653849
0.023047	1.655916
0.023145	1.658418
0.023242	1.661628
0.023340	1.664996
0.023437	1.667971
0.023535	1.670080
0.023633	1.671525
0.023730	1.672698
0.023828	1.673673
0.023926	1.674669
0.024023	1.677051
0.024121	1.679249
0.024219	1.680720
0.024316	1.682380
0.024414	1.684432
0.024512	1.686342
0.024609	1.688287
0.024707	1.689312
0.024805	1.688595
0.024902	1.688126
0.025000	1.688221
0.025098	1.688798
0.025195	1.688060
0.025293	1.685352
0.025391	1.681496
0.025488	1.677805
0.025586	1.675188
0.025684	1.673945
0.025781	1.673545
0.025879	1.674005
0.025977	1.674600
0.026074	1.674896
0.026172	1.673939
0.026270	1.673202
0.026367	1.671848
0.026465	1.674596
0.026562	1.671089
0.026660	1.673364
0.026758	1.675191
0.026855	1.676546
0.026953	1.678973
0.027051	1.679363
0.027148	1.679644
0.027246	1.680880
0.027344	1.683809
0.027441	1.687900
0.027539	1.692943
0.027637	1.697687
0.027734	1.703204
0.027832	1.689772
0.027930	1.682047
0.028027	1.679452
0.028125	1.677085
0.028223	1.677143
0.028320	1.676932
0.028418	1.677347
0.028516	1.677410
0.028613	1.679364
0.028711	1.682166
0.028809	1.686920
0.028906	1.690576
0.029004	1.693870
0.029102	1.701516
0.029199	1.712432
0.029297	1.681807
0.029395	1.671633
0.029492	1.633921
0.029590	1.667594
0.029687	1.705233
0.029785	1.682177
0.029883	1.700930
0.029980	1.695518
0.030078	1.684357
0.030176	1.680806
0.030273	1.681143
0.030371	1.681718
0.030469	1.681890
0.030566	1.682780
0.030664	1.684753
0.030762	1.685415
0.030859	1.687645
0.030957	1.689915
0.031055	1.692653
0.031152	1.695991
0.031250	1.700553
0.031348	1.702561
0.031445	1.699983
0.031543	1.703909
0.031641	1.704237
0.031738	1.696725
0.031836	1.690484
0.031934	1.690001
0.032031	1.685583
0.032129	1.680745
0.032227	1.679429
0.032324	1.678792
0.032422	1.682446
0.032520	1.685271
0.032617	1.691032
0.032715	1.693264
0.032812	1.694896
0.032910	1.698973
0.033008	1.705886
0.033105	1.699115
0.033203	1.698254
0.033301	1.684203
0.033398	1.706562
0.033496	1.696824
0.033594	1.682892
0.033691	1.684134
0.033789	1.705686
0.033887	1.718160
0.033984	1.682030
0.034082	1.672478
0.034180	1.656944
0.034277	1.656071
0.034375	1.649195
0.034473	1.650396
0.034570	1.650562
0.034668	1.656108
0.034766	1.671181
0.034863	1.696672
0.034961	1.687017
0.035059	1.685411
0.035156	1.678218
0.035254	1.665539
0.035352	1.625369
0.035449	1.624465
0.035547	1.609261
0.035645	1.583023
0.035742	1.592943
0.035840	1.612806
0.035937	1.669207
0.036035	1.658105
0.036133	1.667929
0.036230	1.683144
0.036328	1.682074
0.036426	1.697782
0.036523	1.702777
0.036621	1.696011
0.036719	1.676169
0.036816	1.681932
0.036914	1.666702
0.037012	1.681062
0.037109	1.673169
0.037207	1.624463
0.037305	1.597613
0.037402	1.607460
0.037500	1.638267
0.037598	1.675606
0.037695	1.655125
0.037793	1.665478
0.037891	1.652255
0.037988	1.654623
0.038086	1.655975
0.038184	1.660162
0.038281	1.659821
0.038379	1.669241
0.038477	1.678398
0.038574	1.709143
0.038672	1.704677
0.038770	1.674163
0.038867	1.632934
0.038965	1.617296
0.039062	1.653231
0.039160	1.633618
0.039258	1.649978
0.039355	1.659153
0.039453	1.671003
0.039551	1.669252
0.039648	1.655765
0.039746	1.649568
0.039844	1.645085
0.039941	1.641325
0.040039	1.636563
0.040137	1.634227
0.040234	1.632705
0.040332	1.632084
0.040430	1.631371
0.040527	1.631185
0.040625	1.630910
0.040723	1.631043
0.040820	1.631207
0.040918	1.631580
0.041016	1.632158
0.041113	1.633286
0.041211	1.634426
0.041309	1.636126
0.041406	1.637525
0.041504	1.639213
0.041602	1.640761
0.041699	1.642751
0.041797	1.644811
0.041895	1.646955
0.041992	1.648725
0.042090	1.650118
0.042187	1.650600
0.042285	1.650357
0.042383	1.649913
0.042480	1.649789
0.042578	1.650049
0.042676	1.650981
0.042773	1.652387
0.042871	1.654060
0.042969	1.655980
0.043066	1.658129
0.043164	1.660604
0.043262	1.663194
0.043359	1.665879
0.043457	1.668238
0.043555	1.670537
0.043652	1.672859
0.043750	1.674808
0.043848	1.676478
0.043945	1.677685
0.044043	1.679047
0.044141	1.680687
0.044238	1.683032
0.044336	1.686491
0.044434	1.688749
0.044531	1.690330
0.044629	1.690046
0.044727	1.687514
0.044824	1.684774
0.044922	1.684614
0.045020	1.685776
0.045117	1.686782
0.045215	1.687457
0.045312	1.688060
0.045410	1.689399
0.045508	1.691026
0.045605	1.693298
0.045703	1.695155
0.045801	1.697039
0.045898	1.698055
0.045996	1.699233
0.046094	1.699392
0.046191	1.700383
0.046289	1.700516
0.046387	1.702441
0.046484	1.703853
0.046582	1.708026
0.046680	1.711166
0.046777	1.721137
0.046875	1.717326
0.046973	1.706179
0.047070	1.709690
0.047168	1.706248
0.047266	1.707221
0.047363	1.707556
0.047461	1.710232
0.047559	1.711641
0.047656	1.712933
0.047754	1.712385
0.047852	1.712141
0.047949	1.711447
0.048047	1.711680
0.048145	1.712485
0.048242	1.714014
0.048340	1.715068
0.048437	1.715771
0.048535	1.716150
0.048633	1.716230
0.048730	1.715253
0.048828	1.715183
0.048926	1.716115
0.049023	1.717827
0.049121	1.720093
0.049219	1.722360
0.049316	1.724434
0.049414	1.726355
0.049512	1.727423
0.049609	1.726582
0.049707	1.724752
0.049805	1.722394
0.049902	1.721300
0.050000	1.722153
0.050098	1.725019
0.050195	1.728976
0.050293	1.727835
0.050391	1.725167
0.050488	1.723709
0.050586	1.722482
0.050684	1.722246
0.050781	1.723277
0.050879	1.725062
0.050977	1.728251
0.051074	1.729567
0.051172	1.726991
0.051270	1.723907
0.051367	1.719335
0.051465	1.716091
0.051562	1.715090
0.051660	1.716666
0.051758	1.719476
0.051855	1.731485
0.051953	1.734300
0.052051	1.722601
0.052148	1.725352
0.052246	1.731634
0.052344	1.737782
0.052441	1.742479
0.052539	1.733439
0.052637	1.691370
0.052734	1.666824
0.052832	1.704809
0.052930	1.698115
0.053027	1.695879
0.053125	1.699433
0.053223	1.698206
0.053320	1.697558
0.053418	1.701165
0.053516	1.703079
0.053613	1.706091
0.053711	1.706505
0.053809	1.707773
0.053906	1.711630
0.054004	1.688451
0.054102	1.688374
0.054199	1.684072
0.054297	1.708604
0.054395	1.702401
0.054492	1.623403
0.054590	1.627333
0.054687	1.615614
0.054785	1.600484
0.054883	1.617047
0.054980	1.641730
0.055078	1.650486
0.055176	1.651853
0.055273	1.652426
0.055371	1.650092
0.055469	1.648371
0.055566	1.645771
0.055664	1.643672
0.055762	1.642057
0.055859	1.641727
0.055957	1.641759
0.056055	1.643086
0.056152	1.644736
0.056250	1.645568
0.056348	1.646328
0.056445	1.648541
0.056543	1.650899
0.056641	1.654928
0.056738	1.658673
0.056836	1.664766
0.056934	1.671726
0.057031	1.688403
0.057129	1.697525
0.057227	1.709887
0.057324	1.686143
0.057422	1.641979
0.057520	1.616679
0.057617	1.614321
0.057715	1.617986
0.057812	1.619413
0.057910	1.620295
0.058008	1.619593
0.058105	1.617227
0.058203	1.613566
0.058301	1.610173
0.058398	1.607647
0.058496	1.606624
0.058594	1.606286
0.058691	1.606590
0.058789	1.607149
0.058887	1.607881
0.058984	1.609095
0.059082	1.610612
0.059180	1.612358
0.059277	1.614317
0.059375	1.616487
0.059473	1.618950
0.059570	1.621237
0.059668	1.623611
0.059766	1.625707
0.059863	1.627472
0.059961	1.628929
0.060059	1.630163
0.060156	1.631190
0.060254	1.632189
0.060352	1.633159
0.060449	1.634448
0.060547	1.635668
0.060645	1.637236
0.060742	1.638859
0.060840	1.640801
0.060937	1.642931
0.061035	1.645417
0.061133	1.648137
0.061230	1.651304
0.061328	1.654837
0.061426	1.658987
0.061523	1.663602
0.061621	1.668302
0.061719	1.672995
0.061816	1.677449
0.061914	1.681161
0.062012	1.684016
0.062109	1.685788
0.062207	1.686918
0.062305	1.688146
0.062402	1.689794
0.062500	1.691089
0.062598	1.691629
0.062695	1.692168
0.062793	1.692662
0.062891	1.692832
0.062988	1.693163
0.063086	1.694366
0.063184	1.695599
0.063281	1.696100
0.063379	1.696148
0.063477	1.695942
0.063574	1.695691
0.063672	1.696112
0.063770	1.697305
0.063867	1.699889
0.063965	1.702826
0.064062	1.707520
0.064160	1.709585
0.064258	1.710219
0.064355	1.710443
0.064453	1.708958
0.064551	1.708006
0.064648	1.707913
0.064746	1.708656
0.064844	1.711303
0.064941	1.714648
0.065039	1.718738
0.065137	1.724346
0.065234	1.731559
0.065332	1.735497
0.065430	1.734875
0.065527	1.731155
0.065625	1.732447
0.065723	1.729965
0.065820	1.718396
0.065918	1.717155
0.066016	1.716358
0.066113	1.717749
0.066211	1.718286
0.066309	1.718621
0.066406	1.718765
0.066504	1.720039
0.066602	1.722923
0.066699	1.726607
0.066797	1.732309
0.066895	1.734972
0.066992	1.736752
0.067090	1.720462
0.067187	1.705282
0.067285	1.683379
0.067383	1.641607
0.067480	1.678200
0.067578	1.665994
0.067676	1.665692
0.067773	1.630951
0.067871	1.616394
0.067969	1.672007
0.068066	1.684158
0.068164	1.685494
0.068262	1.685462
0.068359	1.698272
0.068457	1.698678
0.068555	1.698650
0.068652	1.687420
0.068750	1.676160
0.068848	1.694408
0.068945	1.686850
0.069043	1.630695
0.069141	1.655017
0.069238	1.645241
0.069336	1.672801
0.069434	1.692660
0.069531	1.678538
0.069629	1.679305
0.069727	1.680649
0.069824	1.687079
0.069922	1.681763
0.070020	1.679312
0.070117	1.690023
0.070215	1.704317
0.070312	1.681338
0.070410	1.642025
0.070508	1.605433
0.070605	1.585876
0.070703	1.550896
0.070801	1.494881
0.070898	1.540977
0.070996	1.539046
0.071094	1.549108
0.071191	1.537279
0.071289	1.524683
0.071387	1.561566
0.071484	1.569665
0.071582	1.535899
0.071680	1.506963
0.071777	1.510677
0.071875	1.524781
0.071973	1.566450
0.072070	1.575867
0.072168	1.587173
0.072266	1.607237
0.072363	1.611215
0.072461	1.592635
0.072559	1.578688
0.072656	1.577829
0.072754	1.579594
0.072852	1.580700
0.072949	1.581302
0.073047	1.582716
0.073145	1.584169
0.073242	1.586137
0.073340	1.588413
0.073437	1.591243
0.073535	1.594251
0.073633	1.597637
0.073730	1.601168
0.073828	1.604297
0.073926	1.606752
0.074023	1.608760
0.074121	1.610475
0.074219	1.612070
0.074316	1.613830
0.074414	1.615746
0.074512	1.617667
0.074609	1.619778
0.074707	1.621765
0.074805	1.623675
0.074902	1.625719
0.075000	1.627816
0.075098	1.630188
0.075195	1.632869
0.075293	1.636390
0.075391	1.639994
0.075488	1.643918
0.075586	1.647573
0.075684	1.652023
0.075781	1.656435
0.075879	1.660476
0.075977	1.662554
0.076074	1.665452
0.076172	1.668975
0.076270	1.675458
0.076367	1.674075
0.076465	1.668458
0.076562	1.676713
0.076660	1.680305
0.076758	1.702423
0.076855	1.718878
0.076953	1.719466
0.077051	1.715124
0.077148	1.688661
0.077246	1.686707
0.077344	1.686771
0.077441	1.690037
0.077539	1.706165
0.077637	1.721079
0.077734	1.698301
0.077832	1.681475
0.077930	1.678118
0.078027	1.678232
0.078125	1.680604
0.078223	1.683723
0.078320	1.684181
0.078418	1.684990
0.078516	1.686286
0.078613	1.689137
0.078711	1.691305
0.078809	1.694147
0.078906	1.695659
0.079004	1.698269
0.079102	1.699466
0.079199	1.702723
0.079297	1.705435
0.079395	1.710800
0.079492	1.716983
0.079590	1.734683
0.079687	1.693003
0.079785	1.669388
0.079883	1.654596
0.079980	1.676118
0.080078	1.691327
0.080176	1.656955
0.080273	1.638464
0.080371	1.708413
0.080469	1.709718
0.080566	1.701529
0.080664	1.708594
0.080762	1.699899
0.080859	1.694353
0.080957	1.690553
0.081055	1.693776
0.081152	1.692863
0.081250	1.696039
0.081348	1.696164
0.081445	1.700189
0.081543	1.701077
0.081641	1.704191
0.081738	1.704286
0.081836	1.706911
0.081934	1.705825
0.082031	1.710965
0.082129	1.708793
0.082227	1.714629
0.082324	1.716233
0.082422	1.736718
0.082520	1.729788
0.082617	1.718137
0.082715	1.725625
0.082812	1.729488
0.082910	1.715307
0.083008	1.714649
0.083105	1.702066
0.083203	1.676358
0.083301	1.589056
0.083398	1.597062
0.083496	1.633078
0.083594	1.674384
0.083691	1.679531
0.083789	1.683591
0.083887	1.700844
0.083984	1.693569
0.084082	1.700737
0.084180	1.693014
0.084277	1.688658
0.084375	1.679570
0.084473	1.676144
0.084570	1.674858
0.084668	1.682721
0.084766	1.685701
0.084863	1.679520
0.084961	1.676387
0.085059	1.675999
0.085156	1.675249
0.085254	1.676128
0.085352	1.671461
0.085449	1.663301
0.085547	1.654081
0.085645	1.648629
0.085742	1.644611
0.085840	1.641883
0.085937	1.639254
0.086035	1.637893
0.086133	1.636985
0.086230	1.636830
0.086328	1.636802
0.086426	1.637098
0.086523	1.637871
0.086621	1.638906
0.086719	1.640399
0.086816	1.641987
0.086914	1.643732
0.087012	1.645015
0.087109	1.646483
0.087207	1.648244
0.087305	1.650870
0.087402	1.653655
0.087500	1.657614
0.087598	1.661641
0.087695	1.668103
0.087793	1.674582
0.087891	1.687401
0.087988	1.688374
0.088086	1.687979
0.088184	1.689211
0.088281	1.692169
0.088379	1.694978
0.088477	1.693360
0.088574	1.690157
0.088672	1.695261
0.088770	1.704435
0.088867	1.699564
0.088965	1.695388
0.089062	1.690870
0.089160	1.680720
0.089258	1.680959
0.089355	1.678280
0.089453	1.677598
0.089551	1.677560
0.089648	1.678178
0.089746	1.679567
0.089844	1.681721
0.089941	1.684991
0.090039	1.689016
0.090137	1.693510
0.090234	1.698684
0.090332	1.705335
0.090430	1.707445
0.090527	1.705058
0.090625	1.706070
0.090723	1.708918
0.090820	1.712120
0.090918	1.715108
0.091016	1.717760
0.091113	1.715573
0.091211	1.712129
0.091309	1.706413
0.091406	1.700719
0.091504	1.694865
0.091602	1.688347
0.091699	1.683548
0.091797	1.679356
0.091895	1.676635
0.091992	1.676841
0.092090	1.675923
0.092187	1.675326
0.092285	1.679523
0.092383	1.682355
0.092480	1.680758
0.092578	1.678695
0.092676	1.678451
0.092773	1.678957
0.092871	1.678878
0.092969	1.677641
0.093066	1.676177
0.093164	1.673371
0.093262	1.670858
0.093359	1.667549
0.093457	1.663868
0.093555	1.660587
0.093652	1.657650
0.093750	1.655222
0.093848	1.653420
0.093945	1.652161
0.094043	1.651297
0.094141	1.650672
0.094238	1.650045
0.094336	1.649696
0.094434	1.649481
0.094531	1.649215
0.094629	1.649308
0.094727	1.649433
0.094824	1.649704
0.094922	1.650181
0.095020	1.650568
0.095117	1.651064
0.095215	1.651596
0.095312	1.652122
0.095410	1.652636
0.095508	1.653292
0.095605	1.654022
0.095703	1.654914
0.095801	1.656256
0.095898	1.657929
0.095996	1.660006
0.096094	1.662281
0.096191	1.664623
0.096289	1.666971
0.096387	1.669311
0.096484	1.671654
0.096582	1.673237
0.096680	1.673390
0.096777	1.672333
0.096875	1.670881
0.096973	1.669858
0.097070	1.669635
0.097168	1.670106
0.097266	1.671209
0.097363	1.672666
0.097461	1.674597
0.097559	1.676605
0.097656	1.678955
0.097754	1.681319
0.097852	1.683503
0.097949	1.685371
0.098047	1.686682
0.098145	1.687521
0.098242	1.688374
0.098340	1.689378
0.098437	1.690702
0.098535	1.692229
0.098633	1.693983
0.098730	1.695852
0.098828	1.697963
0.098926	1.700221
0.099023	1.702648
0.099121	1.705079
0.099219	1.706932
0.099316	1.707578
0.099414	1.707922
0.099512	1.708873
0.099609	1.709825
0.099707	1.711240
0.099805	1.713333
0.099902	1.714380
0.100000	1.712723
0.100098	1.712006
0.100195	1.713200
0.100293	1.715068
0.100391	1.717173
0.100488	1.718770
0.100586	1.718537
0.100684	1.718801
0.100781	1.718000
0.100879	1.711869
0.100977	1.711138
0.101074	1.714722
0.101172	1.711107
0.101270	1.710437
0.101367	1.713693
0.101465	1.717006
0.101562	1.720442
0.101660	1.725904
0.101758	1.732970
0.101855	1.727091
0.101953	1.719755
0.102051	1.716366
0.102148	1.715163
0.102246	1.719133
0.102344	1.707222
0.102441	1.696259
0.102539	1.684294
0.102637	1.679698
0.102734	1.674645
0.102832	1.672918
0.102930	1.671430
0.103027	1.675054
0.103125	1.679148
0.103223	1.686889
0.103320	1.678183
0.103418	1.650681
0.103516	1.604346
0.103613	1.607127
0.103711	1.629131
0.103809	1.633839
0.103906	1.584478
0.104004	1.594924
0.104102	1.599731
0.104199	1.567023
0.104297	1.623770
0.104395	1.652755
0.104492	1.670122
0.104590	1.674209
0.104687	1.682792
0.104785	1.686845
0.104883	1.694804
0.104980	1.700456
0.105078	1.710136
0.105176	1.718409
0.105273	1.719788
0.105371	1.718217
0.105469	1.722623
0.105566	1.723369
0.105664	1.719415
0.105762	1.720655
0.105859	1.720981
0.105957	1.734980
0.106055	1.717167
0.106152	1.710026
0.106250	1.699324
0.106348	1.677798
0.106445	1.643208
0.106543	1.653982
0.106641	1.664525
0.106738	1.692369
0.106836	1.693732
0.106934	1.653312
0.107031	1.663690
0.107129	1.652006
0.107227	1.688174
0.107324	1.682294
0.107422	1.677253
0.107520	1.673907
0.107617	1.650585
0.107715	1.640852
0.107812	1.690262
0.107910	1.671239
0.108008	1.664887
0.108105	1.667475
0.108203	1.688170
0.108301	1.666491
0.108398	1.634521
0.108496	1.629925
0.108594	1.630296
0.108691	1.620715
0.108789	1.627758
0.108887	1.639273
0.108984	1.645131
0.109082	1.653468
0.109180	1.665653
0.109277	1.664378
0.109375	1.639785
0.109473	1.640448
0.109570	1.640098
0.109668	1.655668
0.109766	1.691759
0.109863	1.686466
0.109961	1.663532
0.110059	1.655521
0.110156	1.661498
0.110254	1.660489
0.110352	1.662104
0.110449	1.661332
0.110547	1.662492
0.110645	1.662471
0.110742	1.663596
0.110840	1.663450
0.110937	1.663365
0.111035	1.661723
0.111133	1.660590
0.111230	1.659917
0.111328	1.660474
0.111426	1.661607
0.111523	1.663494
0.111621	1.665935
0.111719	1.669450
0.111816	1.673954
0.111914	1.679306
0.112012	1.684237
0.112109	1.685169
0.112207	1.682214
0.112305	1.679037
0.112402	1.676556
0.112500	1.674885
0.112598	1.674257
0.112695	1.674697
0.112793	1.675968
0.112891	1.677738
0.112988	1.679724
0.113086	1.681562
0.113184	1.683060
0.113281	1.684168
0.113379	1.685487
0.113477	1.686709
0.113574	1.687053
0.113672	1.686507
0.113770	1.685685
0.113867	1.685102
0.113965	1.684609
0.114062	1.684559
0.114160	1.684901
0.114258	1.685667
0.114355	1.687019
0.114453	1.688756
0.114551	1.690338
0.114648	1.691480
0.114746	1.692494
0.114844	1.693722
0.114941	1.695483
0.115039	1.697567
0.115137	1.698958
0.115234	1.698835
0.115332	1.698029
0.115430	1.696427
0.115527	1.694222
0.115625	1.691208
0.115723	1.688393
0.115820	1.686517
0.115918	1.685979
0.116016	1.686573
0.116113	1.688035
0.116211	1.689394
0.116309	1.690458
0.116406	1.690684
0.116504	1.691031
0.116602	1.691421
0.116699	1.692471
0.116797	1.692811
0.116895	1.694352
0.116992	1.694719
0.117090	1.696393
0.117187	1.698644
0.117285	1.699593
0.117383	1.687616
0.117480	1.684205
0.117578	1.684432
0.117676	1.682938
0.117773	1.682448
0.117871	1.680797
0.117969	1.681720
0.118066	1.683020
0.118164	1.686253
0.118262	1.688129
0.118359	1.690650
0.118457	1.691623
0.118555	1.695167
0.118652	1.696240
0.118750	1.700659
0.118848	1.703053
0.118945	1.709096
0.119043	1.711217
0.119141	1.721918
0.119238	1.715263
0.119336	1.708847
0.119434	1.700900
0.119531	1.714514
0.119629	1.705092
0.119727	1.696484
0.119824	1.696257
0.119922	1.693542
0.120020	1.694033
0.120117	1.681610
0.120215	1.688935
0.120312	1.682098
0.120410	1.687790
0.120508	1.690203
0.120605	1.690288
0.120703	1.689255
0.120801	1.687977
0.120898	1.689890
0.120996	1.688400
0.121094	1.699354
0.121191	1.692510
0.121289	1.688641
0.121387	1.676047
0.121484	1.654136
0.121582	1.662555
0.121680	1.672006
0.121777	1.687376
0.121875	1.670630
0.121973	1.688520
0.122070	1.671397
0.122168	1.664385
0.122266	1.657775
0.122363	1.654988
0.122461	1.650545
0.122559	1.648905
0.122656	1.644468
0.122754	1.645271
0.122852	1.644177
0.122949	1.644817
0.123047	1.642066
0.123145	1.639337
0.123242	1.636763
0.123340	1.636081
0.123437	1.635121
0.123535	1.634446
0.123633	1.633169
0.123730	1.632065
0.123828	1.630548
0.123926	1.629533
0.124023	1.628709
0.124121	1.628137
0.124219	1.627588
0.124316	1.627279
0.124414	1.627190
0.124512	1.627495
0.124609	1.628047
0.124707	1.628383
0.124805	1.628422
0.124902	1.628242
0.125000	1.627691
0.125098	1.627098
0.125195	1.626047
0.125293	1.625019
0.125391	1.624087
0.125488	1.623527
0.125586	1.623423
0.125684	1.623867
0.125781	1.624552
0.125879	1.625651
0.125977	1.626899
0.126074	1.628425
0.126172	1.630190
0.126270	1.631932
0.126367	1.633808
0.126465	1.635655
0.126562	1.637449
0.126660	1.639033
0.126758	1.640273
0.126855	1.641236
0.126953	1.642139
0.127051	1.642985
0.127148	1.644198
0.127246	1.645600
0.127344	1.647149
0.127441	1.648908
0.127539	1.650648
0.127637	1.652508
0.127734	1.654504
0.127832	1.656537
0.127930	1.658413
0.128027	1.660538
0.128125	1.662995
0.128223	1.665606
0.128320	1.668018
0.128418	1.669852
0.128516	1.670892
0.128613	1.671299
0.128711	1.671408
0.128809	1.671558
0.128906	1.672134
0.129004	1.673330
0.129102	1.675221
0.129199	1.677300
0.129297	1.679336
0.129395	1.680992
0.129492	1.681972
0.129590	1.682605
0.129687	1.683227
0.129785	1.684019
0.129883	1.684982
0.129980	1.686369
0.130078	1.687974
0.130176	1.689649
0.130273	1.690860
0.130371	1.691715
0.130469	1.692454
0.130566	1.692736
0.130664	1.693005
0.130762	1.693645
0.130859	1.694456
0.130957	1.695357
0.131055	1.696333
0.131152	1.697208
0.131250	1.698115
0.131348	1.699330
0.131445	1.700844
0.131543	1.702552
0.131641	1.704456
0.131738	1.706561
0.131836	1.708216
0.131934	1.709541
0.132031	1.710469
0.132129	1.710819
0.132227	1.710885
0.132324	1.711089
0.132422	1.711786
0.132520	1.713070
0.132617	1.714571
0.132715	1.716088
0.132812	1.716965
0.132910	1.717059
0.133008	1.716788
0.133105	1.717249
0.133203	1.718763
0.133301	1.720827
0.133398	1.723001
0.133496	1.724654
0.133594	1.725395
0.133691	1.724080
0.133789	1.723200
0.133887	1.724132
0.133984	1.726623
0.134082	1.727384
0.134180	1.727852
0.134277	1.729885
0.134375	1.733593
0.134473	1.730480
0.134570	1.732051
0.134668	1.732751
0.134766	1.726404
0.134863	1.723889
0.134961	1.728869
0.135059	1.730759
0.135156	1.731092
0.135254	1.730686
0.135352	1.740560
0.135449	1.712209
0.135547	1.673236
0.135645	1.657885
0.135742	1.668156
0.135840	1.704589
0.135937	1.681550
0.136035	1.676114
0.136133	1.625395
0.136230	1.615363
0.136328	1.665916
0.136426	1.609632
0.136523	1.593069
0.136621	1.603485
0.136719	1.589572
0.136816	1.633170
0.136914	1.636500
0.137012	1.655457
0.137109	1.671999
0.137207	1.677320
0.137305	1.677737
0.137402	1.673476
0.137500	1.674305
0.137598	1.682333
0.137695	1.678797
0.137793	1.675412
0.137891	1.677835
0.137988	1.678485
0.138086	1.681398
0.138184	1.701420
0.138281	1.668978
0.138379	1.624879
0.138477	1.639127
0.138574	1.627567
0.138672	1.619610
0.138770	1.617364
0.138867	1.630760
0.138965	1.630146
0.139062	1.621487
0.139160	1.606924
0.139258	1.570932
0.139355	1.469592
0.139453	1.468015
0.139551	1.536672
0.139648	1.533138
0.139746	1.486410
0.139844	1.422614
0.139941	1.383819
0.140039	1.385770
0.140137	1.409814
0.140234	1.440408
0.140332	1.545882
0.140430	1.556667
0.140527	1.547849
0.140625	1.536502
0.140723	1.560330
0.140820	1.582317
0.140918	1.561372
0.141016	1.509556
0.141113	1.580385
0.141211	1.613164
0.141309	1.613247
0.141406	1.619485
0.141504	1.614388
0.141602	1.614701
0.141699	1.614313
0.141797	1.612597
0.141895	1.597824
0.141992	1.589755
0.142090	1.587746
0.142187	1.585600
0.142285	1.584556
0.142383	1.585754
0.142480	1.587816
0.142578	1.590168
0.142676	1.592103
0.142773	1.593901
0.142871	1.595713
0.142969	1.597583
0.143066	1.599681
0.143164	1.601994
0.143262	1.604413
0.143359	1.606928
0.143457	1.609794
0.143555	1.612574
0.143652	1.615395
0.143750	1.618157
0.143848	1.620841
0.143945	1.623370
0.144043	1.625938
0.144141	1.628292
0.144238	1.630794
0.144336	1.633188
0.144434	1.635678
0.144531	1.638074
0.144629	1.640617
0.144727	1.642863
0.144824	1.645350
0.144922	1.647679
0.145020	1.650018
0.145117	1.652464
0.145215	1.654763
0.145312	1.657167
0.145410	1.659516
0.145508	1.661870
0.145605	1.664161
0.145703	1.666456
0.145801	1.668637
0.145898	1.670819
0.145996	1.672881
0.146094	1.674948
0.146191	1.676954
0.146289	1.679113
0.146387	1.681223
0.146484	1.683482
0.146582	1.686048
0.146680	1.688570
0.146777	1.691404
0.146875	1.694240
0.146973	1.697043
0.147070	1.699535
0.147168	1.702020
0.147266	1.703833
0.147363	1.703533
0.147461	1.702693
0.147559	1.703027
0.147656	1.704385
0.147754	1.706597
0.147852	1.708790
0.147949	1.709751
0.148047	1.709437
0.148145	1.708591
0.148242	1.708243
0.148340	1.708897
0.148437	1.710848
0.148535	1.711094
0.148633	1.709983
0.148730	1.709549
0.148828	1.710274
0.148926	1.712155
0.149023	1.714262
0.149121	1.715822
0.149219	1.716782
0.149316	1.715951
0.149414	1.714871
0.149512	1.715871
0.149609	1.717702
0.149707	1.719514
0.149805	1.720942
0.149902	1.721856
0.150000	1.721714
0.150098	1.721053
0.150195	1.720774
0.150293	1.721480
0.150391	1.722275
0.150488	1.722457
0.150586	1.722491
0.150684	1.724082
0.150781	1.723249
0.150879	1.718492
0.150977	1.716865
0.151074	1.711053
0.151172	1.713523
0.151270	1.713558
0.151367	1.714536
0.151465	1.724456
0.151562	1.720924
0.151660	1.714238
0.151758	1.709269
0.151855	1.709407
0.151953	1.710179
0.152051	1.709025
0.152148	1.708984
0.152246	1.709717
0.152344	1.711132
0.152441	1.707907
0.152539	1.706912
0.152637	1.704148
0.152734	1.710895
0.152832	1.719113
0.152930	1.750963
0.153027	1.711943
0.153125	1.675471
0.153223	1.666237
0.153320	1.634319
0.153418	1.652705
0.153516	1.668676
0.153613	1.677937
0.153711	1.675467
0.153809	1.663294
0.153906	1.657770
0.154004	1.655195
0.154102	1.656570
0.154199	1.657750
0.154297	1.657419
0.154395	1.655147
0.154492	1.653769
0.154590	1.653768
0.154687	1.653663
0.154785	1.652639
0.154883	1.651574
0.154980	1.650275
0.155078	1.649357
0.155176	1.648683
0.155273	1.648688
0.155371	1.648058
0.155469	1.646972
0.155566	1.645421
0.155664	1.643287
0.155762	1.638650
0.155859	1.632371
0.155957	1.626658
0.156055	1.622285
0.156152	1.619549
0.156250	1.618049
0.156348	1.617395
0.156445	1.617573
0.156543	1.618360
0.156641	1.619361
0.156738	1.620082
0.156836	1.620474
0.156934	1.619796
0.157031	1.618959
0.157129	1.619116
0.157227	1.618578
0.157324	1.609743
0.157422	1.597588
0.157520	1.593261
0.157617	1.593316
0.157715	1.594820
0.157812	1.594734
0.157910	1.594112
0.158008	1.592543
0.158105	1.590667
0.158203	1.588530
0.158301	1.586850
0.158398	1.585977
0.158496	1.585588
0.158594	1.585761
0.158691	1.586229
0.158789	1.586865
0.158887	1.587709
0.158984	1.588679
0.159082	1.589800
0.159180	1.591105
0.159277	1.592507
0.159375	1.594083
0.159473	1.595802
0.159570	1.597710
0.159668	1.599691
0.159766	1.601838
0.159863	1.604135
0.159961	1.606436
0.160059	1.608850
0.160156	1.611324
0.160254	1.613821
0.160352	1.616337
0.160449	1.618993
0.160547	1.621488
0.160645	1.624137
0.160742	1.626787
0.160840	1.629390
0.160937	1.632002
0.161035	1.634670
0.161133	1.637349
0.161230	1.639880
0.161328	1.642473
0.161426	1.644965
0.161523	1.647420
0.161621	1.649921
0.161719	1.652258
0.161816	1.654865
0.161914	1.657344
0.162012	1.659823
0.162109	1.662520
0.162207	1.664980
0.162305	1.667659
0.162402	1.670335
0.162500	1.673081
0.162598	1.675880
0.162695	1.678576
0.162793	1.681369
0.162891	1.684110
0.162988	1.686842
0.163086	1.689568
0.163184	1.692343
0.163281	1.694853
0.163379	1.697212
0.163477	1.699477
0.163574	1.701844
0.163672	1.704016
0.163770	1.705294
0.163867	1.705975
0.163965	1.706675
0.164062	1.708200
0.164160	1.710151
0.164258	1.712503
0.164355	1.714718
0.164453	1.716076
0.164551	1.717316
0.164648	1.719508
0.164746	1.722706
0.164844	1.726439
0.164941	1.729883
0.165039	1.732053
0.165137	1.733205
0.165234	1.733835
0.165332	1.734553
0.165430	1.733131
0.165527	1.727863
0.165625	1.721792
0.165723	1.718734
0.165820	1.719267
0.165918	1.722108
0.166016	1.723443
0.166113	1.721391
0.166211	1.720351
0.166309	1.720674
0.166406	1.722183
0.166504	1.721901
0.166602	1.723465
0.166699	1.722915
0.166797	1.724264
0.166895	1.724959
0.166992	1.726476
0.167090	1.721151
0.167187	1.716425
0.167285	1.712145
0.167383	1.714492
0.167480	1.717151
0.167578	1.744156
0.167676	1.742807
0.167773	1.733316
0.167871	1.708377
0.167969	1.708780
0.168066	1.746031
0.168164	1.754879
0.168262	1.736215
0.168359	1.710556
0.168457	1.724416
0.168555	1.711506
0.168652	1.672559
0.168750	1.663274
0.168848	1.642054
0.168945	1.653245
0.169043	1.660934
0.169141	1.625143
0.169238	1.620976
0.169336	1.643745
0.169434	1.624571
0.169531	1.563225
0.169629	1.550291
0.169727	1.581922
0.169824	1.580950
0.169922	1.595419
0.170020	1.587234
0.170117	1.546680
0.170215	1.592142
0.170312	1.595168
0.170410	1.556163
0.170508	1.582820
0.170605	1.590294
0.170703	1.541261
0.170801	1.559061
0.170898	1.587793
0.170996	1.564735
0.171094	1.593327
0.171191	1.562776
0.171289	1.529898
0.171387	1.539615
0.171484	1.532398
0.171582	1.559179
0.171680	1.577927
0.171777	1.569852
0.171875	1.551368
0.171973	1.548610
0.172070	1.538624
0.172168	1.530653
0.172266	1.533675
0.172363	1.525060
0.172461	1.534209
0.172559	1.545766
0.172656	1.557472
0.172754	1.566555
0.172852	1.573766
0.172949	1.577926
0.173047	1.581738
0.173145	1.584768
0.173242	1.588053
0.173340	1.590689
0.173437	1.593417
0.173535	1.595855
0.173633	1.598287
0.173730	1.600590
0.173828	1.602988
0.173926	1.605474
0.174023	1.608223
0.174121	1.611087
0.174219	1.614218
0.174316	1.617730
0.174414	1.621468
0.174512	1.625070
0.174609	1.628619
0.174707	1.631525
0.174805	1.634025
0.174902	1.636228
0.175000	1.638119
0.175098	1.640138
0.175195	1.642250
0.175293	1.644630
0.175391	1.647425
0.175488	1.650475
0.175586	1.653682
0.175684	1.656842
0.175781	1.659789
0.175879	1.662555
0.175977	1.665061
0.176074	1.667387
0.176172	1.669436
0.176270	1.671415
0.176367	1.673646
0.176465	1.676319
0.176562	1.679461
0.176660	1.683157
0.176758	1.687373
0.176855	1.691421
0.176953	1.694884
0.177051	1.697766
0.177148	1.700345
0.177246	1.703042
0.177344	1.704478
0.177441	1.705132
0.177539	1.705291
0.177637	1.706071
0.177734	1.707342
0.177832	1.708808
0.177930	1.709695
0.178027	1.709660
0.178125	1.709412
0.178223	1.710577
0.178320	1.712930
0.178418	1.716544
0.178516	1.719843
0.178613	1.723207
0.178711	1.727738
0.178809	1.729303
0.178906	1.728581
0.179004	1.728770
0.179102	1.730060
0.179199	1.731772
0.179297	1.734510
0.179395	1.735357
0.179492	1.698724
0.179590	1.674273
0.179687	1.675394
0.179785	1.715929
0.179883	1.732493
0.179980	1.727171
0.180078	1.720049
0.180176	1.726834
0.180273	1.719285
0.180371	1.704802
0.180469	1.688234
0.180566	1.684741
0.180664	1.680138
0.180762	1.677864
0.180859	1.678158
0.180957	1.680152
0.181055	1.680699
0.181152	1.678592
0.181250	1.674679
0.181348	1.672364
0.181445	1.672529
0.181543	1.677463
0.181641	1.685497
0.181738	1.685353
0.181836	1.656598
0.181934	1.647662
0.182031	1.655413
0.182129	1.655992
0.182227	1.653790
0.182324	1.641328
0.182422	1.633682
0.182520	1.626962
0.182617	1.623530
0.182715	1.617738
0.182812	1.610039
0.182910	1.603293
0.183008	1.599989
0.183105	1.599292
0.183203	1.600329
0.183301	1.601570
0.183398	1.602692
0.183496	1.603571
0.183594	1.604334
0.183691	1.605195
0.183789	1.606038
0.183887	1.607181
0.183984	1.608411
0.184082	1.609938
0.184180	1.611659
0.184277	1.613598
0.184375	1.615740
0.184473	1.618140
0.184570	1.620622
0.184668	1.623255
0.184766	1.625946
0.184863	1.628782
0.184961	1.631586
0.185059	1.634276
0.185156	1.636900
0.185254	1.639620
0.185352	1.642257
0.185449	1.644780
0.185547	1.647206
0.185645	1.649668
0.185742	1.652142
0.185840	1.654670
0.185937	1.657398
0.186035	1.660310
0.186133	1.663294
0.186230	1.666108
0.186328	1.668831
0.186426	1.671321
0.186523	1.673596
0.186621	1.675549
0.186719	1.677095
0.186816	1.678847
0.186914	1.680705
0.187012	1.683049
0.187109	1.685988
0.187207	1.689241
0.187305	1.692475
0.187402	1.695083
0.187500	1.697001
0.187598	1.698771
0.187695	1.700451
0.187793	1.701595
0.187891	1.702454
0.187988	1.703022
0.188086	1.704275
0.188184	1.706204
0.188281	1.709010
0.188379	1.712423
0.188477	1.717186
0.188574	1.723271
0.188672	1.726656
0.188770	1.730200
0.188867	1.733247
0.188965	1.720611
0.189062	1.713347
0.189160	1.712956
0.189258	1.710114
0.189355	1.718381
0.189453	1.713885
0.189551	1.710268
0.189648	1.708851
0.189746	1.710022
0.189844	1.711636
0.189941	1.715051
0.190039	1.717073
0.190137	1.718884
0.190234	1.721560
0.190332	1.726025
0.190430	1.731849
0.190527	1.727795
0.190625	1.732125
0.190723	1.731907
0.190820	1.722048
0.190918	1.717350
0.191016	1.716253
0.191113	1.716190
0.191211	1.680813
0.191309	1.681002
0.191406	1.705716
0.191504	1.697758
0.191602	1.683778
0.191699	1.675882
0.191797	1.668781
0.191895	1.676666
0.191992	1.680044
0.192090	1.656668
0.192187	1.653933
0.192285	1.665926
0.192383	1.660786
0.192480	1.665788
0.192578	1.670970
0.192676	1.674002
0.192773	1.673031
0.192871	1.673710
0.192969	1.672837
0.193066	1.669763
0.193164	1.668704
0.193262	1.668424
0.193359	1.667605
0.193457	1.664843
0.193555	1.661055
0.193652	1.658706
0.193750	1.658081
0.193848	1.658453
0.193945	1.657825
0.194043	1.656545
0.194141	1.656492
0.194238	1.657545
0.194336	1.659956
0.194434	1.663810
0.194531	1.669188
0.194629	1.675418
0.194727	1.681834
0.194824	1.688305
0.194922	1.692859
0.195020	1.695304
0.195117	1.691105
0.195215	1.683061
0.195312	1.679269
0.195410	1.674960
0.195508	1.668624
0.195605	1.660365
0.195703	1.653597
0.195801	1.648663
0.195898	1.644965
0.195996	1.642494
0.196094	1.640941
0.196191	1.640248
0.196289	1.640189
0.196387	1.640546
0.196484	1.641099
0.196582	1.641533
0.196680	1.642167
0.196777	1.642898
0.196875	1.644212
0.196973	1.645933
0.197070	1.648162
0.197168	1.651554
0.197266	1.655961
0.197363	1.661200
0.197461	1.666632
0.197559	1.671154
0.197656	1.674111
0.197754	1.675683
0.197852	1.677072
0.197949	1.677939
0.198047	1.678685
0.198145	1.680803
0.198242	1.683933
0.198340	1.686642
0.198437	1.685782
0.198535	1.678335
0.198633	1.669405
0.198730	1.669036
0.198828	1.668239
0.198926	1.667660
0.199023	1.668580
0.199121	1.670553
0.199219	1.672813
0.199316	1.674880
0.199414	1.676768
0.199512	1.678185
0.199609	1.679235
0.199707	1.679998
0.199805	1.680874
0.199902	1.682401
0.200000	1.684598
0.200098	1.687715
0.200195	1.691716
0.200293	1.693819
0.200391	1.697105
0.200488	1.695441
0.200586	1.695715
0.200684	1.699693
0.200781	1.700828
0.200879	1.700023
0.200977	1.699893
0.201074	1.699987
0.201172	1.698739
0.201270	1.697044
0.201367	1.695162
0.201465	1.692422
0.201562	1.690718
0.201660	1.690771
0.201758	1.692199
0.201855	1.693903
0.201953	1.694558
0.202051	1.694326
0.202148	1.694146
0.202246	1.694634
0.202344	1.695784
0.202441	1.697825
0.202539	1.701027
0.202637	1.704476
0.202734	1.707506
0.202832	1.709648
0.202930	1.710144
0.203027	1.710679
0.203125	1.711632
0.203223	1.711860
0.203320	1.711193
0.203418	1.710800
0.203516	1.710331
0.203613	1.709240
0.203711	1.708248
0.203809	1.707416
0.203906	1.706672
0.204004	1.706100
0.204102	1.707486
0.204199	1.708083
0.204297	1.706144
0.204395	1.705019
0.204492	1.704557
0.204590	1.703039
0.204687	1.701272
0.204785	1.699129
0.204883	1.697152
0.204980	1.695624
0.205078	1.694893
0.205176	1.693820
0.205273	1.692153
0.205371	1.689957
0.205469	1.691612
0.205566	1.693088
0.205664	1.696941
0.205762	1.699056
0.205859	1.705870
0.205957	1.711412
0.206055	1.714368
0.206152	1.677948
0.206250	1.687418
0.206348	1.707373
0.206445	1.718769
0.206543	1.714251
0.206641	1.693776
0.206738	1.689523
0.206836	1.688708
0.206934	1.690283
0.207031	1.687462
0.207129	1.689535
0.207227	1.690303
0.207324	1.692980
0.207422	1.688002
0.207520	1.682443
0.207617	1.677512
0.207715	1.674449
0.207812	1.672950
0.207910	1.672659
0.208008	1.671787
0.208105	1.671912
0.208203	1.672039
0.208301	1.675236
0.208398	1.678385
0.208496	1.688932
0.208594	1.690282
0.208691	1.684454
0.208789	1.689524
0.208887	1.704251
0.208984	1.692278
0.209082	1.673441
0.209180	1.665645
0.209277	1.659701
0.209375	1.666062
0.209473	1.684802
0.209570	1.697279
0.209668	1.669108
0.209766	1.653750
0.209863	1.646444
0.209961	1.642298
0.210059	1.646288
0.210156	1.648187
0.210254	1.650956
0.210352	1.652406
0.210449	1.653996
0.210547	1.654301
0.210645	1.654694
0.210742	1.654556
0.210840	1.654955
0.210937	1.655314
0.211035	1.656147
0.211133	1.656579
0.211230	1.657135
0.211328	1.657850
0.211426	1.658866
0.211523	1.659450
0.211621	1.659173
0.211719	1.658027
0.211816	1.657077
0.211914	1.656551
0.212012	1.656797
0.212109	1.657407
0.212207	1.659289
0.212305	1.661835
0.212402	1.665813
0.212500	1.669902
0.212598	1.675888
0.212695	1.681278
0.212793	1.687568
0.212891	1.690803
0.212988	1.693136
0.213086	1.694330
0.213184	1.699569
0.213281	1.698942
0.213379	1.704690
0.213477	1.692309
0.213574	1.674023
0.213672	1.697097
0.213770	1.696517
0.213867	1.694363
0.213965	1.690953
0.214062	1.644508
0.214160	1.648531
0.214258	1.578747
0.214355	1.542057
0.214453	1.605632
0.214551	1.592846
0.214648	1.592267
0.214746	1.648082
0.214844	1.676070
0.214941	1.661730
0.215039	1.676324
0.215137	1.669297
0.215234	1.681519
0.215332	1.645850
0.215430	1.653811
0.215527	1.677687
0.215625	1.674511
0.215723	1.677895
0.215820	1.675330
0.215918	1.678023
0.216016	1.681826
0.216113	1.687123
0.216211	1.696354
0.216309	1.695557
0.216406	1.690035
0.216504	1.694746
0.216602	1.697604
0.216699	1.701176
0.216797	1.696861
0.216895	1.687667
0.216992	1.685457
0.217090	1.686216
0.217187	1.693816
0.217285	1.706506
0.217383	1.693727
0.217480	1.704818
0.217578	1.665820
0.217676	1.666232
0.217773	1.664795
0.217871	1.665376
0.217969	1.663547
0.218066	1.663140
0.218164	1.661719
0.218262	1.661741
0.218359	1.661710
0.218457	1.663026
0.218555	1.663508
0.218652	1.664427
0.218750	1.664873
0.218848	1.666014
0.218945	1.667015
0.219043	1.668453
0.219141	1.669236
0.219238	1.670218
0.219336	1.670688
0.219434	1.669610
0.219531	1.667070
0.219629	1.664950
0.219727	1.663222
0.219824	1.662020
0.219922	1.660520
0.220020	1.658300
0.220117	1.655447
0.220215	1.652519
0.220312	1.649678
0.220410	1.647330
0.220508	1.645362
0.220605	1.643891
0.220703	1.642887
0.220801	1.642483
0.220898	1.642687
0.220996	1.643334
0.221094	1.644487
0.221191	1.645932
0.221289	1.647803
0.221387	1.649436
0.221484	1.651222
0.221582	1.652897
0.221680	1.654664
0.221777	1.656284
0.221875	1.657921
0.221973	1.659493
0.222070	1.661074
0.222168	1.662679
0.222266	1.664299
0.222363	1.665952
0.222461	1.667899
0.222559	1.669986
0.222656	1.672431
0.222754	1.675202
0.222852	1.678617
0.222949	1.682521
0.223047	1.686070
0.223145	1.688904
0.223242	1.691762
0.223340	1.694388
0.223437	1.696468
0.223535	1.697701
0.223633	1.698864
0.223730	1.700599
0.223828	1.702201
0.223926	1.702509
0.224023	1.700801
0.224121	1.698540
0.224219	1.697708
0.224316	1.698211
0.224414	1.699272
0.224512	1.699532
0.224609	1.698830
0.224707	1.698134
0.224805	1.697810
0.224902	1.697639
0.225000	1.697487
0.225098	1.697305
0.225195	1.696790
0.225293	1.695837
0.225391	1.694749
0.225488	1.694544
0.225586	1.695204
0.225684	1.697141
0.225781	1.699519
0.225879	1.702278
0.225977	1.704091
0.226074	1.705592
0.226172	1.707273
0.226270	1.710335
0.226367	1.713779
0.226465	1.718919
0.226562	1.723273
0.226660	1.726942
0.226758	1.725762
0.226855	1.725479
0.226953	1.728165
0.227051	1.722614
0.227148	1.719748
0.227246	1.712711
0.227344	1.705925
0.227441	1.701700
0.227539	1.699069
0.227637	1.696193
0.227734	1.694081
0.227832	1.692457
0.227930	1.691867
0.228027	1.692256
0.228125	1.693804
0.228223	1.694964
0.228320	1.695106
0.228418	1.693580
0.228516	1.692014
0.228613	1.692228
0.228711	1.691125
0.228809	1.690165
0.228906	1.689323
0.229004	1.688947
0.229102	1.689606
0.229199	1.690842
0.229297	1.692612
0.229395	1.694948
0.229492	1.697197
0.229590	1.697611
0.229687	1.696454
0.229785	1.694868
0.229883	1.696316
0.229980	1.708964
0.230078	1.719965
0.230176	1.686502
0.230273	1.668564
0.230371	1.672601
0.230469	1.669295
0.230566	1.672648
0.230664	1.670589
0.230762	1.670766
0.230859	1.670918
0.230957	1.671591
0.231055	1.671586
0.231152	1.672004
0.231250	1.672051
0.231348	1.672068
0.231445	1.671804
0.231543	1.671224
0.231641	1.670687
0.231738	1.670756
0.231836	1.671439
0.231934	1.672929
0.232031	1.676308
0.232129	1.674719
0.232227	1.668477
0.232324	1.667823
0.232422	1.663349
0.232520	1.660324
0.232617	1.657041
0.232715	1.652554
0.232812	1.649574
0.232910	1.646663
0.233008	1.643698
0.233105	1.640866
0.233203	1.638911
0.233301	1.637690
0.233398	1.637330
0.233496	1.637653
0.233594	1.638453
0.233691	1.639578
0.233789	1.641089
0.233887	1.642719
0.233984	1.644417
0.234082	1.646100
0.234180	1.647590
0.234277	1.649140
0.234375	1.650596
0.234473	1.652115
0.234570	1.653725
0.234668	1.655440
0.234766	1.657340
0.234863	1.659323
0.234961	1.661182
0.235059	1.662699
0.235156	1.664277
0.235254	1.665670
0.235352	1.667246
0.235449	1.668926
0.235547	1.670893
0.235645	1.673037
0.235742	1.675634
0.235840	1.677868
0.235937	1.680350
0.236035	1.681798
0.236133	1.683360
0.236230	1.683639
0.236328	1.684719
0.236426	1.685525
0.236523	1.688827
0.236621	1.691169
0.236719	1.695662
0.236816	1.698138
0.236914	1.703503
0.237012	1.703641
0.237109	1.706136
0.237207	1.704823
0.237305	1.718421
0.237402	1.714572
0.237500	1.721956
0.237598	1.713553
0.237695	1.718673
0.237793	1.669061
0.237891	1.660167
0.237988	1.675360
0.238086	1.667156
0.238184	1.687939
0.238281	1.684458
0.238379	1.685096
0.238477	1.674739
0.238574	1.676237
0.238672	1.681245
0.238770	1.694791
0.238867	1.698778
0.238965	1.686664
0.239062	1.688556
0.239160	1.682981
0.239258	1.725330
0.239355	1.686967
0.239453	1.642676
0.239551	1.647954
0.239648	1.649109
0.239746	1.658225
0.239844	1.678451
0.239941	1.691767
0.240039	1.697293
0.240137	1.681637
0.240234	1.646273
0.240332	1.639321
0.240430	1.626609
0.240527	1.621760
0.240625	1.617725
0.240723	1.620932
0.240820	1.624324
0.240918	1.631288
0.241016	1.637528
0.241113	1.645583
0.241211	1.653228
0.241309	1.661495
0.241406	1.667579
0.241504	1.672257
0.241602	1.676257
0.241699	1.680221
0.241797	1.683701
0.241895	1.686297
0.241992	1.689229
0.242090	1.691731
0.242187	1.694388
0.242285	1.695869
0.242383	1.697617
0.242480	1.697702
0.242578	1.701363
0.242676	1.707355
0.242773	1.718493
0.242871	1.732082
0.242969	1.735210
0.243066	1.697437
0.243164	1.638543
0.243262	1.609642
0.243359	1.626802
0.243457	1.633751
0.243555	1.602869
0.243652	1.574801
0.243750	1.540757
0.243848	1.626944
0.243945	1.687875
0.244043	1.693523
0.244141	1.709105
0.244238	1.697924
0.244336	1.697190
0.244434	1.696658
0.244531	1.696459
0.244629	1.696743
0.244727	1.700268
0.244824	1.703841
0.244922	1.706835
0.245020	1.715155
0.245117	1.722725
0.245215	1.735836
0.245312	1.743714
0.245410	1.733011
0.245508	1.721602
0.245605	1.703212
0.245703	1.701478
0.245801	1.689002
0.245898	1.676837
0.245996	1.672819
0.246094	1.669419
0.246191	1.659656
0.246289	1.645990
0.246387	1.625795
0.246484	1.600680
0.246582	1.613480
0.246680	1.596353
0.246777	1.583699
0.246875	1.620000
0.246973	1.631242
0.247070	1.628650
0.247168	1.649277
0.247266	1.655734
0.247363	1.653810
0.247461	1.651393
0.247559	1.649188
0.247656	1.651247
0.247754	1.656827
0.247852	1.669987
0.247949	1.683058
0.248047	1.663733
0.248145	1.656863
0.248242	1.695959
0.248340	1.692459
0.248437	1.690130
0.248535	1.654669
0.248633	1.665515
0.248730	1.648205
0.248828	1.618125
0.248926	1.643431
0.249023	1.675850
0.249121	1.596834
0.249219	1.570837
0.249316	1.595545
0.249414	1.565761
0.249512	1.571167
0.249609	1.564625
0.249707	1.558072
0.249805	1.509866
0.249902	1.478473
0.250000	1.484481
0.250098	1.497195
0.250195	1.464193
0.250293	1.458086
0.250391	1.514033
0.250488	1.537761
0.250586	1.547948
0.250684	1.563399
0.250781	1.565051
0.250879	1.576190
0.250977	1.575528
0.251074	1.573692
0.251172	1.602170
0.251270	1.612302
0.251367	1.593948
0.251465	1.566119
0.251562	1.558820
0.251660	1.583417
0.251758	1.583865
0.251855	1.591736
0.251953	1.592380
0.252051	1.598248
0.252148	1.600013
0.252246	1.605292
0.252344	1.607855
0.252441	1.612754
0.252539	1.615662
0.252637	1.619771
0.252734	1.622342
0.252832	1.625663
0.252930	1.627639
0.253027	1.630176
0.253125	1.632019
0.253223	1.634174
0.253320	1.636122
0.253418	1.638281
0.253516	1.640304
0.253613	1.642577
0.253711	1.644713
0.253809	1.646969
0.253906	1.649121
0.254004	1.651375
0.254102	1.653558
0.254199	1.655973
0.254297	1.658771
0.254395	1.661936
0.254492	1.665772
0.254590	1.669840
0.254687	1.673950
0.254785	1.677904
0.254883	1.681318
0.254980	1.682820
0.255078	1.683866
0.255176	1.684322
0.255273	1.684026
0.255371	1.684165
0.255469	1.685533
0.255566	1.687235
0.255664	1.689701
0.255762	1.691917
0.255859	1.695003
0.255957	1.698060
0.256055	1.703832
0.256152	1.710052
0.256250	1.719681
0.256348	1.722049
0.256445	1.719931
0.256543	1.718083
0.256641	1.714291
0.256738	1.714107
0.256836	1.714581
0.256934	1.715152
0.257031	1.712130
0.257129	1.709387
0.257227	1.708037
0.257324	1.708171
0.257422	1.708583
0.257520	1.708823
0.257617	1.710262
0.257715	1.714546
0.257812	1.721186
0.257910	1.727670
0.258008	1.734608
0.258105	1.732796
0.258203	1.728627
0.258301	1.725011
0.258398	1.723806
0.258496	1.724370
0.258594	1.725339
0.258691	1.726746
0.258789	1.725557
0.258887	1.710933
0.258984	1.704847
0.259082	1.702435
0.259180	1.700094
0.259277	1.700247
0.259375	1.700558
0.259473	1.701284
0.259570	1.701221
0.259668	1.699947
0.259766	1.697949
0.259863	1.697188
0.259961	1.696185
0.260059	1.693376
0.260156	1.689514
0.260254	1.687023
0.260352	1.686704
0.260449	1.687427
0.260547	1.688709
0.260645	1.690693
0.260742	1.693451
0.260840	1.695102
0.260937	1.696336
0.261035	1.697782
0.261133	1.700435
0.261230	1.704628
0.261328	1.709200
0.261426	1.705269
0.261523	1.699651
0.261621	1.698636
0.261719	1.701644
0.261816	1.699696
0.261914	1.694117
0.262012	1.680692
0.262109	1.669195
0.262207	1.669097
0.262305	1.672243
0.262402	1.675990
0.262500	1.677238
0.262598	1.675604
0.262695	1.672495
0.262793	1.669012
0.262891	1.665609
0.262988	1.663571
0.263086	1.662529
0.263184	1.662002
0.263281	1.661462
0.263379	1.661521
0.263477	1.662006
0.263574	1.662628
0.263672	1.662807
0.263770	1.662849
0.263867	1.662624
0.263965	1.662251
0.264062	1.661928
0.264160	1.661564
0.264258	1.661767
0.264355	1.662603
0.264453	1.663522
0.264551	1.664031
0.264648	1.664488
0.264746	1.664911
0.264844	1.664895
0.264941	1.665443
0.265039	1.666406
0.265137	1.668753
0.265234	1.671472
0.265332	1.674194
0.265430	1.670761
0.265527	1.666422
0.265625	1.664683
0.265723	1.663452
0.265820	1.662300
0.265918	1.660507
0.266016	1.659388
0.266113	1.659012
0.266211	1.659543
0.266309	1.661501
0.266406	1.664216
0.266504	1.665895
0.266602	1.667513
0.266699	1.668830
0.266797	1.667173
0.266895	1.664686
0.266992	1.661516
0.267090	1.660205
0.267187	1.659489
0.267285	1.662528
0.267383	1.664625
0.267480	1.668684
0.267578	1.668392
0.267676	1.673166
0.267773	1.676823
0.267871	1.666237
0.267969	1.665833
0.268066	1.671437
0.268164	1.666090
0.268262	1.663026
0.268359	1.675425
0.268457	1.674593
0.268555	1.681428
0.268652	1.674543
0.268750	1.672611
0.268848	1.672694
0.268945	1.666915
0.269043	1.660375
0.269141	1.651007
0.269238	1.641704
0.269336	1.635980
0.269434	1.634767
0.269531	1.636010
0.269629	1.637674
0.269727	1.639374
0.269824	1.640841
0.269922	1.642304
0.270020	1.643914
0.270117	1.645480
0.270215	1.647321
0.270312	1.649282
0.270410	1.651590
0.270508	1.653923
0.270605	1.656762
0.270703	1.659712
0.270801	1.662746
0.270898	1.665883
0.270996	1.668858
0.271094	1.671669
0.271191	1.674234
0.271289	1.676840
0.271387	1.679492
0.271484	1.682475
0.271582	1.685708
0.271680	1.689065
0.271777	1.692418
0.271875	1.695706
0.271973	1.698854
0.272070	1.701723
0.272168	1.703926
0.272266	1.705774
0.272363	1.706802
0.272461	1.707273
0.272559	1.708225
0.272656	1.708913
0.272754	1.707889
0.272852	1.708115
0.272949	1.709285
0.273047	1.711775
0.273145	1.714625
0.273242	1.718141
0.273340	1.721071
0.273437	1.723158
0.273535	1.721987
0.273633	1.720215
0.273730	1.716448
0.273828	1.714202
0.273926	1.713617
0.274023	1.716577
0.274121	1.719628
0.274219	1.729636
0.274316	1.743245
0.274414	1.742143
0.274512	1.748561
0.274609	1.735208
0.274707	1.733610
0.274805	1.728268
0.274902	1.727042
0.275000	1.726400
0.275098	1.725986
0.275195	1.728890
0.275293	1.732269
0.275391	1.732040
0.275488	1.729998
0.275586	1.730486
0.275684	1.727965
0.275781	1.724131
0.275879	1.717047
0.275977	1.707189
0.276074	1.700088
0.276172	1.702087
0.276270	1.710295
0.276367	1.723925
0.276465	1.738752
0.276562	1.757034
0.276660	1.747172
0.276758	1.744743
0.276855	1.752979
0.276953	1.739129
0.277051	1.728922
0.277148	1.718939
0.277246	1.713700
0.277344	1.703066
0.277441	1.708944
0.277539	1.675390
0.277637	1.658919
0.277734	1.684688
0.277832	1.684335
0.277930	1.687913
0.278027	1.687699
0.278125	1.691867
0.278223	1.694165
0.278320	1.701998
0.278418	1.708209
0.278516	1.713722
0.278613	1.722035
0.278711	1.717896
0.278809	1.714949
0.278906	1.700180
0.279004	1.639573
0.279102	1.659810
0.279199	1.631397
0.279297	1.631966
0.279395	1.647747
0.279492	1.665105
0.279590	1.686402
0.279687	1.682396
0.279785	1.693094
0.279883	1.688627
0.279980	1.699163
0.280078	1.684151
0.280176	1.675962
0.280273	1.675568
0.280371	1.683347
0.280469	1.692273
0.280566	1.694879
0.280664	1.684999
0.280762	1.694233
0.280859	1.668481
0.280957	1.657445
0.281055	1.699112
0.281152	1.699753
0.281250	1.700846
0.281348	1.668896
0.281445	1.666613
0.281543	1.668614
0.281641	1.674831
0.281738	1.664132
0.281836	1.653228
0.281934	1.644075
0.282031	1.639041
0.282129	1.637856
0.282227	1.636360
0.282324	1.633509
0.282422	1.634698
0.282520	1.637390
0.282617	1.642354
0.282715	1.645820
0.282812	1.649657
0.282910	1.650423
0.283008	1.653876
0.283105	1.651212
0.283203	1.650051
0.283301	1.645311
0.283398	1.647990
0.283496	1.642827
0.283594	1.654622
0.283691	1.649807
0.283789	1.626238
0.283887	1.589584
0.283984	1.598250
0.284082	1.635211
0.284180	1.615234
0.284277	1.627370
0.284375	1.623596
0.284473	1.627576
0.284570	1.623868
0.284668	1.624325
0.284766	1.619868
0.284863	1.619845
0.284961	1.618423
0.285059	1.621055
0.285156	1.623442
0.285254	1.629643
0.285352	1.636165
0.285449	1.643525
0.285547	1.648636
0.285645	1.651188
0.285742	1.650092
0.285840	1.650455
0.285937	1.652377
0.286035	1.655568
0.286133	1.651642
0.286230	1.643557
0.286328	1.636428
0.286426	1.634932
0.286523	1.634866
0.286621	1.634741
0.286719	1.634204
0.286816	1.633919
0.286914	1.633671
0.287012	1.633768
0.287109	1.633904
0.287207	1.634390
0.287305	1.634962
0.287402	1.635734
0.287500	1.636519
0.287598	1.637356
0.287695	1.638340
0.287793	1.639390
0.287891	1.640384
0.287988	1.641442
0.288086	1.642584
0.288184	1.643865
0.288281	1.645105
0.288379	1.646646
0.288477	1.648209
0.288574	1.650186
0.288672	1.652521
0.288770	1.655200
0.288867	1.658153
0.288965	1.661360
0.289062	1.664638
0.289160	1.667938
0.289258	1.670899
0.289355	1.673612
0.289453	1.675852
0.289551	1.677917
0.289648	1.679828
0.289746	1.682401
0.289844	1.685532
0.289941	1.689887
0.290039	1.695193
0.290137	1.700849
0.290234	1.705588
0.290332	1.710609
0.290430	1.708860
0.290527	1.704687
0.290625	1.705260
0.290723	1.707304
0.290820	1.710865
0.290918	1.713770
0.291016	1.715022
0.291113	1.714750
0.291211	1.714665
0.291309	1.715856
0.291406	1.717314
0.291504	1.719546
0.291602	1.722208
0.291699	1.727290
0.291797	1.732937
0.291895	1.737788
0.291992	1.740051
0.292090	1.750706
0.292187	1.747561
0.292285	1.743290
0.292383	1.742052
0.292480	1.736188
0.292578	1.730756
0.292676	1.725383
0.292773	1.717324
0.292871	1.713938
0.292969	1.713692
0.293066	1.717830
0.293164	1.721130
0.293262	1.726844
0.293359	1.719315
0.293457	1.720274
0.293555	1.705363
0.293652	1.679122
0.293750	1.699978
0.293848	1.699748
0.293945	1.702877
0.294043	1.701410
0.294141	1.702966
0.294238	1.702027
0.294336	1.703380
0.294434	1.701531
0.294531	1.702157
0.294629	1.710350
0.294727	1.681909
0.294824	1.643986
0.294922	1.600265
0.295020	1.558177
0.295117	1.574520
0.295215	1.614510
0.295312	1.676976
0.295410	1.691526
0.295508	1.686227
0.295605	1.682950
0.295703	1.677339
0.295801	1.675620
0.295898	1.675123
0.295996	1.680320
0.296094	1.689772
0.296191	1.707546
0.296289	1.691928
0.296387	1.688518
0.296484	1.680273
0.296582	1.677435
0.296680	1.690109
0.296777	1.709025
0.296875	1.654295
0.296973	1.687767
0.297070	1.662553
0.297168	1.596487
0.297266	1.573728
0.297363	1.645272
0.297461	1.630781
0.297559	1.593178
0.297656	1.627431
0.297754	1.605035
0.297852	1.618549
0.297949	1.615211
0.298047	1.617190
0.298145	1.617121
0.298242	1.620052
0.298340	1.620560
0.298437	1.622845
0.298535	1.623471
0.298633	1.625379
0.298730	1.626739
0.298828	1.628870
0.298926	1.631492
0.299023	1.635059
0.299121	1.641101
0.299219	1.648236
0.299316	1.658298
0.299414	1.664774
0.299512	1.666633
0.299609	1.661849
0.299707	1.658116
0.299805	1.658779
0.299902	1.660914
0.300000	1.671276
0.300098	1.645134
0.300195	1.645781
0.300293	1.656278
0.300391	1.653261
0.300488	1.631089
0.300586	1.636951
0.300684	1.634682
0.300781	1.634809
0.300879	1.632630
0.300977	1.632359
0.301074	1.631046
0.301172	1.631075
0.301270	1.630582
0.301367	1.630960
0.301465	1.631039
0.301562	1.631851
0.301660	1.632258
0.301758	1.633112
0.301855	1.633839
0.301953	1.635087
0.302051	1.636423
0.302148	1.638326
0.302246	1.640346
0.302344	1.642955
0.302441	1.645794
0.302539	1.649057
0.302637	1.652166
0.302734	1.654825
0.302832	1.656976
0.302930	1.658718
0.303027	1.660095
0.303125	1.661453
0.303223	1.662801
0.303320	1.664620
0.303418	1.666675
0.303516	1.669150
0.303613	1.671365
0.303711	1.673455
0.303809	1.675527
0.303906	1.677823
0.304004	1.680431
0.304102	1.683408
0.304199	1.686533
0.304297	1.689035
0.304395	1.690458
0.304492	1.690744
0.304590	1.690608
0.304687	1.691180
0.304785	1.692581
0.304883	1.694801
0.304980	1.697832
0.305078	1.701094
0.305176	1.704171
0.305273	1.706593
0.305371	1.707924
0.305469	1.708134
0.305566	1.707707
0.305664	1.706914
0.305762	1.707457
0.305859	1.708834
0.305957	1.710578
0.306055	1.713688
0.306152	1.717625
0.306250	1.721278
0.306348	1.723648
0.306445	1.720909
0.306543	1.715956
0.306641	1.712648
0.306738	1.712499
0.306836	1.713130
0.306934	1.716824
0.307031	1.721688
0.307129	1.730488
0.307227	1.733638
0.307324	1.734528
0.307422	1.729738
0.307520	1.715097
0.307617	1.722720
0.307715	1.702831
0.307812	1.699713
0.307910	1.702203
0.308008	1.701294
0.308105	1.697539
0.308203	1.699384
0.308301	1.701407
0.308398	1.706974
0.308496	1.712857
0.308594	1.725132
0.308691	1.721364
0.308789	1.723652
0.308887	1.711567
0.308984	1.700150
0.309082	1.713282
0.309180	1.704574
0.309277	1.700641
0.309375	1.690122
0.309473	1.687513
0.309570	1.687277
0.309668	1.689617
0.309766	1.699755
0.309863	1.698361
0.309961	1.686552
0.310059	1.684584
0.310156	1.677443
0.310254	1.671801
0.310352	1.661233
0.310449	1.669207
0.310547	1.661251
0.310645	1.679397
0.310742	1.668383
0.310840	1.632658
0.310937	1.643383
0.311035	1.657263
0.311133	1.673664
0.311230	1.656907
0.311328	1.631477
0.311426	1.620186
0.311523	1.621229
0.311621	1.625324
0.311719	1.631298
0.311816	1.638515
0.311914	1.643665
0.312012	1.625318
0.312109	1.613851
0.312207	1.610412
0.312305	1.607360
0.312402	1.604632
0.312500	1.602736
0.312598	1.601863
0.312695	1.602098
0.312793	1.603019
0.312891	1.604552
0.312988	1.606127
0.313086	1.608012
0.313184	1.609858
0.313281	1.611767
0.313379	1.613691
0.313477	1.615674
0.313574	1.617782
0.313672	1.620033
0.313770	1.622590
0.313867	1.625252
0.313965	1.628018
0.314062	1.630816
0.314160	1.633731
0.314258	1.636461
0.314355	1.639354
0.314453	1.642291
0.314551	1.645420
0.314648	1.648671
0.314746	1.652044
0.314844	1.655559
0.314941	1.658840
0.315039	1.661734
0.315137	1.664534
0.315234	1.667455
0.315332	1.670390
0.315430	1.673895
0.315527	1.677527
0.315625	1.681132
0.315723	1.684525
0.315820	1.688318
0.315918	1.692075
0.316016	1.695880
0.316113	1.699644
0.316211	1.704165
0.316309	1.707101
0.316406	1.701788
0.316504	1.698819
0.316602	1.701701
0.316699	1.705564
0.316797	1.710521
0.316895	1.708647
0.316992	1.699944
0.317090	1.695696
0.317187	1.692717
0.317285	1.690670
0.317383	1.689461
0.317480	1.689639
0.317578	1.690305
0.317676	1.691120
0.317773	1.691519
0.317871	1.691906
0.317969	1.692085
0.318066	1.692213
0.318164	1.692838
0.318262	1.694004
0.318359	1.695321
0.318457	1.696773
0.318555	1.698362
0.318652	1.700128
0.318750	1.702328
0.318848	1.704828
0.318945	1.706868
0.319043	1.708409
0.319141	1.708773
0.319238	1.707850
0.319336	1.705463
0.319434	1.702744
0.319531	1.701087
0.319629	1.701146
0.319727	1.702142
0.319824	1.702038
0.319922	1.698091
0.320020	1.694637
0.320117	1.690288
0.320215	1.684558
0.320312	1.679832
0.320410	1.677194
0.320508	1.675801
0.320605	1.676129
0.320703	1.676981
0.320801	1.680303
0.320898	1.683742
0.320996	1.690087
0.321094	1.694917
0.321191	1.701576
0.321289	1.705909
0.321387	1.724115
0.321484	1.735476
0.321582	1.712592
0.321680	1.678681
0.321777	1.647047
0.321875	1.581055
0.321973	1.608437
0.322070	1.706913
0.322168	1.727775
0.322266	1.717447
0.322363	1.684386
0.322461	1.685918
0.322559	1.655860
0.322656	1.623204
0.322754	1.569502
0.322852	1.634791
0.322949	1.667613
0.323047	1.651700
0.323145	1.635783
0.323242	1.633653
0.323340	1.638119
0.323437	1.642527
0.323535	1.650262
0.323633	1.656260
0.323730	1.659933
0.323828	1.667458
0.323926	1.667757
0.324023	1.667424
0.324121	1.668068
0.324219	1.668979
0.324316	1.671650
0.324414	1.673991
0.324512	1.673911
0.324609	1.675224
0.324707	1.676495
0.324805	1.679553
0.324902	1.681620
0.325000	1.685352
0.325098	1.690524
0.325195	1.700704
0.325293	1.691945
0.325391	1.693801
0.325488	1.700903
0.325586	1.700192
0.325684	1.695450
0.325781	1.689052
0.325879	1.686987
0.325977	1.686511
0.326074	1.685964
0.326172	1.685163
0.326270	1.684865
0.326367	1.683939
0.326465	1.682972
0.326562	1.684495
0.326660	1.688392
0.326758	1.694862
0.326855	1.695085
0.326953	1.694323
0.327051	1.689317
0.327148	1.679376
0.327246	1.674797
0.327344	1.663064
0.327441	1.644797
0.327539	1.585415
0.327637	1.614548
0.327734	1.642393
0.327832	1.616351
0.327930	1.636147
0.328027	1.664039
0.328125	1.683157
0.328223	1.661515
0.328320	1.629915
0.328418	1.630587
0.328516	1.632921
0.328613	1.637890
0.328711	1.637916
0.328809	1.639017
0.328906	1.638310
0.329004	1.638734
0.329102	1.638308
0.329199	1.639232
0.329297	1.639638
0.329395	1.640925
0.329492	1.641824
0.329590	1.643180
0.329687	1.644022
0.329785	1.645187
0.329883	1.646084
0.329980	1.647255
0.330078	1.648301
0.330176	1.649864
0.330273	1.651189
0.330371	1.653057
0.330469	1.654920
0.330566	1.657296
0.330664	1.659767
0.330762	1.662456
0.330859	1.664936
0.330957	1.667665
0.331055	1.670021
0.331152	1.672949
0.331250	1.675763
0.331348	1.679998
0.331445	1.684101
0.331543	1.691802
0.331641	1.693509
0.331738	1.689325
0.331836	1.688149
0.331934	1.685424
0.332031	1.685638
0.332129	1.686284
0.332227	1.687055
0.332324	1.686656
0.332422	1.687796
0.332520	1.690639
0.332617	1.694475
0.332715	1.697861
0.332812	1.700260
0.332910	1.700945
0.333008	1.701101
0.333105	1.701058
0.333203	1.701979
0.333301	1.703995
0.333398	1.707809
0.333496	1.711318
0.333594	1.713876
0.333691	1.712107
0.333789	1.708758
0.333887	1.706542
0.333984	1.704571
0.334082	1.704037
0.334180	1.703601
0.334277	1.703044
0.334375	1.703951
0.334473	1.705904
0.334570	1.708784
0.334668	1.711452
0.334766	1.713493
0.334863	1.714601
0.334961	1.717017
0.335059	1.717122
0.335156	1.717146
0.335254	1.716909
0.335352	1.717807
0.335449	1.716254
0.335547	1.716727
0.335645	1.720348
0.335742	1.734770
0.335840	1.726808
0.335937	1.733231
0.336035	1.734194
0.336133	1.718484
0.336230	1.718600
0.336328	1.709593
0.336426	1.709960
0.336523	1.689378
0.336621	1.685518
0.336719	1.684692
0.336816	1.683854
0.336914	1.682900
0.337012	1.685343
0.337109	1.689682
0.337207	1.697943
0.337305	1.706925
0.337402	1.710078
0.337500	1.708673
0.337598	1.706152
0.337695	1.702700
0.337793	1.699865
0.337891	1.698602
0.337988	1.698903
0.338086	1.699844
0.338184	1.701420
0.338281	1.702934
0.338379	1.706595
0.338477	1.709692
0.338574	1.709244
0.338672	1.706916
0.338770	1.703690
0.338867	1.699376
0.338965	1.693400
0.339062	1.691418
0.339160	1.694785
0.339258	1.696827
0.339355	1.698734
0.339453	1.691841
0.339551	1.687349
0.339648	1.687745
0.339746	1.688733
0.339844	1.692135
0.339941	1.689128
0.340039	1.680494
0.340137	1.676422
0.340234	1.678459
0.340332	1.678245
0.340430	1.682340
0.340527	1.683191
0.340625	1.690082
0.340723	1.686580
0.340820	1.689798
0.340918	1.700300
0.341016	1.703331
0.341113	1.694539
0.341211	1.654892
0.341309	1.649824
0.341406	1.642881
0.341504	1.651707
0.341602	1.652262
0.341699	1.656196
0.341797	1.656250
0.341895	1.656348
0.341992	1.650468
0.342090	1.648713
0.342187	1.647695
0.342285	1.648268
0.342383	1.647543
0.342480	1.647671
0.342578	1.647008
0.342676	1.647054
0.342773	1.646727
0.342871	1.646688
0.342969	1.646650
0.343066	1.647094
0.343164	1.647586
0.343262	1.648536
0.343359	1.649677
0.343457	1.651094
0.343555	1.652701
0.343652	1.654112
0.343750	1.654919
0.343848	1.655202
0.343945	1.655398
0.344043	1.655620
0.344141	1.655992
0.344238	1.656599
0.344336	1.657485
0.344434	1.658810
0.344531	1.660444
0.344629	1.662334
0.344727	1.664263
0.344824	1.666432
0.344922	1.668742
0.345020	1.670940
0.345117	1.672724
0.345215	1.674199
0.345312	1.675127
0.345410	1.676153
0.345508	1.676907
0.345605	1.677681
0.345703	1.679043
0.345801	1.680539
0.345898	1.682053
0.345996	1.683082
0.346094	1.683882
0.346191	1.685189
0.346289	1.686751
0.346387	1.688459
0.346484	1.690515
0.346582	1.692630
0.346680	1.692756
0.346777	1.690779
0.346875	1.689782
0.346973	1.690187
0.347070	1.691638
0.347168	1.693555
0.347266	1.695687
0.347363	1.697735
0.347461	1.700053
0.347559	1.702362
0.347656	1.704562
0.347754	1.706515
0.347852	1.707689
0.347949	1.708346
0.348047	1.710015
0.348145	1.711904
0.348242	1.711309
0.348340	1.709785
0.348437	1.710413
0.348535	1.711239
0.348633	1.708027
0.348730	1.702828
0.348828	1.698275
0.348926	1.699071
0.349023	1.701154
0.349121	1.705563
0.349219	1.707868
0.349316	1.709423
0.349414	1.706523
0.349512	1.705925
0.349609	1.704483
0.349707	1.723278
0.349805	1.723242
0.349902	1.699657
0.350000	1.702719
0.350098	1.709773
0.350195	1.719806
0.350293	1.726707
0.350391	1.709606
0.350488	1.690923
0.350586	1.695738
0.350684	1.699939
0.350781	1.712234
0.350879	1.706865
0.350977	1.683027
0.351074	1.688043
0.351172	1.693022
0.351270	1.691962
0.351367	1.692082
0.351465	1.692301
0.351562	1.693747
0.351660	1.696402
0.351758	1.700018
0.351855	1.707952
0.351953	1.720398
0.352051	1.719539
0.352148	1.692718
0.352246	1.719544
0.352344	1.717771
0.352441	1.700080
0.352539	1.707386
0.352637	1.702366
0.352734	1.710517
0.352832	1.713407
0.352930	1.708389
0.353027	1.694982
0.353125	1.696050
0.353223	1.691192
0.353320	1.691087
0.353418	1.691050
0.353516	1.696074
0.353613	1.708405
0.353711	1.715822
0.353809	1.702539
0.353906	1.691332
0.354004	1.677649
0.354102	1.664659
0.354199	1.681106
0.354297	1.671392
0.354395	1.663395
0.354492	1.625095
0.354590	1.587477
0.354687	1.595549
0.354785	1.578580
0.354883	1.575025
0.354980	1.600321
0.355078	1.628036
0.355176	1.635690
0.355273	1.652899
0.355371	1.631466
0.355469	1.622802
0.355566	1.657221
0.355664	1.649367
0.355762	1.661963
0.355859	1.674398
0.355957	1.662120
0.356055	1.610837
0.356152	1.604973
0.356250	1.648376
0.356348	1.687632
0.356445	1.645890
0.356543	1.640354
0.356641	1.651526
0.356738	1.668187
0.356836	1.667928
0.356934	1.665540
0.357031	1.673840
0.357129	1.679235
0.357227	1.658891
0.357324	1.664425
0.357422	1.667738
0.357520	1.677336
0.357617	1.657193
0.357715	1.654814
0.357812	1.680096
0.357910	1.662180
0.358008	1.658931
0.358105	1.658120
0.358203	1.659557
0.358301	1.655951
0.358398	1.655906
0.358496	1.655596
0.358594	1.657979
0.358691	1.659111
0.358789	1.661356
0.358887	1.662460
0.358984	1.664377
0.359082	1.668539
0.359180	1.677751
0.359277	1.678620
0.359375	1.671690
0.359473	1.665021
0.359570	1.663554
0.359668	1.663198
0.359766	1.663735
0.359863	1.664922
0.359961	1.664296
0.360059	1.664629
0.360156	1.664402
0.360254	1.656446
0.360352	1.658700
0.360449	1.667956
0.360547	1.653826
0.360645	1.647445
0.360742	1.649219
0.360840	1.645519
0.360937	1.645372
0.361035	1.646678
0.361133	1.648013
0.361230	1.646681
0.361328	1.649391
0.361426	1.650855
0.361523	1.646674
0.361621	1.647797
0.361719	1.648418
0.361816	1.648305
0.361914	1.647058
0.362012	1.644522
0.362109	1.640184
0.362207	1.636629
0.362305	1.633999
0.362402	1.631990
0.362500	1.630526
0.362598	1.629385
0.362695	1.628525
0.362793	1.627830
0.362891	1.626994
0.362988	1.626565
0.363086	1.626018
0.363184	1.625855
0.363281	1.625653
0.363379	1.625774
0.363477	1.625975
0.363574	1.626321
0.363672	1.626822
0.363770	1.627439
0.363867	1.628238
0.363965	1.629004
0.364062	1.629837
0.364160	1.630742
0.364258	1.631574
0.364355	1.632505
0.364453	1.633491
0.364551	1.634662
0.364648	1.635920
0.364746	1.637338
0.364844	1.638878
0.364941	1.640599
0.365039	1.642399
0.365137	1.644470
0.365234	1.646673
0.365332	1.648904
0.365430	1.651104
0.365527	1.653342
0.365625	1.655372
0.365723	1.657386
0.365820	1.659338
0.365918	1.661382
0.366016	1.663604
0.366113	1.665908
0.366211	1.668031
0.366309	1.670332
0.366406	1.672835
0.366504	1.675859
0.366602	1.679135
0.366699	1.682450
0.366797	1.686166
0.366895	1.689899
0.366992	1.695105
0.367090	1.698980
0.367187	1.699535
0.367285	1.700555
0.367383	1.700640
0.367480	1.699665
0.367578	1.699967
0.367676	1.701558
0.367773	1.704468
0.367871	1.707987
0.367969	1.711488
0.368066	1.713487
0.368164	1.714619
0.368262	1.715854
0.368359	1.718107
0.368457	1.720520
0.368555	1.722429
0.368652	1.724033
0.368750	1.725762
0.368848	1.725092
0.368945	1.723167
0.369043	1.720850
0.369141	1.720326
0.369238	1.720926
0.369336	1.724209
0.369434	1.728653
0.369531	1.736524
0.369629	1.742418
0.369727	1.751773
0.369824	1.753687
0.369922	1.756433
0.370020	1.760475
0.370117	1.753725
0.370215	1.747462
0.370312	1.750097
0.370410	1.741626
0.370508	1.738860
0.370605	1.735245
0.370703	1.729689
0.370801	1.732672
0.370898	1.734776
0.370996	1.730887
0.371094	1.720906
0.371191	1.688068
0.371289	1.714221
0.371387	1.737868
0.371484	1.721980
0.371582	1.726573
0.371680	1.722650
0.371777	1.700620
0.371875	1.707802
0.371973	1.691481
0.372070	1.641414
0.372168	1.635288
0.372266	1.618943
0.372363	1.615832
0.372461	1.602308
0.372559	1.579161
0.372656	1.578923
0.372754	1.609189
0.372852	1.624053
0.372949	1.640292
0.373047	1.682473
0.373145	1.654313
0.373242	1.642599
0.373340	1.630262
0.373437	1.585376
0.373535	1.610312
0.373633	1.632846
0.373730	1.636672
0.373828	1.642362
0.373926	1.644292
0.374023	1.647520
0.374121	1.648522
0.374219	1.649998
0.374316	1.650820
0.374414	1.651769
0.374512	1.653162
0.374609	1.653786
0.374707	1.655267
0.374805	1.653938
0.374902	1.655255
0.375000	1.654073
0.375098	1.658410
0.375195	1.658854
0.375293	1.665719
0.375391	1.661545
0.375488	1.675641
0.375586	1.675018
0.375684	1.674587
0.375781	1.662573
0.375879	1.659314
0.375977	1.688938
0.376074	1.661169
0.376172	1.681568
0.376270	1.681058
0.376367	1.681783
0.376465	1.677989
0.376562	1.627585
0.376660	1.679868
0.376758	1.665521
0.376855	1.620731
0.376953	1.552346
0.377051	1.475323
0.377148	1.490467
0.377246	1.486938
0.377344	1.506734
0.377441	1.536075
0.377539	1.540637
0.377637	1.518139
0.377734	1.516403
0.377832	1.538677
0.377930	1.546850
0.378027	1.553929
0.378125	1.561781
0.378223	1.569599
0.378320	1.572952
0.378418	1.575624
0.378516	1.576337
0.378613	1.577047
0.378711	1.576755
0.378809	1.577254
0.378906	1.577780
0.379004	1.579317
0.379102	1.581083
0.379199	1.583492
0.379297	1.585928
0.379395	1.588841
0.379492	1.591688
0.379590	1.594881
0.379687	1.598091
0.379785	1.601502
0.379883	1.604880
0.379980	1.608358
0.380078	1.611898
0.380176	1.615547
0.380273	1.619293
0.380371	1.623209
0.380469	1.627295
0.380566	1.631541
0.380664	1.635932
0.380762	1.640428
0.380859	1.644908
0.380957	1.649395
0.381055	1.653898
0.381152	1.658157
0.381250	1.662372
0.381348	1.666599
0.381445	1.670443
0.381543	1.673990
0.381641	1.677251
0.381738	1.680196
0.381836	1.682764
0.381934	1.684642
0.382031	1.686345
0.382129	1.688077
0.382227	1.690408
0.382324	1.693116
0.382422	1.696521
0.382520	1.700072
0.382617	1.704147
0.382715	1.703253
0.382812	1.700259
0.382910	1.699317
0.383008	1.699973
0.383105	1.702412
0.383203	1.706464
0.383301	1.710570
0.383398	1.711859
0.383496	1.710842
0.383594	1.710166
0.383691	1.708916
0.383789	1.709790
0.383887	1.711839
0.383984	1.718068
0.384082	1.722704
0.384180	1.734267
0.384277	1.746775
0.384375	1.725801
0.384473	1.723628
0.384570	1.722629
0.384668	1.716145
0.384766	1.715601
0.384863	1.719750
0.384961	1.726832
0.385059	1.733852
0.385156	1.743454
0.385254	1.743234
0.385352	1.755355
0.385449	1.750265
0.385547	1.740097
0.385645	1.714606
0.385742	1.659230
0.385840	1.648982
0.385937	1.643344
0.386035	1.622902
0.386133	1.600953
0.386230	1.542843
0.386328	1.539591
0.386426	1.603957
0.386523	1.633880
0.386621	1.613409
0.386719	1.595445
0.386816	1.563388
0.386914	1.636397
0.387012	1.657814
0.387109	1.683181
0.387207	1.698902
0.387305	1.650300
0.387402	1.645837
0.387500	1.656251
0.387598	1.670661
0.387695	1.684113
0.387793	1.685672
0.387891	1.698401
0.387988	1.691252
0.388086	1.677421
0.388184	1.668934
0.388281	1.650627
0.388379	1.640275
0.388477	1.577569
0.388574	1.570096
0.388672	1.637558
0.388770	1.633609
0.388867	1.639244
0.388965	1.635835
0.389062	1.638786
0.389160	1.636308
0.389258	1.638113
0.389355	1.636414
0.389453	1.637465
0.389551	1.636086
0.389648	1.636564
0.389746	1.635426
0.389844	1.635972
0.389941	1.635644
0.390039	1.636517
0.390137	1.636536
0.390234	1.636793
0.390332	1.635958
0.390430	1.635669
0.390527	1.635267
0.390625	1.635110
0.390723	1.634778
0.390820	1.634570
0.390918	1.634523
0.391016	1.634564
0.391113	1.634805
0.391211	1.635260
0.391309	1.635804
0.391406	1.636660
0.391504	1.637712
0.391602	1.638697
0.391699	1.640096
0.391797	1.641320
0.391895	1.642837
0.391992	1.644234
0.392090	1.645680
0.392187	1.647084
0.392285	1.648565
0.392383	1.650187
0.392480	1.651706
0.392578	1.653447
0.392676	1.655152
0.392773	1.656891
0.392871	1.658621
0.392969	1.660376
0.393066	1.662287
0.393164	1.664299
0.393262	1.666569
0.393359	1.669145
0.393457	1.672204
0.393555	1.675631
0.393652	1.679010
0.393750	1.681752
0.393848	1.683757
0.393945	1.685375
0.394043	1.686546
0.394141	1.686901
0.394238	1.686513
0.394336	1.685776
0.394434	1.685008
0.394531	1.684181
0.394629	1.683634
0.394727	1.683251
0.394824	1.683191
0.394922	1.683196
0.395020	1.683708
0.395117	1.684121
0.395215	1.685261
0.395312	1.686840
0.395410	1.689155
0.395508	1.691615
0.395605	1.694104
0.395703	1.696121
0.395801	1.697902
0.395898	1.699657
0.395996	1.701630
0.396094	1.703703
0.396191	1.706049
0.396289	1.708272
0.396387	1.711738
0.396484	1.715764
0.396582	1.716924
0.396680	1.718265
0.396777	1.720134
0.396875	1.722231
0.396973	1.731688
0.397070	1.728795
0.397168	1.721726
0.397266	1.707153
0.397363	1.695073
0.397461	1.697773
0.397559	1.709261
0.397656	1.731773
0.397754	1.726192
0.397852	1.720647
0.397949	1.718801
0.398047	1.700328
0.398145	1.700417
0.398242	1.699965
0.398340	1.695729
0.398437	1.697088
0.398535	1.699589
0.398633	1.705956
0.398730	1.705917
0.398828	1.709988
0.398926	1.697400
0.399023	1.678906
0.399121	1.570842
0.399219	1.598239
0.399316	1.632930
0.399414	1.655859
0.399512	1.643011
0.399609	1.578611
0.399707	1.601030
0.399805	1.617001
0.399902	1.629619
0.400000	1.648954
0.400098	1.694630
0.400195	1.680052
0.400293	1.669111
0.400391	1.675439
0.400488	1.674536
0.400586	1.678837
0.400684	1.676821
0.400781	1.682653
0.400879	1.682395
0.400977	1.693140
0.401074	1.696612
0.401172	1.713642
0.401270	1.680700
0.401367	1.671999
0.401465	1.692090
0.401562	1.676035
0.401660	1.638526
0.401758	1.607429
0.401855	1.687022
0.401953	1.686959
0.402051	1.703206
0.402148	1.701438
0.402246	1.641464
0.402344	1.677032
0.402441	1.646632
0.402539	1.665775
0.402637	1.672368
0.402734	1.683474
0.402832	1.670044
0.402930	1.622902
0.403027	1.642844
0.403125	1.645187
0.403223	1.648501
0.403320	1.646591
0.403418	1.650956
0.403516	1.650190
0.403613	1.651591
0.403711	1.645771
0.403809	1.641582
0.403906	1.639451
0.404004	1.641943
0.404102	1.641785
0.404199	1.644152
0.404297	1.645735
0.404395	1.652280
0.404492	1.657594
0.404590	1.666290
0.404687	1.675232
0.404785	1.687806
0.404883	1.695898
0.404980	1.676550
0.405078	1.662780
0.405176	1.650258
0.405273	1.651616
0.405371	1.648778
0.405469	1.646465
0.405566	1.641098
0.405664	1.637393
0.405762	1.633506
0.405859	1.632421
0.405957	1.631431
0.406055	1.631437
0.406152	1.630691
0.406250	1.630374
0.406348	1.629692
0.406445	1.629588
0.406543	1.629200
0.406641	1.629270
0.406738	1.629174
0.406836	1.629359
0.406934	1.629473
0.407031	1.629779
0.407129	1.630180
0.407227	1.630919
0.407324	1.631707
0.407422	1.632573
0.407520	1.633512
0.407617	1.634510
0.407715	1.635659
0.407812	1.636948
0.407910	1.638506
0.408008	1.640016
0.408105	1.641711
0.408203	1.643258
0.408301	1.644952
0.408398	1.646610
0.408496	1.648352
0.408594	1.650363
0.408691	1.652431
0.408789	1.654576
0.408887	1.656643
0.408984	1.658641
0.409082	1.660269
0.409180	1.661726
0.409277	1.662425
0.409375	1.663038
0.409473	1.663751
0.409570	1.664920
0.409668	1.666311
0.409766	1.667777
0.409863	1.669322
0.409961	1.671045
0.410059	1.672713
0.410156	1.674370
0.410254	1.675950
0.410352	1.677549
0.410449	1.679351
0.410547	1.681206
0.410645	1.683145
0.410742	1.685411
0.410840	1.687851
0.410937	1.690440
0.411035	1.692878
0.411133	1.694719
0.411230	1.696291
0.411328	1.697813
0.411426	1.699626
0.411523	1.701713
0.411621	1.703866
0.411719	1.705856
0.411816	1.707993
0.411914	1.710069
0.412012	1.712168
0.412109	1.714055
0.412207	1.715670
0.412305	1.716815
0.412402	1.717494
0.412500	1.717601
0.412598	1.717623
0.412695	1.718069
0.412793	1.719031
0.412891	1.720122
0.412988	1.722112
0.413086	1.725276
0.413184	1.727025
0.413281	1.725817
0.413379	1.723609
0.413477	1.722376
0.413574	1.723621
0.413672	1.725519
0.413770	1.726108
0.413867	1.726048
0.413965	1.727299
0.414062	1.729027
0.414160	1.731405
0.414258	1.733087
0.414355	1.735986
0.414453	1.740743
0.414551	1.746015
0.414648	1.750433
0.414746	1.737414
0.414844	1.730129
0.414941	1.695695
0.415039	1.698699
0.415137	1.702326
0.415234	1.703655
0.415332	1.707766
0.415430	1.713155
0.415527	1.719719
0.415625	1.727024
0.415723	1.726638
0.415820	1.728621
0.415918	1.732219
0.416016	1.744094
0.416113	1.742840
0.416211	1.731890
0.416309	1.731283
0.416406	1.725565
0.416504	1.720001
0.416602	1.718051
0.416699	1.710374
0.416797	1.709103
0.416895	1.702421
0.416992	1.704593
0.417090	1.682308
0.417187	1.658085
0.417285	1.661749
0.417383	1.670097
0.417480	1.670444
0.417578	1.675857
0.417676	1.656294
0.417773	1.694039
0.417871	1.686307
0.417969	1.657391
0.418066	1.663391
0.418164	1.697951
0.418262	1.702613
0.418359	1.670964
0.418457	1.671514
0.418555	1.666965
0.418652	1.670715
0.418750	1.665452
0.418848	1.665261
0.418945	1.659899
0.419043	1.658808
0.419141	1.655617
0.419238	1.656141
0.419336	1.651422
0.419434	1.644690
0.419531	1.638942
0.419629	1.637316
0.419727	1.636439
0.419824	1.637061
0.419922	1.636763
0.420020	1.636709
0.420117	1.636391
0.420215	1.636707
0.420312	1.636988
0.420410	1.637781
0.420508	1.638602
0.420605	1.639852
0.420703	1.641448
0.420801	1.643431
0.420898	1.645411
0.420996	1.647189
0.421094	1.648448
0.421191	1.648902
0.421289	1.648329
0.421387	1.647265
0.421484	1.645933
0.421582	1.644558
0.421680	1.643491
0.421777	1.643007
0.421875	1.642948
0.421973	1.641998
0.422070	1.639735
0.422168	1.637770
0.422266	1.635951
0.422363	1.633008
0.422461	1.629068
0.422559	1.624609
0.422656	1.620097
0.422754	1.615766
0.422852	1.611622
0.422949	1.608041
0.423047	1.605160
0.423145	1.603039
0.423242	1.601324
0.423340	1.600118
0.423437	1.599364
0.423535	1.598610
0.423633	1.598301
0.423730	1.597951
0.423828	1.597836
0.423926	1.597911
0.424023	1.598152
0.424121	1.598297
0.424219	1.598628
0.424316	1.599315
0.424414	1.599868
0.424512	1.600701
0.424609	1.601594
0.424707	1.602721
0.424805	1.604046
0.424902	1.605401
0.425000	1.607020
0.425098	1.608711
0.425195	1.610636
0.425293	1.612609
0.425391	1.614677
0.425488	1.616784
0.425586	1.618885
0.425684	1.620815
0.425781	1.622846
0.425879	1.624696
0.425977	1.626655
0.426074	1.628574
0.426172	1.630677
0.426270	1.632838
0.426367	1.635151
0.426465	1.637475
0.426562	1.639896
0.426660	1.642302
0.426758	1.644672
0.426855	1.646915
0.426953	1.649218
0.427051	1.651380
0.427148	1.653720
0.427246	1.656106
0.427344	1.658408
0.427441	1.660717
0.427539	1.662993
0.427637	1.665312
0.427734	1.667568
0.427832	1.669971
0.427930	1.672265
0.428027	1.674734
0.428125	1.677329
0.428223	1.680113
0.428320	1.682519
0.428418	1.684603
0.428516	1.686159
0.428613	1.687327
0.428711	1.688331
0.428809	1.689523
0.428906	1.691198
0.429004	1.693455
0.429102	1.696234
0.429199	1.699021
0.429297	1.701532
0.429395	1.703116
0.429492	1.704413
0.429590	1.705478
0.429687	1.706926
0.429785	1.708155
0.429883	1.710336
0.429980	1.712334
0.430078	1.713362
0.430176	1.713808
0.430273	1.714855
0.430371	1.715494
0.430469	1.716112
0.430566	1.715914
0.430664	1.716763
0.430762	1.718573
0.430859	1.723790
0.430957	1.727794
0.431055	1.733428
0.431152	1.733586
0.431250	1.735388
0.431348	1.733717
0.431445	1.720243
0.431543	1.715828
0.431641	1.712822
0.431738	1.713365
0.431836	1.716159
0.431934	1.725488
0.432031	1.733900
0.432129	1.748466
0.432227	1.729863
0.432324	1.731570
0.432422	1.748777
0.432520	1.740589
0.432617	1.709322
0.432715	1.690366
0.432812	1.701056
0.432910	1.708575
0.433008	1.697623
0.433105	1.682538
0.433203	1.672244
0.433301	1.674506
0.433398	1.679131
0.433496	1.683512
0.433594	1.687112
0.433691	1.691105
0.433789	1.697777
0.433887	1.705789
0.433984	1.711474
0.434082	1.710907
0.434180	1.710990
0.434277	1.691140
0.434375	1.675208
0.434473	1.691821
0.434570	1.698969
0.434668	1.643354
0.434766	1.665671
0.434863	1.640680
0.434961	1.609344
0.435059	1.625371
0.435156	1.619344
0.435254	1.635717
0.435352	1.644085
0.435449	1.655075
0.435547	1.657880
0.435645	1.662114
0.435742	1.661808
0.435840	1.665140
0.435937	1.666241
0.436035	1.671447
0.436133	1.675000
0.436230	1.683777
0.436328	1.684862
0.436426	1.683708
0.436523	1.687117
0.436621	1.685215
0.436719	1.683859
0.436816	1.682554
0.436914	1.684215
0.437012	1.689264
0.437109	1.687188
0.437207	1.678077
0.437305	1.675311
0.437402	1.677129
0.437500	1.664829
0.437598	1.670803
0.437695	1.682335
0.437793	1.604411
0.437891	1.573088
0.437988	1.587770
0.438086	1.600354
0.438184	1.605354
0.438281	1.597648
0.438379	1.594798
0.438477	1.591838
0.438574	1.585136
0.438672	1.581298
0.438770	1.580283
0.438867	1.580712
0.438965	1.581390
0.439062	1.582565
0.439160	1.583716
0.439258	1.584861
0.439355	1.585879
0.439453	1.586559
0.439551	1.586946
0.439648	1.587297
0.439746	1.587897
0.439844	1.588691
0.439941	1.589751
0.440039	1.590954
0.440137	1.592211
0.440234	1.593785
0.440332	1.595340
0.440430	1.597120
0.440527	1.598797
0.440625	1.600512
0.440723	1.602253
0.440820	1.603969
0.440918	1.605777
0.441016	1.607729
0.441113	1.609563
0.441211	1.611542
0.441309	1.613556
0.441406	1.615674
0.441504	1.617719
0.441602	1.619812
0.441699	1.622034
0.441797	1.624256
0.441895	1.626553
0.441992	1.628788
0.442090	1.630968
0.442187	1.633150
0.442285	1.635182
0.442383	1.637316
0.442480	1.639378
0.442578	1.641494
0.442676	1.643629
0.442773	1.645870
0.442871	1.648070
0.442969	1.650435
0.443066	1.652913
0.443164	1.655493
0.443262	1.658324
0.443359	1.661231
0.443457	1.664377
0.443555	1.667697
0.443652	1.670982
0.443750	1.673909
0.443848	1.676398
0.443945	1.678603
0.444043	1.680669
0.444141	1.682735
0.444238	1.685081
0.444336	1.687735
0.444434	1.690792
0.444531	1.693854
0.444629	1.696853
0.444727	1.699717
0.444824	1.702829
0.444922	1.705994
0.445020	1.709394
0.445117	1.713099
0.445215	1.716931
0.445312	1.719843
0.445410	1.721848
0.445508	1.723202
0.445605	1.725173
0.445703	1.726843
0.445801	1.728343
0.445898	1.728598
0.445996	1.731625
0.446094	1.737008
0.446191	1.743056
0.446289	1.749449
0.446387	1.742653
0.446484	1.721568
0.446582	1.724117
0.446680	1.709826
0.446777	1.699558
0.446875	1.662146
0.446973	1.677247
0.447070	1.701843
0.447168	1.680649
0.447266	1.655191
0.447363	1.630666
0.447461	1.649953
0.447559	1.649965
0.447656	1.665539
0.447754	1.668616
0.447852	1.703632
0.447949	1.661385
0.448047	1.673311
0.448145	1.710537
0.448242	1.687818
0.448340	1.662611
0.448437	1.658692
0.448535	1.648468
0.448633	1.647586
0.448730	1.630664
0.448828	1.586096
0.448926	1.615977
0.449023	1.628187
0.449121	1.609304
0.449219	1.574262
0.449316	1.564257
0.449414	1.580397
0.449512	1.565867
0.449609	1.517342
0.449707	1.521815
0.449805	1.530923
0.449902	1.555540
0.450000	1.587093
0.450098	1.573456
0.450195	1.538569
0.450293	1.595816
0.450391	1.628348
0.450488	1.573758
0.450586	1.592343
0.450684	1.613699
0.450781	1.611341
0.450879	1.615058
0.450977	1.612932
0.451074	1.616151
0.451172	1.615963
0.451270	1.618493
0.451367	1.618387
0.451465	1.619888
0.451562	1.619496
0.451660	1.620692
0.451758	1.621328
0.451855	1.622961
0.451953	1.623860
0.452051	1.625705
0.452148	1.627037
0.452246	1.629391
0.452344	1.631359
0.452441	1.633826
0.452539	1.635836
0.452637	1.638040
0.452734	1.639761
0.452832	1.641914
0.452930	1.644401
0.453027	1.648327
0.453125	1.653643
0.453223	1.661639
0.453320	1.663591
0.453418	1.664366
0.453516	1.666844
0.453613	1.667252
0.453711	1.666805
0.453809	1.665287
0.453906	1.663260
0.454004	1.661475
0.454102	1.660958
0.454199	1.661209
0.454297	1.662614
0.454395	1.664570
0.454492	1.666925
0.454590	1.669357
0.454687	1.671613
0.454785	1.673319
0.454883	1.674913
0.454980	1.676521
0.455078	1.678381
0.455176	1.680591
0.455273	1.683178
0.455371	1.685997
0.455469	1.688802
0.455566	1.691715
0.455664	1.694326
0.455762	1.696100
0.455859	1.697130
0.455957	1.697811
0.456055	1.698577
0.456152	1.699664
0.456250	1.701320
0.456348	1.703556
0.456445	1.705991
0.456543	1.708521
0.456641	1.710930
0.456738	1.713230
0.456836	1.715808
0.456934	1.717052
0.457031	1.716588
0.457129	1.713820
0.457227	1.713656
0.457324	1.712188
0.457422	1.707885
0.457520	1.705614
0.457617	1.705514
0.457715	1.706749
0.457812	1.707952
0.457910	1.707004
0.458008	1.704865
0.458105	1.702708
0.458203	1.701465
0.458301	1.701570
0.458398	1.702718
0.458496	1.704945
0.458594	1.709095
0.458691	1.711061
0.458789	1.712658
0.458887	1.714727
0.458984	1.715693
0.459082	1.715644
0.459180	1.714394
0.459277	1.711794
0.459375	1.709634
0.459473	1.709435
0.459570	1.708758
0.459668	1.706478
0.459766	1.704788
0.459863	1.699309
0.459961	1.697776
0.460059	1.698143
0.460156	1.701661
0.460254	1.708560
0.460352	1.724157
0.460449	1.704896
0.460547	1.693606
0.460645	1.701357
0.460742	1.708482
0.460840	1.712402
0.460937	1.717837
0.461035	1.706012
0.461133	1.693852
0.461230	1.676929
0.461328	1.671359
0.461426	1.698821
0.461523	1.684836
0.461621	1.672990
0.461719	1.680116
0.461816	1.679626
0.461914	1.699975
0.462012	1.667865
0.462109	1.634871
0.462207	1.652337
0.462305	1.652783
0.462402	1.656830
0.462500	1.654776
0.462598	1.658790
0.462695	1.661376
0.462793	1.664903
0.462891	1.664056
0.462988	1.664107
0.463086	1.661604
0.463184	1.661999
0.463281	1.662387
0.463379	1.663682
0.463477	1.664300
0.463574	1.665400
0.463672	1.665940
0.463770	1.666700
0.463867	1.667115
0.463965	1.667667
0.464062	1.667901
0.464160	1.668134
0.464258	1.667679
0.464355	1.667510
0.464453	1.666827
0.464551	1.666578
0.464648	1.666231
0.464746	1.666567
0.464844	1.666600
0.464941	1.666548
0.465039	1.665573
0.465137	1.665656
0.465234	1.664378
0.465332	1.662350
0.465430	1.658431
0.465527	1.664601
0.465625	1.680544
0.465723	1.666573
0.465820	1.653396
0.465918	1.630189
0.466016	1.626093
0.466113	1.624042
0.466211	1.623102
0.466309	1.620567
0.466406	1.619065
0.466504	1.617686
0.466602	1.617166
0.466699	1.616767
0.466797	1.617016
0.466895	1.617468
0.466992	1.618065
0.467090	1.618705
0.467187	1.619615
0.467285	1.620541
0.467383	1.621673
0.467480	1.622959
0.467578	1.624483
0.467676	1.626245
0.467773	1.628251
0.467871	1.630334
0.467969	1.632539
0.468066	1.634618
0.468164	1.636586
0.468262	1.638449
0.468359	1.640181
0.468457	1.642128
0.468555	1.644092
0.468652	1.646223
0.468750	1.648383
0.468848	1.650800
0.468945	1.653022
0.469043	1.655234
0.469141	1.657445
0.469238	1.659532
0.469336	1.661486
0.469434	1.663359
0.469531	1.665725
0.469629	1.669280
0.469727	1.673954
0.469824	1.678786
0.469922	1.681156
0.470020	1.682284
0.470117	1.684120
0.470215	1.685658
0.470312	1.688177
0.470410	1.690925
0.470508	1.693518
0.470605	1.695642
0.470703	1.697850
0.470801	1.699032
0.470898	1.698192
0.470996	1.696353
0.471094	1.695387
0.471191	1.695757
0.471289	1.697500
0.471387	1.700296
0.471484	1.703978
0.471582	1.707845
0.471680	1.712180
0.471777	1.716218
0.471875	1.718843
0.471973	1.721009
0.472070	1.726358
0.472168	1.730851
0.472266	1.728218
0.472363	1.723706
0.472461	1.721993
0.472559	1.725107
0.472656	1.719396
0.472754	1.710330
0.472852	1.713203
0.472949	1.725662
0.473047	1.737555
0.473145	1.732060
0.473242	1.723087
0.473340	1.717291
0.473437	1.721209
0.473535	1.723736
0.473633	1.723254
0.473730	1.718531
0.473828	1.716069
0.473926	1.716359
0.474023	1.731411
0.474121	1.740260
0.474219	1.725331
0.474316	1.710251
0.474414	1.711833
0.474512	1.705385
0.474609	1.712778
0.474707	1.657961
0.474805	1.654717
0.474902	1.645746
0.475000	1.651763
0.475098	1.661956
0.475195	1.693479
0.475293	1.725103
0.475391	1.700848
0.475488	1.692859
0.475586	1.682174
0.475684	1.671513
0.475781	1.671689
0.475879	1.688871
0.475977	1.610670
0.476074	1.525389
0.476172	1.591341
0.476270	1.668858
0.476367	1.649358
0.476465	1.616866
0.476562	1.626611
0.476660	1.606864
0.476758	1.673599
0.476855	1.644938
0.476953	1.616487
0.477051	1.616534
0.477148	1.602909
0.477246	1.622927
0.477344	1.631932
0.477441	1.603227
0.477539	1.605325
0.477637	1.604955
0.477734	1.610135
0.477832	1.630271
0.477930	1.638188
0.478027	1.644246
0.478125	1.641075
0.478223	1.637366
0.478320	1.632635
0.478418	1.642962
0.478516	1.614793
0.478613	1.548727
0.478711	1.473052
0.478809	1.486942
0.478906	1.554384
0.479004	1.556494
0.479102	1.586743
0.479199	1.597080
0.479297	1.592615
0.479395	1.573981
0.479492	1.587855
0.479590	1.595967
0.479687	1.642374
0.479785	1.630328
0.479883	1.621902
0.479980	1.628436
0.480078	1.624697
0.480176	1.600539
0.480273	1.595287
0.480371	1.583487
0.480469	1.590239
0.480566	1.589286
0.480664	1.593263
0.480762	1.592831
0.480859	1.595742
0.480957	1.595912
0.481055	1.598596
0.481152	1.599154
0.481250	1.601255
0.481348	1.601925
0.481445	1.603834
0.481543	1.604917
0.481641	1.606854
0.481738	1.608232
0.481836	1.610166
0.481934	1.611451
0.482031	1.612775
0.482129	1.613450
0.482227	1.613772
0.482324	1.613871
0.482422	1.614034
0.482520	1.614189
0.482617	1.614434
0.482715	1.614837
0.482812	1.615356
0.482910	1.616246
0.483008	1.617333
0.483105	1.618701
0.483203	1.620523
0.483301	1.622553
0.483398	1.625163
0.483496	1.628086
0.483594	1.631437
0.483691	1.635112
0.483789	1.639151
0.483887	1.643294
0.483984	1.647213
0.484082	1.651097
0.484180	1.654126
0.484277	1.655953
0.484375	1.656953
0.484473	1.657775
0.484570	1.658970
0.484668	1.660717
0.484766	1.662913
0.484863	1.665597
0.484961	1.668807
0.485059	1.672378
0.485156	1.676112
0.485254	1.680138
0.485352	1.684284
0.485449	1.688990
0.485547	1.693017
0.485645	1.693960
0.485742	1.696680
0.485840	1.699368
0.485937	1.702469
0.486035	1.702968
0.486133	1.703856
0.486230	1.705236
0.486328	1.706291
0.486426	1.709226
0.486523	1.714648
0.486621	1.720877
0.486719	1.725946
0.486816	1.725013
0.486914	1.723011
0.487012	1.726387
0.487109	1.722009
0.487207	1.720101
0.487305	1.718579
0.487402	1.716411
0.487500	1.715916
0.487598	1.711372
0.487695	1.713182
0.487793	1.717373
0.487891	1.718762
0.487988	1.720400
0.488086	1.721298
0.488184	1.726148
0.488281	1.731580
0.488379	1.737468
0.488477	1.735049
0.488574	1.721776
0.488672	1.701708
0.488770	1.681144
0.488867	1.662084
0.488965	1.660093
0.489062	1.644750
0.489160	1.657778
0.489258	1.696889
0.489355	1.695133
0.489453	1.660915
0.489551	1.668112
0.489648	1.692957
0.489746	1.671716
0.489844	1.656974
0.489941	1.655971
0.490039	1.688261
0.490137	1.684729
0.490234	1.686337
0.490332	1.647490
0.490430	1.635534
0.490527	1.651049
0.490625	1.626232
0.490723	1.666861
0.490820	1.663100
0.490918	1.667771
0.491016	1.685645
0.491113	1.637216
0.491211	1.579230
0.491309	1.557687
0.491406	1.546980
0.491504	1.562195
0.491602	1.597252
0.491699	1.610628
0.491797	1.592472
0.491895	1.599856
0.491992	1.634517
0.492090	1.658019
0.492187	1.643324
0.492285	1.615215
0.492383	1.618664
0.492480	1.582628
0.492578	1.618646
0.492676	1.626452
0.492773	1.599323
0.492871	1.608629
0.492969	1.605239
0.493066	1.617318
0.493164	1.617434
0.493262	1.627312
0.493359	1.631406
0.493457	1.639234
0.493555	1.636170
0.493652	1.633351
0.493750	1.632243
0.493848	1.629848
0.493945	1.615813
0.494043	1.612469
0.494141	1.609279
0.494238	1.609356
0.494336	1.608633
0.494434	1.609808
0.494531	1.610147
0.494629	1.611801
0.494727	1.612726
0.494824	1.614358
0.494922	1.615504
0.495020	1.617185
0.495117	1.618589
0.495215	1.620297
0.495312	1.621546
0.495410	1.622905
0.495508	1.624153
0.495605	1.625324
0.495703	1.626528
0.495801	1.628036
0.495898	1.629501
0.495996	1.631136
0.496094	1.632867
0.496191	1.634535
0.496289	1.636313
0.496387	1.638202
0.496484	1.639959
0.496582	1.641729
0.496680	1.643424
0.496777	1.645147
0.496875	1.646953
0.496973	1.648980
0.497070	1.651077
0.497168	1.653415
0.497266	1.656017
0.497363	1.658450
0.497461	1.660997
0.497559	1.663267
0.497656	1.665407
0.497754	1.667234
0.497852	1.669116
0.497949	1.670672
0.498047	1.672339
0.498145	1.673821
0.498242	1.675993
0.498340	1.678051
0.498437	1.681117
0.498535	1.684271
0.498633	1.688772
0.498730	1.692784
0.498828	1.695246
0.498926	1.695729
0.499023	1.698370
0.499121	1.701981
0.499219	1.708762
0.499316	1.703572
0.499414	1.702722
0.499512	1.693995
0.499609	1.706951
0.499707	1.679357
0.499805	1.696145
0.499902	1.693520
0.500000	1.680229
0.500098	1.687450
0.500195	1.682382
0.500293	1.685774
0.500391	1.685894
0.500488	1.690887
0.500586	1.693073
0.500684	1.699053
0.500781	1.704436
0.500879	1.712745
0.500977	1.717942
0.501074	1.719713
0.501172	1.715835
0.501270	1.713734
0.501367	1.712359
0.501465	1.713198
0.501562	1.714087
0.501660	1.716037
0.501758	1.716961
0.501855	1.716337
0.501953	1.717576
0.502051	1.718969
0.502148	1.719353
0.502246	1.718174
0.502344	1.715822
0.502441	1.712000
0.502539	1.711120
0.502637	1.711428
0.502734	1.719102
0.502832	1.724197
0.502930	1.725973
0.503027	1.728885
0.503125	1.717785
0.503223	1.712345
0.503320	1.725569
0.503418	1.736324
0.503516	1.719832
0.503613	1.713199
0.503711	1.713526
0.503809	1.717591
0.503906	1.720115
0.504004	1.725724
0.504102	1.728127
0.504199	1.716499
0.504297	1.720724
0.504395	1.731758
0.504492	1.729827
0.504590	1.702999
0.504687	1.702130
0.504785	1.715128
0.504883	1.714996
0.504980	1.713011
0.505078	1.717951
0.505176	1.669147
0.505273	1.666231
0.505371	1.668668
0.505469	1.666958
0.505566	1.664289
0.505664	1.664483
0.505762	1.668257
0.505859	1.675181
0.505957	1.682428
0.506055	1.687882
0.506152	1.687019
0.506250	1.685835
0.506348	1.686995
0.506445	1.689065
0.506543	1.691452
0.506641	1.695099
0.506738	1.698863
0.506836	1.697533
0.506934	1.690007
0.507031	1.683213
0.507129	1.678038
0.507227	1.674896
0.507324	1.672668
0.507422	1.670429
0.507520	1.668053
0.507617	1.665891
0.507715	1.664552
0.507812	1.664368
0.507910	1.665569
0.508008	1.668347
0.508105	1.673610
0.508203	1.680013
0.508301	1.680699
0.508398	1.685608
0.508496	1.691347
0.508594	1.690319
0.508691	1.689757
0.508789	1.690395
0.508887	1.678814
0.508984	1.669824
0.509082	1.660722
0.509180	1.655426
0.509277	1.652234
0.509375	1.650609
0.509473	1.649373
0.509570	1.648727
0.509668	1.647243
0.509766	1.645005
0.509863	1.641954
0.509961	1.639172
0.510059	1.636935
0.510156	1.635471
0.510254	1.634447
0.510352	1.633792
0.510449	1.633324
0.510547	1.633206
0.510645	1.633113
0.510742	1.633200
0.510840	1.633409
0.510937	1.633555
0.511035	1.633914
0.511133	1.634221
0.511230	1.634528
0.511328	1.634961
0.511426	1.635515
0.511523	1.636112
0.511621	1.636781
0.511719	1.637465
0.511816	1.638399
0.511914	1.639487
0.512012	1.640729
0.512109	1.642177
0.512207	1.643866
0.512305	1.645677
0.512402	1.647430
0.512500	1.649528
0.512598	1.651632
0.512695	1.653921
0.512793	1.656381
0.512891	1.658822
0.512988	1.661555
0.513086	1.664303
0.513184	1.667187
0.513281	1.669894
0.513379	1.672635
0.513477	1.675219
0.513574	1.677720
0.513672	1.680081
0.513770	1.682517
0.513867	1.684827
0.513965	1.686897
0.514062	1.688700
0.514160	1.690450
0.514258	1.692188
0.514355	1.694162
0.514453	1.695618
0.514551	1.696748
0.514648	1.698012
0.514746	1.700355
0.514844	1.703637
0.514941	1.707088
0.515039	1.710107
0.515137	1.715785
0.515234	1.722991
0.515332	1.732246
0.515430	1.729310
0.515527	1.705252
0.515625	1.717444
0.515723	1.720477
0.515820	1.700460
0.515918	1.696272
0.516016	1.681343
0.516113	1.686112
0.516211	1.689117
0.516309	1.636719
0.516406	1.598293
0.516504	1.632601
0.516602	1.627974
0.516699	1.636335
0.516797	1.620670
0.516895	1.646192
0.516992	1.686695
0.517090	1.683245
0.517187	1.688195
0.517285	1.689625
0.517383	1.691800
0.517480	1.697140
0.517578	1.704061
0.517676	1.707462
0.517773	1.709612
0.517871	1.710483
0.517969	1.710708
0.518066	1.706543
0.518164	1.707713
0.518262	1.704410
0.518359	1.699150
0.518457	1.689852
0.518555	1.655812
0.518652	1.636632
0.518750	1.598460
0.518848	1.530857
0.518945	1.506161
0.519043	1.646526
0.519141	1.669472
0.519238	1.644249
0.519336	1.655338
0.519434	1.675591
0.519531	1.689968
0.519629	1.695496
0.519727	1.664263
0.519824	1.671118
0.519922	1.671339
0.520020	1.673956
0.520117	1.673230
0.520215	1.675758
0.520312	1.677901
0.520410	1.684041
0.520508	1.692359
0.520605	1.704837
0.520703	1.714487
0.520801	1.716598
0.520898	1.701851
0.520996	1.697047
0.521094	1.693245
0.521191	1.691363
0.521289	1.693472
0.521387	1.696266
0.521484	1.696805
0.521582	1.689821
0.521680	1.681485
0.521777	1.675176
0.521875	1.669770
0.521973	1.667472
0.522070	1.666271
0.522168	1.661839
0.522266	1.656970
0.522363	1.656428
0.522461	1.654589
0.522559	1.649320
0.522656	1.643326
0.522754	1.637786
0.522852	1.633920
0.522949	1.632051
0.523047	1.631573
0.523145	1.632087
0.523242	1.633300
0.523340	1.635129
0.523437	1.637796
0.523535	1.640848
0.523633	1.643680
0.523730	1.644494
0.523828	1.644078
0.523926	1.642080
0.524023	1.642022
0.524121	1.640836
0.524219	1.637776
0.524316	1.637549
0.524414	1.638003
0.524512	1.639003
0.524609	1.640002
0.524707	1.641144
0.524805	1.642269
0.524902	1.643321
0.525000	1.643888
0.525098	1.644376
0.525195	1.644683
0.525293	1.645068
0.525391	1.645679
0.525488	1.646383
0.525586	1.647321
0.525684	1.648302
0.525781	1.649361
0.525879	1.650419
0.525977	1.651438
0.526074	1.652508
0.526172	1.653413
0.526270	1.654547
0.526367	1.655541
0.526465	1.656694
0.526562	1.657822
0.526660	1.659153
0.526758	1.660383
0.526855	1.661747
0.526953	1.663184
0.527051	1.664523
0.527148	1.666035
0.527246	1.667668
0.527344	1.669130
0.527441	1.670672
0.527539	1.672085
0.527637	1.673701
0.527734	1.675239
0.527832	1.676712
0.527930	1.678136
0.528027	1.679291
0.528125	1.680081
0.528223	1.680743
0.528320	1.681598
0.528418	1.682883
0.528516	1.684312
0.528613	1.686164
0.528711	1.688375
0.528809	1.690632
0.528906	1.693209
0.529004	1.696629
0.529102	1.700965
0.529199	1.703719
0.529297	1.703845
0.529395	1.702159
0.529492	1.700086
0.529590	1.698553
0.529687	1.697406
0.529785	1.696705
0.529883	1.696336
0.529980	1.697210
0.530078	1.699997
0.530176	1.703943
0.530273	1.708478
0.530371	1.712495
0.530469	1.715675
0.530566	1.717421
0.530664	1.719123
0.530762	1.722282
0.530859	1.728697
0.530957	1.729926
0.531055	1.734416
0.531152	1.730704
0.531250	1.721447
0.531348	1.712243
0.531445	1.710885
0.531543	1.707016
0.531641	1.707236
0.531738	1.707327
0.531836	1.711975
0.531934	1.715694
0.532031	1.727838
0.532129	1.726181
0.532227	1.722762
0.532324	1.694073
0.532422	1.734439
0.532520	1.707515
0.532617	1.698034
0.532715	1.718171
0.532812	1.705500
0.532910	1.676945
0.533008	1.691077
0.533105	1.698370
0.533203	1.697214
0.533301	1.697415
0.533398	1.692539
0.533496	1.689202
0.533594	1.685586
0.533691	1.687267
0.533789	1.688087
0.533887	1.688749
0.533984	1.687885
0.534082	1.688273
0.534180	1.688186
0.534277	1.689932
0.534375	1.691995
0.534473	1.695645
0.534570	1.699250
0.534668	1.704002
0.534766	1.707917
0.534863	1.711867
0.534961	1.712265
0.535059	1.712352
0.535156	1.713646
0.535254	1.719014
0.535352	1.723181
0.535449	1.724282
0.535547	1.721907
0.535645	1.724581
0.535742	1.698782
0.535840	1.716375
0.535937	1.722812
0.536035	1.715110
0.536133	1.712452
0.536230	1.703029
0.536328	1.708562
0.536426	1.696861
0.536523	1.688191
0.536621	1.676497
0.536719	1.668467
0.536816	1.671727
0.536914	1.672967
0.537012	1.668373
0.537109	1.663452
0.537207	1.656278
0.537305	1.649032
0.537402	1.642657
0.537500	1.637864
0.537598	1.633947
0.537695	1.631065
0.537793	1.628881
0.537891	1.627042
0.537988	1.625292
0.538086	1.623828
0.538184	1.622952
0.538281	1.622719
0.538379	1.623184
0.538477	1.624241
0.538574	1.625983
0.538672	1.628223
0.538770	1.630631
0.538867	1.633394
0.538965	1.636230
0.539062	1.639077
0.539160	1.641564
0.539258	1.643902
0.539355	1.646102
0.539453	1.648115
0.539551	1.650062
0.539648	1.651795
0.539746	1.653393
0.539844	1.654475
0.539941	1.655074
0.540039	1.655721
0.540137	1.656607
0.540234	1.658077
0.540332	1.659715
0.540430	1.661489
0.540527	1.663341
0.540625	1.665202
0.540723	1.667152
0.540820	1.669213
0.540918	1.671071
0.541016	1.672527
0.541113	1.673636
0.541211	1.674204
0.541309	1.674760
0.541406	1.675341
0.541504	1.675963
0.541602	1.676464
0.541699	1.676671
0.541797	1.676550
0.541895	1.676383
0.541992	1.676150
0.542090	1.676069
0.542187	1.676059
0.542285	1.676111
0.542383	1.676195
0.542480	1.676596
0.542578	1.677416
0.542676	1.678471
0.542773	1.679512
0.542871	1.680552
0.542969	1.681292
0.543066	1.682122
0.543164	1.682735
0.543262	1.683548
0.543359	1.684827
0.543457	1.685259
0.543555	1.684036
0.543652	1.682713
0.543750	1.681212
0.543848	1.679977
0.543945	1.678290
0.544043	1.675855
0.544141	1.672793
0.544238	1.669645
0.544336	1.667262
0.544434	1.665618
0.544531	1.665063
0.544629	1.665629
0.544727	1.667405
0.544824	1.668110
0.544922	1.669563
0.545020	1.670860
0.545117	1.671959
0.545215	1.673838
0.545312	1.675561
0.545410	1.677169
0.545508	1.679860
0.545605	1.684373
0.545703	1.683903
0.545801	1.677533
0.545898	1.673806
0.545996	1.672684
0.546094	1.672239
0.546191	1.671793
0.546289	1.671307
0.546387	1.671243
0.546484	1.671926
0.546582	1.673362
0.546680	1.675317
0.546777	1.677938
0.546875	1.680656
0.546973	1.683604
0.547070	1.686280
0.547168	1.689405
0.547266	1.692341
0.547363	1.695843
0.547461	1.699111
0.547559	1.702338
0.547656	1.704421
0.547754	1.705806
0.547852	1.706051
0.547949	1.708040
0.548047	1.710115
0.548145	1.713863
0.548242	1.717011
0.548340	1.721788
0.548437	1.723886
0.548535	1.729965
0.548633	1.729817
0.548730	1.727071
0.548828	1.731835
0.548926	1.750243
0.549023	1.734596
0.549121	1.715176
0.549219	1.710064
0.549316	1.742242
0.549414	1.744152
0.549512	1.733419
0.549609	1.732201
0.549707	1.684123
0.549805	1.691481
0.549902	1.699493
0.550000	1.700177
0.550098	1.692185
0.550195	1.675514
0.550293	1.675287
0.550391	1.675063
0.550488	1.679249
0.550586	1.683974
0.550684	1.688359
0.550781	1.692396
0.550879	1.693033
0.550977	1.693846
0.551074	1.690483
0.551172	1.692066
0.551270	1.690170
0.551367	1.696425
0.551465	1.692068
0.551562	1.699276
0.551660	1.692115
0.551758	1.668767
0.551855	1.586043
0.551953	1.602551
0.552051	1.616953
0.552148	1.610185
0.552246	1.582813
0.552344	1.598565
0.552441	1.608913
0.552539	1.624812
0.552637	1.636159
0.552734	1.655181
0.552832	1.684165
0.552930	1.655690
0.553027	1.630966
0.553125	1.616690
0.553223	1.641017
0.553320	1.630705
0.553418	1.634968
0.553516	1.633177
0.553613	1.640415
0.553711	1.641734
0.553809	1.647861
0.553906	1.650261
0.554004	1.655690
0.554102	1.658441
0.554199	1.662566
0.554297	1.664769
0.554395	1.668032
0.554492	1.670558
0.554590	1.674004
0.554687	1.677965
0.554785	1.681829
0.554883	1.685118
0.554980	1.686655
0.555078	1.690248
0.555176	1.693929
0.555273	1.696474
0.555371	1.691275
0.555469	1.689693
0.555566	1.686560
0.555664	1.702068
0.555762	1.702584
0.555859	1.673493
0.555957	1.669482
0.556055	1.663019
0.556152	1.628817
0.556250	1.585872
0.556348	1.584437
0.556445	1.559277
0.556543	1.566174
0.556641	1.598822
0.556738	1.598125
0.556836	1.642836
0.556934	1.663764
0.557031	1.673582
0.557129	1.665842
0.557227	1.658959
0.557324	1.657540
0.557422	1.674330
0.557520	1.684409
0.557617	1.672962
0.557715	1.650311
0.557812	1.636425
0.557910	1.634216
0.558008	1.631837
0.558105	1.631512
0.558203	1.632673
0.558301	1.633707
0.558398	1.634739
0.558496	1.635484
0.558594	1.636315
0.558691	1.637188
0.558789	1.638181
0.558887	1.639346
0.558984	1.640600
0.559082	1.641976
0.559180	1.643378
0.559277	1.645054
0.559375	1.646614
0.559473	1.648042
0.559570	1.649349
0.559668	1.650502
0.559766	1.651695
0.559863	1.653260
0.559961	1.655036
0.560059	1.656809
0.560156	1.658863
0.560254	1.660701
0.560352	1.662652
0.560449	1.664696
0.560547	1.666794
0.560645	1.668962
0.560742	1.671060
0.560840	1.673205
0.560937	1.675319
0.561035	1.677475
0.561133	1.679717
0.561230	1.682261
0.561328	1.684935
0.561426	1.687786
0.561523	1.690673
0.561621	1.693266
0.561719	1.695289
0.561816	1.696661
0.561914	1.697501
0.562012	1.698253
0.562109	1.699291
0.562207	1.700903
0.562305	1.702948
0.562402	1.705352
0.562500	1.707821
0.562598	1.709558
0.562695	1.710792
0.562793	1.711457
0.562891	1.711374
0.562988	1.711060
0.563086	1.711211
0.563184	1.712037
0.563281	1.713971
0.563379	1.717188
0.563477	1.721056
0.563574	1.724119
0.563672	1.725702
0.563770	1.723873
0.563867	1.720733
0.563965	1.719151
0.564062	1.719535
0.564160	1.721111
0.564258	1.724442
0.564355	1.726961
0.564453	1.725823
0.564551	1.722928
0.564648	1.722759
0.564746	1.720093
0.564844	1.714827
0.564941	1.716750
0.565039	1.718874
0.565137	1.724744
0.565234	1.727931
0.565332	1.727790
0.565430	1.724851
0.565527	1.735377
0.565625	1.723136
0.565723	1.702157
0.565820	1.707047
0.565918	1.706094
0.566016	1.712908
0.566113	1.713984
0.566211	1.716558
0.566309	1.713147
0.566406	1.711447
0.566504	1.710782
0.566602	1.714385
0.566699	1.711383
0.566797	1.717393
0.566895	1.711325
0.566992	1.699446
0.567090	1.693167
0.567187	1.688849
0.567285	1.681557
0.567383	1.679742
0.567480	1.682126
0.567578	1.686931
0.567676	1.689815
0.567773	1.692972
0.567871	1.694570
0.567969	1.701100
0.568066	1.688936
0.568164	1.701305
0.568262	1.674592
0.568359	1.641998
0.568457	1.625962
0.568555	1.642718
0.568652	1.634574
0.568750	1.620601
0.568848	1.608927
0.568945	1.620416
0.569043	1.647124
0.569141	1.666265
0.569238	1.669146
0.569336	1.668719
0.569434	1.666214
0.569531	1.677225
0.569629	1.664061
0.569727	1.642624
0.569824	1.635559
0.569922	1.641550
0.570020	1.668018
0.570117	1.680190
0.570215	1.683150
0.570312	1.678063
0.570410	1.668983
0.570508	1.661779
0.570605	1.656216
0.570703	1.653224
0.570801	1.651218
0.570898	1.651059
0.570996	1.652073
0.571094	1.653874
0.571191	1.661131
0.571289	1.662422
0.571387	1.658599
0.571484	1.658018
0.571582	1.654962
0.571680	1.651661
0.571777	1.650073
0.571875	1.650168
0.571973	1.648286
0.572070	1.645291
0.572168	1.642376
0.572266	1.639936
0.572363	1.637996
0.572461	1.638453
0.572559	1.640191
0.572656	1.642546
0.572754	1.644865
0.572852	1.647311
0.572949	1.649526
0.573047	1.652007
0.573145	1.654564
0.573242	1.657542
0.573340	1.660943
0.573437	1.665410
0.573535	1.670735
0.573633	1.677009
0.573730	1.680862
0.573828	1.680240
0.573926	1.679169
0.574023	1.678640
0.574121	1.679589
0.574219	1.680799
0.574316	1.681366
0.574414	1.681746
0.574512	1.681978
0.574609	1.681364
0.574707	1.680055
0.574805	1.678279
0.574902	1.676372
0.575000	1.674718
0.575098	1.674685
0.575195	1.676262
0.575293	1.679874
0.575391	1.685992
0.575488	1.699159
0.575586	1.694242
0.575684	1.685347
0.575781	1.680431
0.575879	1.675218
0.575977	1.676828
0.576074	1.678466
0.576172	1.683911
0.576270	1.688860
0.576367	1.692630
0.576465	1.697281
0.576562	1.695623
0.576660	1.695456
0.576758	1.695297
0.576855	1.699973
0.576953	1.705176
0.577051	1.687538
0.577148	1.687410
0.577246	1.684739
0.577344	1.681112
0.577441	1.677623
0.577539	1.675266
0.577637	1.674439
0.577734	1.675167
0.577832	1.676749
0.577930	1.679125
0.578027	1.681639
0.578125	1.684600
0.578223	1.687250
0.578320	1.689832
0.578418	1.690816
0.578516	1.687955
0.578613	1.681827
0.578711	1.679048
0.578809	1.678576
0.578906	1.677078
0.579004	1.675718
0.579102	1.674561
0.579199	1.675343
0.579297	1.677708
0.579395	1.684083
0.579492	1.687684
0.579590	1.687036
0.579687	1.688376
0.579785	1.690133
0.579883	1.694574
0.579980	1.696625
0.580078	1.693397
0.580176	1.688442
0.580273	1.685625
0.580371	1.684750
0.580469	1.685091
0.580566	1.686804
0.580664	1.689732
0.580762	1.694136
0.580859	1.699516
0.580957	1.705194
0.581055	1.708822
0.581152	1.710744
0.581250	1.711150
0.581348	1.710946
0.581445	1.714334
0.581543	1.714686
0.581641	1.712217
0.581738	1.712395
0.581836	1.715860
0.581934	1.719274
0.582031	1.725848
0.582129	1.723762
0.582227	1.720813
0.582324	1.715425
0.582422	1.711132
0.582520	1.709294
0.582617	1.715223
0.582715	1.723675
0.582812	1.732839
0.582910	1.697188
0.583008	1.683053
0.583105	1.712794
0.583203	1.707887
0.583301	1.715209
0.583398	1.705277
0.583496	1.698247
0.583594	1.709024
0.583691	1.709764
0.583789	1.707412
0.583887	1.709542
0.583984	1.704037
0.584082	1.687216
0.584180	1.642225
0.584277	1.636288
0.584375	1.678760
0.584473	1.675753
0.584570	1.682754
0.584668	1.696312
0.584766	1.675671
0.584863	1.665653
0.584961	1.654524
0.585059	1.645160
0.585156	1.653915
0.585254	1.657694
0.585352	1.613374
0.585449	1.588255
0.585547	1.562577
0.585645	1.547859
0.585742	1.564151
0.585840	1.573335
0.585937	1.591251
0.586035	1.607728
0.586133	1.644733
0.586230	1.659303
0.586328	1.669089
0.586426	1.675138
0.586523	1.678560
0.586621	1.678238
0.586719	1.678845
0.586816	1.677019
0.586914	1.672016
0.587012	1.665953
0.587109	1.656941
0.587207	1.649095
0.587305	1.664161
0.587402	1.684523
0.587500	1.661543
0.587598	1.642512
0.587695	1.637883
0.587793	1.630204
0.587891	1.627395
0.587988	1.624596
0.588086	1.624520
0.588184	1.621317
0.588281	1.619248
0.588379	1.618559
0.588477	1.619956
0.588574	1.621113
0.588672	1.622993
0.588770	1.624440
0.588867	1.626181
0.588965	1.627602
0.589062	1.629152
0.589160	1.630853
0.589258	1.632850
0.589355	1.635508
0.589453	1.638711
0.589551	1.642482
0.589648	1.646443
0.589746	1.650829
0.589844	1.655313
0.589941	1.660737
0.590039	1.666882
0.590137	1.673886
0.590234	1.674175
0.590332	1.670806
0.590430	1.671900
0.590527	1.671812
0.590625	1.672543
0.590723	1.673252
0.590820	1.675144
0.590918	1.676738
0.591016	1.678979
0.591113	1.680420
0.591211	1.683143
0.591309	1.685755
0.591406	1.690933
0.591504	1.695850
0.591602	1.704753
0.591699	1.712521
0.591797	1.713822
0.591895	1.704332
0.591992	1.698314
0.592090	1.691138
0.592187	1.689466
0.592285	1.681257
0.592383	1.685166
0.592480	1.673597
0.592578	1.669898
0.592676	1.649255
0.592773	1.669750
0.592871	1.679290
0.592969	1.669724
0.593066	1.690255
0.593164	1.675506
0.593262	1.681525
0.593359	1.677748
0.593457	1.676341
0.593555	1.685634
0.593652	1.702052
0.593750	1.691219
0.593848	1.680561
0.593945	1.631260
0.594043	1.638853
0.594141	1.659679
0.594238	1.658565
0.594336	1.664130
0.594434	1.664210
0.594531	1.669891
0.594629	1.671129
0.594727	1.679614
0.594824	1.682401
0.594922	1.692738
0.595020	1.690839
0.595117	1.705691
0.595215	1.688814
0.595312	1.691095
0.595410	1.704089
0.595508	1.679872
0.595605	1.645253
0.595703	1.682793
0.595801	1.705447
0.595898	1.662021
0.595996	1.698685
0.596094	1.681321
0.596191	1.682897
0.596289	1.680673
0.596387	1.680247
0.596484	1.675797
0.596582	1.679694
0.596680	1.679958
0.596777	1.676733
0.596875	1.673293
0.596973	1.673131
0.597070	1.672367
0.597168	1.674009
0.597266	1.676120
0.597363	1.679828
0.597461	1.683188
0.597559	1.686496
0.597656	1.688270
0.597754	1.688613
0.597852	1.687850
0.597949	1.687348
0.598047	1.687312
0.598145	1.687507
0.598242	1.687740
0.598340	1.688174
0.598437	1.688922
0.598535	1.690212
0.598633	1.691797
0.598730	1.693379
0.598828	1.694484
0.598926	1.695539
0.599023	1.696579
0.599121	1.697517
0.599219	1.698364
0.599316	1.699277
0.599414	1.700742
0.599512	1.702754
0.599609	1.704668
0.599707	1.705731
0.599805	1.705641
0.599902	1.704804
0.600000	1.703657
0.600098	1.703085
0.600195	1.703477
0.600293	1.704563
0.600391	1.706179
0.600488	1.707748
0.600586	1.708610
0.600684	1.708850
0.600781	1.709016
0.600879	1.709222
0.600977	1.709356
0.601074	1.709001
0.601172	1.708058
0.601270	1.707127
0.601367	1.707128
0.601465	1.707532
0.601562	1.707427
0.601660	1.707377
0.601758	1.708698
0.601855	1.711594
0.601953	1.715718
0.602051	1.718994
0.602148	1.720679
0.602246	1.722109
0.602344	1.720826
0.602441	1.717817
0.602539	1.716451
0.602637	1.716076
0.602734	1.716240
0.602832	1.717446
0.602930	1.719462
0.603027	1.717487
0.603125	1.713570
0.603223	1.710913
0.603320	1.708376
0.603418	1.707027
0.603516	1.704895
0.603613	1.703109
0.603711	1.701340
0.603809	1.698604
0.603906	1.695607
0.604004	1.693472
0.604102	1.692348
0.604199	1.691440
0.604297	1.691137
0.604395	1.690853
0.604492	1.691128
0.604590	1.691336
0.604687	1.692778
0.604785	1.693522
0.604883	1.695355
0.604980	1.695926
0.605078	1.698145
0.605176	1.699196
0.605273	1.702713
0.605371	1.704679
0.605469	1.710055
0.605566	1.711761
0.605664	1.714182
0.605762	1.704864
0.605859	1.704119
0.605957	1.688789
0.606055	1.692275
0.606152	1.694792
0.606250	1.684769
0.606348	1.701709
0.606445	1.697293
0.606543	1.668958
0.606641	1.656806
0.606738	1.664051
0.606836	1.660504
0.606934	1.660652
0.607031	1.656305
0.607129	1.655963
0.607227	1.654713
0.607324	1.656983
0.607422	1.657203
0.607520	1.658906
0.607617	1.659063
0.607715	1.662393
0.607812	1.663405
0.607910	1.660970
0.608008	1.658629
0.608105	1.658913
0.608203	1.658816
0.608301	1.657409
0.608398	1.655167
0.608496	1.653743
0.608594	1.652955
0.608691	1.653055
0.608789	1.653431
0.608887	1.654342
0.608984	1.655230
0.609082	1.656424
0.609180	1.657577
0.609277	1.659179
0.609375	1.660992
0.609473	1.663414
0.609570	1.666107
0.609668	1.669203
0.609766	1.671857
0.609863	1.674788
0.609961	1.676569
0.610059	1.678812
0.610156	1.680131
0.610254	1.683318
0.610352	1.685975
0.610449	1.691599
0.610547	1.695472
0.610645	1.702333
0.610742	1.707283
0.610840	1.710355
0.610937	1.698060
0.611035	1.661859
0.611133	1.616929
0.611230	1.665612
0.611328	1.695970
0.611426	1.698921
0.611523	1.712375
0.611621	1.698461
0.611719	1.698030
0.611816	1.689960
0.611914	1.688534
0.612012	1.686574
0.612109	1.688400
0.612207	1.688530
0.612305	1.691019
0.612402	1.691665
0.612500	1.693628
0.612598	1.694049
0.612695	1.695002
0.612793	1.695549
0.612891	1.697627
0.612988	1.700276
0.613086	1.703613
0.613184	1.706517
0.613281	1.707917
0.613379	1.706337
0.613477	1.704100
0.613574	1.702058
0.613672	1.701373
0.613770	1.703250
0.613867	1.695350
0.613965	1.692258
0.614062	1.694114
0.614160	1.694737
0.614258	1.695224
0.614355	1.693882
0.614453	1.691732
0.614551	1.689920
0.614648	1.689388
0.614746	1.690183
0.614844	1.692089
0.614941	1.694663
0.615039	1.698441
0.615137	1.700839
0.615234	1.700333
0.615332	1.700584
0.615430	1.702830
0.615527	1.706406
0.615625	1.705402
0.615723	1.705738
0.615820	1.705037
0.615918	1.695367
0.616016	1.689500
0.616113	1.686726
0.616211	1.685629
0.616309	1.687715
0.616406	1.692864
0.616504	1.697815
0.616602	1.699845
0.616699	1.700902
0.616797	1.698371
0.616895	1.693686
0.616992	1.691828
0.617090	1.691194
0.617187	1.692734
0.617285	1.694871
0.617383	1.696206
0.617480	1.697269
0.617578	1.697779
0.617676	1.698253
0.617773	1.698793
0.617871	1.697911
0.617969	1.694626
0.618066	1.688840
0.618164	1.683645
0.618262	1.680746
0.618359	1.678468
0.618457	1.675389
0.618555	1.671858
0.618652	1.668983
0.618750	1.667377
0.618848	1.666561
0.618945	1.665221
0.619043	1.663691
0.619141	1.662130
0.619238	1.658680
0.619336	1.653559
0.619434	1.649097
0.619531	1.645237
0.619629	1.641906
0.619727	1.639155
0.619824	1.636874
0.619922	1.635279
0.620020	1.634318
0.620117	1.633734
0.620215	1.633689
0.620312	1.633192
0.620410	1.633072
0.620508	1.633811
0.620605	1.635017
0.620703	1.636646
0.620801	1.638471
0.620898	1.640722
0.620996	1.643437
0.621094	1.646636
0.621191	1.650305
0.621289	1.654430
0.621387	1.658558
0.621484	1.662727
0.621582	1.666837
0.621680	1.671474
0.621777	1.676406
0.621875	1.681929
0.621973	1.682784
0.622070	1.681380
0.622168	1.682883
0.622266	1.688958
0.622363	1.685924
0.622461	1.679881
0.622559	1.677119
0.622656	1.676413
0.622754	1.678296
0.622852	1.680702
0.622949	1.683580
0.623047	1.685577
0.623145	1.686175
0.623242	1.685417
0.623340	1.685348
0.623437	1.686425
0.623535	1.689367
0.623633	1.693628
0.623730	1.697512
0.623828	1.700028
0.623926	1.702913
0.624023	1.704512
0.624121	1.703098
0.624219	1.700029
0.624316	1.697955
0.624414	1.697404
0.624512	1.697978
0.624609	1.699181
0.624707	1.701595
0.624805	1.704540
0.624902	1.708474
0.625000	1.709272
0.625098	1.705576
0.625195	1.700118
0.625293	1.694469
0.625391	1.691031
0.625488	1.689001
0.625586	1.687499
0.625684	1.686223
0.625781	1.685652
0.625879	1.685626
0.625977	1.686020
0.626074	1.686768
0.626172	1.688047
0.626270	1.689823
0.626367	1.692017
0.626465	1.694229
0.626562	1.696321
0.626660	1.697642
0.626758	1.698907
0.626855	1.699767
0.626953	1.701578
0.627051	1.704083
0.627148	1.707480
0.627246	1.709795
0.627344	1.710551
0.627441	1.707343
0.627539	1.703438
0.627637	1.701567
0.627734	1.701085
0.627832	1.701716
0.627930	1.711244
0.628027	1.713025
0.628125	1.700128
0.628223	1.679955
0.628320	1.712073
0.628418	1.694449
0.628516	1.703244
0.628613	1.713241
0.628711	1.733801
0.628809	1.740607
0.628906	1.731846
0.629004	1.709343
0.629102	1.711861
0.629199	1.733932
0.629297	1.725349
0.629395	1.708510
0.629492	1.722784
0.629590	1.690983
0.629687	1.666904
0.629785	1.671382
0.629883	1.671217
0.629980	1.666044
0.630078	1.673494
0.630176	1.680029
0.630273	1.664265
0.630371	1.666850
0.630469	1.681034
0.630566	1.665508
0.630664	1.653773
0.630762	1.650523
0.630859	1.640857
0.630957	1.628435
0.631055	1.617910
0.631152	1.613849
0.631250	1.611465
0.631348	1.612397
0.631445	1.614095
0.631543	1.623115
0.631641	1.623087
0.631738	1.625708
0.631836	1.630409
0.631934	1.632275
0.632031	1.634669
0.632129	1.636773
0.632227	1.639658
0.632324	1.641872
0.632422	1.643878
0.632520	1.646047
0.632617	1.648954
0.632715	1.652986
0.632812	1.658647
0.632910	1.666229
0.633008	1.675573
0.633105	1.688191
0.633203	1.700598
0.633301	1.699968
0.633398	1.687819
0.633496	1.677620
0.633594	1.711814
0.633691	1.685672
0.633789	1.703770
0.633887	1.719705
0.633984	1.710184
0.634082	1.713269
0.634180	1.701506
0.634277	1.711214
0.634375	1.695961
0.634473	1.675732
0.634570	1.685755
0.634668	1.682001
0.634766	1.685605
0.634863	1.685788
0.634961	1.687827
0.635059	1.688450
0.635156	1.685752
0.635254	1.682959
0.635352	1.681978
0.635449	1.682942
0.635547	1.683298
0.635645	1.685327
0.635742	1.686223
0.635840	1.689463
0.635937	1.693021
0.636035	1.701839
0.636133	1.706546
0.636230	1.710925
0.636328	1.706810
0.636426	1.727168
0.636523	1.744768
0.636621	1.730761
0.636719	1.711058
0.636816	1.700416
0.636914	1.686645
0.637012	1.683368
0.637109	1.685198
0.637207	1.685119
0.637305	1.686730
0.637402	1.687992
0.637500	1.690767
0.637598	1.692838
0.637695	1.703079
0.637793	1.701272
0.637891	1.696805
0.637988	1.693016
0.638086	1.695748
0.638184	1.696492
0.638281	1.697803
0.638379	1.693423
0.638477	1.697513
0.638574	1.695941
0.638672	1.700560
0.638770	1.689619
0.638867	1.673943
0.638965	1.645591
0.639062	1.639650
0.639160	1.680101
0.639258	1.671513
0.639355	1.678701
0.639453	1.664339
0.639551	1.675645
0.639648	1.681201
0.639746	1.684306
0.639844	1.673146
0.639941	1.667797
0.640039	1.659066
0.640137	1.655018
0.640234	1.649308
0.640332	1.646458
0.640430	1.641964
0.640527	1.639399
0.640625	1.635393
0.640723	1.632480
0.640820	1.628976
0.640918	1.626629
0.641016	1.624424
0.641113	1.623045
0.641211	1.621862
0.641309	1.621204
0.641406	1.620660
0.641504	1.620559
0.641602	1.620573
0.641699	1.620839
0.641797	1.621238
0.641895	1.621783
0.641992	1.622433
0.642090	1.623352
0.642187	1.624346
0.642285	1.625640
0.642383	1.626996
0.642480	1.628685
0.642578	1.630531
0.642676	1.632483
0.642773	1.634545
0.642871	1.636535
0.642969	1.638451
0.643066	1.640384
0.643164	1.642099
0.643262	1.643857
0.643359	1.645663
0.643457	1.647567
0.643555	1.649504
0.643652	1.651444
0.643750	1.653410
0.643848	1.655251
0.643945	1.657215
0.644043	1.658932
0.644141	1.660921
0.644238	1.663004
0.644336	1.665293
0.644434	1.667602
0.644531	1.670111
0.644629	1.672574
0.644727	1.674988
0.644824	1.677333
0.644922	1.679622
0.645020	1.681927
0.645117	1.684181
0.645215	1.686483
0.645312	1.688562
0.645410	1.690611
0.645508	1.692657
0.645605	1.694745
0.645703	1.697253
0.645801	1.699762
0.645898	1.702525
0.645996	1.704969
0.646094	1.706963
0.646191	1.708645
0.646289	1.709974
0.646387	1.711309
0.646484	1.712208
0.646582	1.713216
0.646680	1.714388
0.646777	1.715205
0.646875	1.713826
0.646973	1.711196
0.647070	1.709433
0.647168	1.708223
0.647266	1.707874
0.647363	1.708471
0.647461	1.710554
0.647559	1.714416
0.647656	1.719749
0.647754	1.724479
0.647852	1.726092
0.647949	1.725605
0.648047	1.725744
0.648145	1.726449
0.648242	1.727190
0.648340	1.726545
0.648437	1.726321
0.648535	1.725779
0.648633	1.726735
0.648730	1.728364
0.648828	1.731229
0.648926	1.728403
0.649023	1.702321
0.649121	1.672127
0.649219	1.707320
0.649316	1.700261
0.649414	1.703657
0.649512	1.707221
0.649609	1.707039
0.649707	1.716215
0.649805	1.723513
0.649902	1.731748
0.650000	1.734391
0.650098	1.735998
0.650195	1.726754
0.650293	1.718770
0.650391	1.720469
0.650488	1.719138
0.650586	1.726721
0.650684	1.726235
0.650781	1.723313
0.650879	1.693400
0.650977	1.707311
0.651074	1.706262
0.651172	1.710948
0.651270	1.709310
0.651367	1.713543
0.651465	1.713669
0.651562	1.720320
0.651660	1.731176
0.651758	1.736072
0.651855	1.723564
0.651953	1.714157
0.652051	1.710997
0.652148	1.723000
0.652246	1.707489
0.652344	1.667752
0.652441	1.665224
0.652539	1.662673
0.652637	1.632440
0.652734	1.653069
0.652832	1.653113
0.652930	1.645085
0.653027	1.655648
0.653125	1.628391
0.653223	1.612524
0.653320	1.578774
0.653418	1.567872
0.653516	1.554446
0.653613	1.562572
0.653711	1.538910
0.653809	1.483964
0.653906	1.493216
0.654004	1.528435
0.654102	1.586652
0.654199	1.622700
0.654297	1.569612
0.654395	1.577250
0.654492	1.615880
0.654590	1.621586
0.654687	1.632298
0.654785	1.641351
0.654883	1.638371
0.654980	1.628900
0.655078	1.622005
0.655176	1.622455
0.655273	1.624213
0.655371	1.626340
0.655469	1.628858
0.655566	1.631102
0.655664	1.633059
0.655762	1.634544
0.655859	1.635744
0.655957	1.636666
0.656055	1.637665
0.656152	1.638591
0.656250	1.639484
0.656348	1.640436
0.656445	1.641197
0.656543	1.642089
0.656641	1.642987
0.656738	1.643877
0.656836	1.644993
0.656934	1.646081
0.657031	1.647354
0.657129	1.648651
0.657227	1.650205
0.657324	1.651911
0.657422	1.653528
0.657520	1.655050
0.657617	1.656603
0.657715	1.657847
0.657812	1.659062
0.657910	1.660071
0.658008	1.661597
0.658105	1.662992
0.658203	1.665147
0.658301	1.666844
0.658398	1.669537
0.658496	1.671700
0.658594	1.674819
0.658691	1.677025
0.658789	1.679938
0.658887	1.681879
0.658984	1.686364
0.659082	1.687049
0.659180	1.691792
0.659277	1.703104
0.659375	1.704467
0.659473	1.700217
0.659570	1.686579
0.659668	1.684928
0.659766	1.684670
0.659863	1.685317
0.659961	1.685555
0.660059	1.686559
0.660156	1.688163
0.660254	1.693306
0.660352	1.701265
0.660449	1.705673
0.660547	1.704233
0.660645	1.703560
0.660742	1.706388
0.660840	1.699087
0.660937	1.691462
0.661035	1.688306
0.661133	1.687170
0.661230	1.689158
0.661328	1.691277
0.661426	1.694809
0.661523	1.698672
0.661621	1.703226
0.661719	1.704956
0.661816	1.704303
0.661914	1.703028
0.662012	1.702573
0.662109	1.701792
0.662207	1.702763
0.662305	1.705120
0.662402	1.709234
0.662500	1.712613
0.662598	1.715478
0.662695	1.714484
0.662793	1.731638
0.662891	1.715929
0.662988	1.694787
0.663086	1.725298
0.663184	1.731734
0.663281	1.707919
0.663379	1.703920
0.663477	1.708385
0.663574	1.698481
0.663672	1.700881
0.663770	1.701579
0.663867	1.710006
0.663965	1.711323
0.664062	1.720565
0.664160	1.713003
0.664258	1.724635
0.664355	1.723296
0.664453	1.713790
0.664551	1.681658
0.664648	1.724852
0.664746	1.720893
0.664844	1.697207
0.664941	1.700399
0.665039	1.691013
0.665137	1.694397
0.665234	1.690195
0.665332	1.693315
0.665430	1.690866
0.665527	1.693166
0.665625	1.692258
0.665723	1.695249
0.665820	1.693990
0.665918	1.697407
0.666016	1.694915
0.666113	1.691667
0.666211	1.690660
0.666309	1.692432
0.666406	1.695087
0.666504	1.698942
0.666602	1.700011
0.666699	1.708627
0.666797	1.709888
0.666895	1.694017
0.666992	1.695758
0.667090	1.690469
0.667187	1.684926
0.667285	1.685052
0.667383	1.684693
0.667480	1.685581
0.667578	1.686906
0.667676	1.687506
0.667773	1.684920
0.667871	1.681784
0.667969	1.677921
0.668066	1.674024
0.668164	1.670706
0.668262	1.666501
0.668359	1.662329
0.668457	1.658793
0.668555	1.655614
0.668652	1.652889
0.668750	1.650481
0.668848	1.648452
0.668945	1.646846
0.669043	1.645695
0.669141	1.644871
0.669238	1.644456
0.669336	1.644214
0.669434	1.644423
0.669531	1.645007
0.669629	1.645846
0.669727	1.647141
0.669824	1.648775
0.669922	1.650885
0.670020	1.653254
0.670117	1.656039
0.670215	1.658802
0.670312	1.661612
0.670410	1.664205
0.670508	1.666733
0.670605	1.669380
0.670703	1.671988
0.670801	1.674291
0.670898	1.676391
0.670996	1.678190
0.671094	1.679732
0.671191	1.681081
0.671289	1.682623
0.671387	1.683999
0.671484	1.685275
0.671582	1.686327
0.671680	1.687121
0.671777	1.687626
0.671875	1.688330
0.671973	1.689428
0.672070	1.691145
0.672168	1.693542
0.672266	1.696090
0.672363	1.696123
0.672461	1.694779
0.672559	1.693924
0.672656	1.692767
0.672754	1.691770
0.672852	1.691390
0.672949	1.692008
0.673047	1.693199
0.673145	1.694705
0.673242	1.696559
0.673340	1.698710
0.673437	1.701183
0.673535	1.704267
0.673633	1.707989
0.673730	1.711591
0.673828	1.712798
0.673926	1.712634
0.674023	1.712141
0.674121	1.710302
0.674219	1.708709
0.674316	1.708006
0.674414	1.707450
0.674512	1.706118
0.674609	1.704300
0.674707	1.703045
0.674805	1.703597
0.674902	1.705427
0.675000	1.707411
0.675098	1.708776
0.675195	1.710279
0.675293	1.711763
0.675391	1.713239
0.675488	1.715168
0.675586	1.718110
0.675684	1.721979
0.675781	1.732002
0.675879	1.737312
0.675977	1.710251
0.676074	1.697807
0.676172	1.710929
0.676270	1.689272
0.676367	1.695151
0.676465	1.711867
0.676562	1.704858
0.676660	1.705781
0.676758	1.701858
0.676855	1.698645
0.676953	1.697616
0.677051	1.697163
0.677148	1.697249
0.677246	1.699365
0.677344	1.702777
0.677441	1.707423
0.677539	1.710570
0.677637	1.709574
0.677734	1.698577
0.677832	1.694817
0.677930	1.691166
0.678027	1.689025
0.678125	1.689295
0.678223	1.690950
0.678320	1.693336
0.678418	1.695114
0.678516	1.695684
0.678613	1.694413
0.678711	1.692675
0.678809	1.692210
0.678906	1.692993
0.679004	1.693916
0.679102	1.693149
0.679199	1.691946
0.679297	1.690791
0.679395	1.689708
0.679492	1.689189
0.679590	1.689077
0.679687	1.688705
0.679785	1.688345
0.679883	1.687853
0.679980	1.686786
0.680078	1.685252
0.680176	1.683287
0.680273	1.680727
0.680371	1.676942
0.680469	1.672399
0.680566	1.667810
0.680664	1.664174
0.680762	1.661521
0.680859	1.659999
0.680957	1.659433
0.681055	1.659709
0.681152	1.660280
0.681250	1.661256
0.681348	1.660707
0.681445	1.657929
0.681543	1.655590
0.681641	1.653052
0.681738	1.650900
0.681836	1.649056
0.681934	1.647693
0.682031	1.646760
0.682129	1.646525
0.682227	1.646845
0.682324	1.647638
0.682422	1.648606
0.682520	1.649778
0.682617	1.650591
0.682715	1.651289
0.682812	1.651832
0.682910	1.652353
0.683008	1.653166
0.683105	1.654520
0.683203	1.656161
0.683301	1.658145
0.683398	1.660394
0.683496	1.662932
0.683594	1.665746
0.683691	1.668507
0.683789	1.670683
0.683887	1.672428
0.683984	1.674110
0.684082	1.676126
0.684180	1.678679
0.684277	1.682045
0.684375	1.685646
0.684473	1.688741
0.684570	1.690697
0.684668	1.691565
0.684766	1.693229
0.684863	1.696020
0.684961	1.698742
0.685059	1.701014
0.685156	1.701706
0.685254	1.702082
0.685352	1.702300
0.685449	1.703502
0.685547	1.706708
0.685645	1.709806
0.685742	1.709884
0.685840	1.707884
0.685937	1.707077
0.686035	1.709738
0.686133	1.720018
0.686230	1.715458
0.686328	1.704019
0.686426	1.702680
0.686523	1.705335
0.686621	1.707710
0.686719	1.706241
0.686816	1.704377
0.686914	1.703033
0.687012	1.702603
0.687109	1.703489
0.687207	1.705793
0.687305	1.708985
0.687402	1.710868
0.687500	1.710454
0.687598	1.708969
0.687695	1.707936
0.687793	1.707663
0.687891	1.708024
0.687988	1.709397
0.688086	1.711215
0.688184	1.713178
0.688281	1.715160
0.688379	1.717659
0.688477	1.720677
0.688574	1.722727
0.688672	1.723184
0.688770	1.723517
0.688867	1.724194
0.688965	1.725116
0.689062	1.722258
0.689160	1.718474
0.689258	1.717643
0.689355	1.717378
0.689453	1.717500
0.689551	1.716450
0.689648	1.713510
0.689746	1.710666
0.689844	1.708958
0.689941	1.708390
0.690039	1.708728
0.690137	1.709631
0.690234	1.711149
0.690332	1.712933
0.690430	1.714766
0.690527	1.716107
0.690625	1.716516
0.690723	1.716951
0.690820	1.718336
0.690918	1.720295
0.691016	1.720998
0.691113	1.716977
0.691211	1.711172
0.691309	1.706541
0.691406	1.702057
0.691504	1.699510
0.691602	1.699289
0.691699	1.700964
0.691797	1.702213
0.691895	1.701951
0.691992	1.708704
0.692090	1.722152
0.692187	1.713304
0.692285	1.694441
0.692383	1.678843
0.692480	1.671348
0.692578	1.669313
0.692676	1.668893
0.692773	1.669346
0.692871	1.669524
0.692969	1.670453
0.693066	1.672035
0.693164	1.675174
0.693262	1.678513
0.693359	1.682139
0.693457	1.685380
0.693555	1.687407
0.693652	1.685515
0.693750	1.679155
0.693848	1.677684
0.693945	1.674725
0.694043	1.669446
0.694141	1.664562
0.694238	1.662282
0.694336	1.661353
0.694434	1.660651
0.694531	1.659855
0.694629	1.659721
0.694727	1.660376
0.694824	1.661637
0.694922	1.663635
0.695020	1.665382
0.695117	1.666172
0.695215	1.666489
0.695312	1.666819
0.695410	1.667456
0.695508	1.667867
0.695605	1.667727
0.695703	1.666919
0.695801	1.665360
0.695898	1.663364
0.695996	1.661298
0.696094	1.659756
0.696191	1.658810
0.696289	1.658287
0.696387	1.658051
0.696484	1.658046
0.696582	1.658201
0.696680	1.658663
0.696777	1.659207
0.696875	1.659880
0.696973	1.660776
0.697070	1.661544
0.697168	1.662323
0.697266	1.663325
0.697363	1.664400
0.697461	1.665512
0.697559	1.667021
0.697656	1.668802
0.697754	1.670926
0.697852	1.673198
0.697949	1.675486
0.698047	1.677477
0.698145	1.679324
0.698242	1.681217
0.698340	1.683179
0.698437	1.685654
0.698535	1.688421
0.698633	1.691465
0.698730	1.693710
0.698828	1.695347
0.698926	1.697280
0.699023	1.700974
0.699121	1.704252
0.699219	1.704944
0.699316	1.703000
0.699414	1.699755
0.699512	1.698165
0.699609	1.698560
0.699707	1.700302
0.699805	1.701927
0.699902	1.702429
0.700000	1.702929
0.700098	1.703554
0.700195	1.703694
0.700293	1.703078
0.700391	1.704340
0.700488	1.706102
0.700586	1.709674
0.700684	1.715113
0.700781	1.720226
0.700879	1.716274
0.700977	1.716917
0.701074	1.717240
0.701172	1.714075
0.701270	1.709938
0.701367	1.706137
0.701465	1.700207
0.701562	1.699356
0.701660	1.700510
0.701758	1.706249
0.701855	1.711228
0.701953	1.727670
0.702051	1.713776
0.702148	1.684594
0.702246	1.640093
0.702344	1.683510
0.702441	1.704110
0.702539	1.698189
0.702637	1.702038
0.702734	1.701518
0.702832	1.705556
0.702930	1.705216
0.703027	1.705639
0.703125	1.703926
0.703223	1.702538
0.703320	1.702574
0.703418	1.700947
0.703516	1.701310
0.703613	1.698976
0.703711	1.702118
0.703809	1.699799
0.703906	1.709281
0.704004	1.707640
0.704102	1.734959
0.704199	1.725619
0.704297	1.694988
0.704395	1.728197
0.704492	1.726372
0.704590	1.682958
0.704687	1.655108
0.704785	1.672929
0.704883	1.675513
0.704980	1.664616
0.705078	1.675581
0.705176	1.685092
0.705273	1.694658
0.705371	1.698782
0.705469	1.689456
0.705566	1.675612
0.705664	1.647400
0.705762	1.640747
0.705859	1.654433
0.705957	1.655020
0.706055	1.654103
0.706152	1.618421
0.706250	1.660142
0.706348	1.660669
0.706445	1.695859
0.706543	1.627527
0.706641	1.527020
0.706738	1.570843
0.706836	1.554637
0.706934	1.562768
0.707031	1.542409
0.707129	1.523731
0.707227	1.515722
0.707324	1.530012
0.707422	1.549448
0.707520	1.550080
0.707617	1.545463
0.707715	1.534470
0.707812	1.463863
0.707910	1.565802
0.708008	1.656315
0.708105	1.548598
0.708203	1.446695
0.708301	1.435703
0.708398	1.444080
0.708496	1.509184
0.708594	1.544181
0.708691	1.506587
0.708789	1.531483
0.708887	1.565364
0.708984	1.552431
0.709082	1.584732
0.709180	1.592662
0.709277	1.571988
0.709375	1.555874
0.709473	1.589265
0.709570	1.589944
0.709668	1.601746
0.709766	1.590676
0.709863	1.588190
0.709961	1.574928
0.710059	1.548393
0.710156	1.538643
0.710254	1.540884
0.710352	1.527388
0.710449	1.526911
0.710547	1.529556
0.710645	1.532903
0.710742	1.536918
0.710840	1.542343
0.710937	1.548197
0.711035	1.554532
0.711133	1.560585
0.711230	1.566673
0.711328	1.572345
0.711426	1.577724
0.711523	1.582893
0.711621	1.587790
0.711719	1.592513
0.711816	1.597159
0.711914	1.601797
0.712012	1.606574
0.712109	1.611468
0.712207	1.616586
0.712305	1.621918
0.712402	1.627440
0.712500	1.632895
0.712598	1.637604
0.712695	1.641535
0.712793	1.645132
0.712891	1.648415
0.712988	1.652024
0.713086	1.656595
0.713184	1.663206
0.713281	1.670226
0.713379	1.676615
0.713477	1.679893
0.713574	1.681874
0.713672	1.683129
0.713770	1.680962
0.713867	1.680826
0.713965	1.684139
0.714062	1.684683
0.714160	1.681128
0.714258	1.678463
0.714355	1.680188
0.714453	1.683314
0.714551	1.688664
0.714648	1.693411
0.714746	1.703118
0.714844	1.701511
0.714941	1.697511
0.715039	1.696363
0.715137	1.695205
0.715234	1.696773
0.715332	1.698735
0.715430	1.701882
0.715527	1.704472
0.715625	1.707145
0.715723	1.710146
0.715820	1.712770
0.715918	1.715050
0.716016	1.718289
0.716113	1.720889
0.716211	1.720854
0.716309	1.717040
0.716406	1.711348
0.716504	1.712007
0.716602	1.715096
0.716699	1.729141
0.716797	1.738294
0.716895	1.729661
0.716992	1.734915
0.717090	1.724010
0.717187	1.731718
0.717285	1.734689
0.717383	1.738989
0.717480	1.715086
0.717578	1.711821
0.717676	1.706520
0.717773	1.701428
0.717871	1.736329
0.717969	1.678991
0.718066	1.633892
0.718164	1.641428
0.718262	1.659137
0.718359	1.666347
0.718457	1.658376
0.718555	1.661550
0.718652	1.668536
0.718750	1.670066
0.718848	1.676641
0.718945	1.681299
0.719043	1.685041
0.719141	1.690796
0.719238	1.698113
0.719336	1.706102
0.719434	1.715676
0.719531	1.724911
0.719629	1.744299
0.719727	1.743658
0.719824	1.692407
0.719922	1.695132
0.720020	1.646051
0.720117	1.633323
0.720215	1.659330
0.720312	1.615499
0.720410	1.631281
0.720508	1.635190
0.720605	1.626046
0.720703	1.622685
0.720801	1.605822
0.720898	1.637126
0.720996	1.669590
0.721094	1.629496
0.721191	1.662962
0.721289	1.647524
0.721387	1.650367
0.721484	1.669081
0.721582	1.660908
0.721680	1.637131
0.721777	1.637925
0.721875	1.597691
0.721973	1.594088
0.722070	1.604781
0.722168	1.570634
0.722266	1.580548
0.722363	1.580980
0.722461	1.592939
0.722559	1.586675
0.722656	1.563056
0.722754	1.559399
0.722852	1.560490
0.722949	1.562712
0.723047	1.576550
0.723145	1.567005
0.723242	1.545446
0.723340	1.508391
0.723437	1.515386
0.723535	1.523939
0.723633	1.539218
0.723730	1.567761
0.723828	1.558806
0.723926	1.592881
0.724023	1.593569
0.724121	1.579087
0.724219	1.578021
0.724316	1.561746
0.724414	1.523256
0.724512	1.542140
0.724609	1.561874
0.724707	1.563087
0.724805	1.565666
0.724902	1.565480
0.725000	1.565712
0.725098	1.563900
0.725195	1.562722
0.725293	1.560936
0.725391	1.559623
0.725488	1.557651
0.725586	1.556434
0.725684	1.555420
0.725781	1.555451
0.725879	1.556103
0.725977	1.557596
0.726074	1.559426
0.726172	1.561734
0.726270	1.564232
0.726367	1.566841
0.726465	1.569520
0.726562	1.572305
0.726660	1.575196
0.726758	1.578088
0.726855	1.581103
0.726953	1.584166
0.727051	1.587237
0.727148	1.590268
0.727246	1.593493
0.727344	1.596768
0.727441	1.599989
0.727539	1.603296
0.727637	1.606686
0.727734	1.609974
0.727832	1.613451
0.727930	1.616877
0.728027	1.620382
0.728125	1.623853
0.728223	1.627327
0.728320	1.630750
0.728418	1.634038
0.728516	1.637178
0.728613	1.640104
0.728711	1.642837
0.728809	1.645444
0.728906	1.648102
0.729004	1.650833
0.729102	1.653650
0.729199	1.656604
0.729297	1.659363
0.729395	1.662046
0.729492	1.664469
0.729590	1.666711
0.729687	1.668992
0.729785	1.671420
0.729883	1.673776
0.729980	1.675992
0.730078	1.677950
0.730176	1.679743
0.730273	1.681507
0.730371	1.683795
0.730469	1.686370
0.730566	1.689469
0.730664	1.692633
0.730762	1.696168
0.730859	1.699130
0.730957	1.702061
0.731055	1.704408
0.731152	1.707203
0.731250	1.709354
0.731348	1.712640
0.731445	1.715162
0.731543	1.719930
0.731641	1.723839
0.731738	1.731230
0.731836	1.732129
0.731934	1.729689
0.732031	1.727973
0.732129	1.730876
0.732227	1.733801
0.732324	1.746781
0.732422	1.726241
0.732520	1.721659
0.732617	1.698453
0.732715	1.690798
0.732812	1.689160
0.732910	1.661846
0.733008	1.711397
0.733105	1.712187
0.733203	1.726028
0.733301	1.733854
0.733398	1.721728
0.733496	1.724663
0.733594	1.680470
0.733691	1.652402
0.733789	1.674808
0.733887	1.704464
0.733984	1.660659
0.734082	1.638404
0.734180	1.664003
0.734277	1.664580
0.734375	1.693501
0.734473	1.676285
0.734570	1.692388
0.734668	1.684333
0.734766	1.669489
0.734863	1.645067
0.734961	1.637785
0.735059	1.622414
0.735156	1.642664
0.735254	1.650018
0.735352	1.640419
0.735449	1.645080
0.735547	1.612089
0.735645	1.589380
0.735742	1.579024
0.735840	1.599958
0.735937	1.620407
0.736035	1.645779
0.736133	1.674734
0.736230	1.671154
0.736328	1.650105
0.736426	1.652640
0.736523	1.645084
0.736621	1.649149
0.736719	1.654916
0.736816	1.657004
0.736914	1.681205
0.737012	1.705052
0.737109	1.647676
0.737207	1.622476
0.737305	1.622123
0.737402	1.625091
0.737500	1.629866
0.737598	1.631583
0.737695	1.631093
0.737793	1.627831
0.737891	1.626279
0.737988	1.649953
0.738086	1.653140
0.738184	1.624487
0.738281	1.632203
0.738379	1.632063
0.738477	1.622967
0.738574	1.629996
0.738672	1.625562
0.738770	1.600074
0.738867	1.621804
0.738965	1.626074
0.739062	1.614649
0.739160	1.656510
0.739258	1.666542
0.739355	1.642156
0.739453	1.625030
0.739551	1.617753
0.739648	1.613799
0.739746	1.611615
0.739844	1.616504
0.739941	1.608193
0.740039	1.599309
0.740137	1.596978
0.740234	1.593207
0.740332	1.591185
0.740430	1.589556
0.740527	1.589571
0.740625	1.589662
0.740723	1.590590
0.740820	1.591587
0.740918	1.593231
0.741016	1.595018
0.741113	1.597235
0.741211	1.599638
0.741309	1.602138
0.741406	1.604735
0.741504	1.607460
0.741602	1.610435
0.741699	1.613318
0.741797	1.616355
0.741895	1.619508
0.741992	1.622786
0.742090	1.626231
0.742187	1.629679
0.742285	1.633069
0.742383	1.636680
0.742480	1.640097
0.742578	1.643644
0.742676	1.647128
0.742773	1.651126
0.742871	1.655045
0.742969	1.659236
0.743066	1.663533
0.743164	1.667947
0.743262	1.672308
0.743359	1.676074
0.743457	1.679019
0.743555	1.681664
0.743652	1.684265
0.743750	1.686630
0.743848	1.688381
0.743945	1.689292
0.744043	1.689031
0.744141	1.688896
0.744238	1.688786
0.744336	1.689534
0.744434	1.691770
0.744531	1.696286
0.744629	1.697111
0.744727	1.694813
0.744824	1.698185
0.744922	1.702736
0.745020	1.707572
0.745117	1.711894
0.745215	1.713804
0.745312	1.714515
0.745410	1.715157
0.745508	1.713903
0.745605	1.710812
0.745703	1.709994
0.745801	1.709350
0.745898	1.705227
0.745996	1.706279
0.746094	1.709064
0.746191	1.711147
0.746289	1.711328
0.746387	1.710707
0.746484	1.710861
0.746582	1.712046
0.746680	1.708163
0.746777	1.701277
0.746875	1.696986
0.746973	1.697260
0.747070	1.698366
0.747168	1.700144
0.747266	1.700098
0.747363	1.699920
0.747461	1.699650
0.747559	1.702373
0.747656	1.697910
0.747754	1.696548
0.747852	1.693476
0.747949	1.695134
0.748047	1.691510
0.748145	1.694652
0.748242	1.677273
0.748340	1.625363
0.748437	1.632198
0.748535	1.666623
0.748633	1.699454
0.748730	1.710468
0.748828	1.712511
0.748926	1.703459
0.749023	1.704952
0.749121	1.708712
0.749219	1.707852
0.749316	1.698888
0.749414	1.695975
0.749512	1.688265
0.749609	1.685336
0.749707	1.681513
0.749805	1.678568
0.749902	1.674195
0.750000	1.669532
0.750098	1.665537
0.750195	1.662226
0.750293	1.661481
0.750391	1.660006
0.750488	1.659292
0.750586	1.656701
0.750684	1.657968
0.750781	1.656973
0.750879	1.659878
0.750977	1.658992
0.751074	1.666483
0.751172	1.666753
0.751270	1.675468
0.751367	1.671492
0.751465	1.684780
0.751562	1.646807
0.751660	1.632327
0.751758	1.633019
0.751855	1.621249
0.751953	1.633120
0.752051	1.633237
0.752148	1.636585
0.752246	1.631243
0.752344	1.630957
0.752441	1.628037
0.752539	1.629200
0.752637	1.628065
0.752734	1.629227
0.752832	1.628787
0.752930	1.629942
0.753027	1.629822
0.753125	1.630678
0.753223	1.630497
0.753320	1.630841
0.753418	1.630155
0.753516	1.629431
0.753613	1.627953
0.753711	1.626727
0.753809	1.625241
0.753906	1.624046
0.754004	1.622592
0.754102	1.621455
0.754199	1.620369
0.754297	1.619497
0.754395	1.618852
0.754492	1.618385
0.754590	1.618135
0.754687	1.617976
0.754785	1.618137
0.754883	1.618383
0.754980	1.618633
0.755078	1.619101
0.755176	1.619646
0.755273	1.620411
0.755371	1.621293
0.755469	1.622375
0.755566	1.623827
0.755664	1.625401
0.755762	1.627273
0.755859	1.629263
0.755957	1.631585
0.756055	1.634188
0.756152	1.636956
0.756250	1.639758
0.756348	1.642710
0.756445	1.645566
0.756543	1.648453
0.756641	1.651397
0.756738	1.654719
0.756836	1.658085
0.756934	1.661186
0.757031	1.663461
0.757129	1.664673
0.757227	1.665127
0.757324	1.665387
0.757422	1.665914
0.757520	1.666968
0.757617	1.668563
0.757715	1.670661
0.757812	1.672902
0.757910	1.675036
0.758008	1.677015
0.758105	1.678752
0.758203	1.680124
0.758301	1.681208
0.758398	1.682201
0.758496	1.684000
0.758594	1.687106
0.758691	1.691142
0.758789	1.694236
0.758887	1.695122
0.758984	1.694399
0.759082	1.693694
0.759180	1.693595
0.759277	1.695177
0.759375	1.697988
0.759473	1.702633
0.759570	1.708493
0.759668	1.715724
0.759766	1.719287
0.759863	1.718000
0.759961	1.714041
0.760059	1.711893
0.760156	1.710628
0.760254	1.712752
0.760352	1.715010
0.760449	1.719121
0.760547	1.721647
0.760645	1.727024
0.760742	1.725743
0.760840	1.721533
0.760937	1.712626
0.761035	1.724779
0.761133	1.724146
0.761230	1.710667
0.761328	1.715504
0.761426	1.714002
0.761523	1.697274
0.761621	1.733646
0.761719	1.681899
0.761816	1.689799
0.761914	1.715205
0.762012	1.665866
0.762109	1.651701
0.762207	1.637984
0.762305	1.602443
0.762402	1.611134
0.762500	1.635849
0.762598	1.627547
0.762695	1.615775
0.762793	1.648796
0.762891	1.632568
0.762988	1.638994
0.763086	1.661150
0.763184	1.667454
0.763281	1.665831
0.763379	1.643219
0.763477	1.639547
0.763574	1.673953
0.763672	1.701128
0.763770	1.679493
0.763867	1.652666
0.763965	1.695866
0.764062	1.679681
0.764160	1.675652
0.764258	1.672914
0.764355	1.675664
0.764453	1.675282
0.764551	1.676254
0.764648	1.675739
0.764746	1.676711
0.764844	1.675753
0.764941	1.674911
0.765039	1.672369
0.765137	1.670013
0.765234	1.667370
0.765332	1.665993
0.765430	1.664889
0.765527	1.664411
0.765625	1.663703
0.765723	1.662890
0.765820	1.661969
0.765918	1.661666
0.766016	1.661623
0.766113	1.662175
0.766211	1.663012
0.766309	1.664386
0.766406	1.665526
0.766504	1.665649
0.766602	1.663665
0.766699	1.660507
0.766797	1.657055
0.766895	1.652584
0.766992	1.648645
0.767090	1.645408
0.767187	1.642820
0.767285	1.640495
0.767383	1.638279
0.767480	1.635970
0.767578	1.634092
0.767676	1.632339
0.767773	1.631179
0.767871	1.630336
0.767969	1.629980
0.768066	1.629744
0.768164	1.629991
0.768262	1.630443
0.768359	1.631182
0.768457	1.631947
0.768555	1.632767
0.768652	1.633923
0.768750	1.634988
0.768848	1.636245
0.768945	1.637567
0.769043	1.639160
0.769141	1.640764
0.769238	1.642250
0.769336	1.643955
0.769434	1.645727
0.769531	1.647584
0.769629	1.649680
0.769727	1.652016
0.769824	1.654677
0.769922	1.657400
0.770020	1.660131
0.770117	1.662951
0.770215	1.665964
0.770312	1.669268
0.770410	1.673086
0.770508	1.676906
0.770605	1.680445
0.770703	1.683635
0.770801	1.686577
0.770898	1.689323
0.770996	1.691773
0.771094	1.693642
0.771191	1.694768
0.771289	1.695858
0.771387	1.697331
0.771484	1.699242
0.771582	1.701396
0.771680	1.703683
0.771777	1.705709
0.771875	1.707636
0.771973	1.709471
0.772070	1.711289
0.772168	1.713040
0.772266	1.714757
0.772363	1.716530
0.772461	1.717634
0.772559	1.715654
0.772656	1.712030
0.772754	1.709971
0.772852	1.709258
0.772949	1.709250
0.773047	1.709409
0.773145	1.709606
0.773242	1.709632
0.773340	1.709656
0.773437	1.710058
0.773535	1.710513
0.773633	1.710907
0.773730	1.711034
0.773828	1.711506
0.773926	1.712482
0.774023	1.714076
0.774121	1.715595
0.774219	1.716938
0.774316	1.718717
0.774414	1.721923
0.774512	1.719337
0.774609	1.719263
0.774707	1.718659
0.774805	1.718798
0.774902	1.717573
0.775000	1.717214
0.775098	1.716650
0.775195	1.721133
0.775293	1.723257
0.775391	1.722920
0.775488	1.717293
0.775586	1.720473
0.775684	1.716098
0.775781	1.730939
0.775879	1.727725
0.775977	1.719159
0.776074	1.712257
0.776172	1.703151
0.776270	1.702003
0.776367	1.704571
0.776465	1.707112
0.776562	1.718131
0.776660	1.695127
0.776758	1.688152
0.776855	1.699104
0.776953	1.714382
0.777051	1.679852
0.777148	1.671879
0.777246	1.674088
0.777344	1.624043
0.777441	1.658951
0.777539	1.662050
0.777637	1.650214
0.777734	1.646861
0.777832	1.640076
0.777930	1.638153
0.778027	1.638045
0.778125	1.638343
0.778223	1.638601
0.778320	1.638950
0.778418	1.639221
0.778516	1.639636
0.778613	1.640110
0.778711	1.640674
0.778809	1.641561
0.778906	1.642646
0.779004	1.643413
0.779102	1.643784
0.779199	1.643867
0.779297	1.644306
0.779395	1.644802
0.779492	1.645659
0.779590	1.646642
0.779687	1.647791
0.779785	1.649036
0.779883	1.650307
0.779980	1.651811
0.780078	1.653213
0.780176	1.654585
0.780273	1.655975
0.780371	1.657272
0.780469	1.658528
0.780566	1.659582
0.780664	1.660480
0.780762	1.661129
0.780859	1.661860
0.780957	1.662810
0.781055	1.663741
0.781152	1.664541
0.781250	1.665051
0.781348	1.665401
0.781445	1.665418
0.781543	1.665110
0.781641	1.664693
0.781738	1.664469
0.781836	1.664519
0.781934	1.665008
0.782031	1.666139
0.782129	1.667672
0.782227	1.669744
0.782324	1.672093
0.782422	1.674565
0.782520	1.676608
0.782617	1.678419
0.782715	1.679813
0.782812	1.680339
0.782910	1.679144
0.783008	1.677403
0.783105	1.675840
0.783203	1.673961
0.783301	1.672690
0.783398	1.672315
0.783496	1.673065
0.783594	1.674753
0.783691	1.676904
0.783789	1.679277
0.783887	1.681617
0.783984	1.684124
0.784082	1.686180
0.784180	1.687767
0.784277	1.688492
0.784375	1.688940
0.784473	1.689339
0.784570	1.690093
0.784668	1.691394
0.784766	1.693498
0.784863	1.696201
0.784961	1.699855
0.785059	1.704587
0.785156	1.710592
0.785254	1.713845
0.785352	1.718275
0.785449	1.720115
0.785547	1.717965
0.785645	1.713228
0.785742	1.708093
0.785840	1.705966
0.785937	1.701731
0.786035	1.698938
0.786133	1.698999
0.786230	1.704510
0.786328	1.710888
0.786426	1.721280
0.786523	1.728982
0.786621	1.730041
0.786719	1.712163
0.786816	1.708064
0.786914	1.703466
0.787012	1.696606
0.787109	1.696113
0.787207	1.694470
0.787305	1.694813
0.787402	1.694023
0.787500	1.693235
0.787598	1.690945
0.787695	1.689887
0.787793	1.689089
0.787891	1.687936
0.787988	1.689183
0.788086	1.696165
0.788184	1.701271
0.788281	1.700758
0.788379	1.697336
0.788477	1.688425
0.788574	1.682340
0.788672	1.681726
0.788770	1.680438
0.788867	1.678873
0.788965	1.677481
0.789062	1.676312
0.789160	1.675134
0.789258	1.675628
0.789355	1.677182
0.789453	1.679909
0.789551	1.682994
0.789648	1.686853
0.789746	1.690843
0.789844	1.696030
0.789941	1.701382
0.790039	1.707328
0.790137	1.711030
0.790234	1.717178
0.790332	1.721527
0.790430	1.718516
0.790527	1.719248
0.790625	1.718535
0.790723	1.723760
0.790820	1.725091
0.790918	1.727241
0.791016	1.728059
0.791113	1.729511
0.791211	1.717723
0.791309	1.701229
0.791406	1.686687
0.791504	1.678960
0.791602	1.676458
0.791699	1.671916
0.791797	1.666619
0.791895	1.661740
0.791992	1.660578
0.792090	1.663747
0.792187	1.669478
0.792285	1.672966
0.792383	1.677972
0.792480	1.682197
0.792578	1.688052
0.792676	1.694929
0.792773	1.707528
0.792871	1.720519
0.792969	1.717275
0.793066	1.710000
0.793164	1.713494
0.793262	1.666212
0.793359	1.664231
0.793457	1.667660
0.793555	1.697198
0.793652	1.690711
0.793750	1.667861
0.793848	1.661086
0.793945	1.651343
0.794043	1.658678
0.794141	1.655931
0.794238	1.657798
0.794336	1.658149
0.794434	1.663359
0.794531	1.666567
0.794629	1.671401
0.794727	1.672909
0.794824	1.675296
0.794922	1.676128
0.795020	1.678058
0.795117	1.679309
0.795215	1.678469
0.795312	1.677067
0.795410	1.678749
0.795508	1.677017
0.795605	1.675566
0.795703	1.676155
0.795801	1.678343
0.795898	1.680982
0.795996	1.683727
0.796094	1.685952
0.796191	1.687699
0.796289	1.688627
0.796387	1.689574
0.796484	1.690714
0.796582	1.690995
0.796680	1.690567
0.796777	1.685751
0.796875	1.680400
0.796973	1.678950
0.797070	1.678701
0.797168	1.678226
0.797266	1.678052
0.797363	1.677362
0.797461	1.677149
0.797559	1.676215
0.797656	1.678213
0.797754	1.677244
0.797852	1.674622
0.797949	1.682869
0.798047	1.675918
0.798145	1.682753
0.798242	1.691137
0.798340	1.678556
0.798437	1.672987
0.798535	1.671163
0.798633	1.669845
0.798730	1.670631
0.798828	1.670309
0.798926	1.669497
0.799023	1.668003
0.799121	1.666251
0.799219	1.664287
0.799316	1.663002
0.799414	1.662307
0.799512	1.662080
0.799609	1.662138
0.799707	1.662226
0.799805	1.662548
0.799902	1.662907
0.800000	1.663522
0.800098	1.664316
0.800195	1.665275
0.800293	1.665772
0.800391	1.665711
0.800488	1.665637
0.800586	1.666114
0.800684	1.667215
0.800781	1.668807
0.800879	1.671220
0.800977	1.673610
0.801074	1.675840
0.801172	1.677851
0.801270	1.679789
0.801367	1.679900
0.801465	1.679725
0.801562	1.678188
0.801660	1.675461
0.801758	1.673718
0.801855	1.673657
0.801953	1.674859
0.802051	1.677289
0.802148	1.680348
0.802246	1.683770
0.802344	1.687484
0.802441	1.691140
0.802539	1.691531
0.802637	1.689184
0.802734	1.684692
0.802832	1.679764
0.802930	1.677646
0.803027	1.676494
0.803125	1.676080
0.803223	1.676035
0.803320	1.676747
0.803418	1.677787
0.803516	1.679197
0.803613	1.680727
0.803711	1.682386
0.803809	1.684030
0.803906	1.685724
0.804004	1.687230
0.804102	1.688763
0.804199	1.690003
0.804297	1.690597
0.804395	1.690900
0.804492	1.691177
0.804590	1.691774
0.804687	1.692764
0.804785	1.693930
0.804883	1.695159
0.804980	1.696048
0.805078	1.696169
0.805176	1.695407
0.805273	1.695183
0.805371	1.695509
0.805469	1.697301
0.805566	1.700288
0.805664	1.704654
0.805762	1.709752
0.805859	1.716874
0.805957	1.720239
0.806055	1.717103
0.806152	1.713646
0.806250	1.712931
0.806348	1.715598
0.806445	1.705027
0.806543	1.703342
0.806641	1.704174
0.806738	1.702417
0.806836	1.700986
0.806934	1.701812
0.807031	1.699846
0.807129	1.700777
0.807227	1.703194
0.807324	1.707759
0.807422	1.709593
0.807520	1.712059
0.807617	1.709799
0.807715	1.710621
0.807812	1.710952
0.807910	1.720103
0.808008	1.723820
0.808105	1.741485
0.808203	1.731296
0.808301	1.728224
0.808398	1.751929
0.808496	1.752030
0.808594	1.719992
0.808691	1.660175
0.808789	1.622985
0.808887	1.584613
0.808984	1.563362
0.809082	1.587505
0.809180	1.615045
0.809277	1.646015
0.809375	1.659425
0.809473	1.663785
0.809570	1.663901
0.809668	1.669678
0.809766	1.676801
0.809863	1.686889
0.809961	1.697659
0.810059	1.712617
0.810156	1.712103
0.810254	1.696308
0.810352	1.688802
0.810449	1.682208
0.810547	1.680076
0.810645	1.681752
0.810742	1.684974
0.810840	1.687619
0.810937	1.689260
0.811035	1.689985
0.811133	1.689354
0.811230	1.688043
0.811328	1.687011
0.811426	1.685936
0.811523	1.684622
0.811621	1.690979
0.811719	1.686285
0.811816	1.676024
0.811914	1.675164
0.812012	1.686266
0.812109	1.689981
0.812207	1.685505
0.812305	1.684439
0.812402	1.676110
0.812500	1.674459
0.812598	1.682095
0.812695	1.691524
0.812793	1.703466
0.812891	1.727598
0.812988	1.722059
0.813086	1.697504
0.813184	1.691741
0.813281	1.682112
0.813379	1.708344
0.813477	1.731214
0.813574	1.657210
0.813672	1.650630
0.813770	1.636884
0.813867	1.631662
0.813965	1.641184
0.814062	1.651708
0.814160	1.662370
0.814258	1.674789
0.814355	1.689132
0.814453	1.696706
0.814551	1.694719
0.814648	1.699583
0.814746	1.688436
0.814844	1.690618
0.814941	1.675716
0.815039	1.646325
0.815137	1.655099
0.815234	1.645687
0.815332	1.575353
0.815430	1.543725
0.815527	1.645873
0.815625	1.619189
0.815723	1.546028
0.815820	1.587166
0.815918	1.628058
0.816016	1.595750
0.816113	1.612371
0.816211	1.593784
0.816309	1.600414
0.816406	1.587046
0.816504	1.529268
0.816602	1.557266
0.816699	1.561688
0.816797	1.578154
0.816895	1.587757
0.816992	1.591524
0.817090	1.594791
0.817187	1.595309
0.817285	1.595431
0.817383	1.593909
0.817480	1.593261
0.817578	1.592500
0.817676	1.592432
0.817773	1.592413
0.817871	1.592892
0.817969	1.593495
0.818066	1.594374
0.818164	1.595498
0.818262	1.596775
0.818359	1.598102
0.818457	1.599728
0.818555	1.601215
0.818652	1.602856
0.818750	1.604386
0.818848	1.606061
0.818945	1.607778
0.819043	1.609570
0.819141	1.611458
0.819238	1.613511
0.819336	1.615825
0.819434	1.618130
0.819531	1.620907
0.819629	1.623749
0.819727	1.626854
0.819824	1.629970
0.819922	1.632976
0.820020	1.635589
0.820117	1.638049
0.820215	1.640295
0.820312	1.642174
0.820410	1.643751
0.820508	1.645426
0.820605	1.647139
0.820703	1.649029
0.820801	1.651148
0.820898	1.653370
0.820996	1.655445
0.821094	1.657351
0.821191	1.658915
0.821289	1.660441
0.821387	1.661790
0.821484	1.663416
0.821582	1.665057
0.821680	1.666682
0.821777	1.668422
0.821875	1.670161
0.821973	1.671978
0.822070	1.673869
0.822168	1.675813
0.822266	1.677583
0.822363	1.679714
0.822461	1.681986
0.822559	1.684375
0.822656	1.686731
0.822754	1.688761
0.822852	1.690272
0.822949	1.691575
0.823047	1.693146
0.823145	1.695059
0.823242	1.697771
0.823340	1.700645
0.823437	1.703421
0.823535	1.704897
0.823633	1.705373
0.823730	1.705396
0.823828	1.705898
0.823926	1.707196
0.824023	1.709487
0.824121	1.710913
0.824219	1.711711
0.824316	1.710662
0.824414	1.707768
0.824512	1.700935
0.824609	1.690503
0.824707	1.685503
0.824805	1.732233
0.824902	1.692805
0.825000	1.623465
0.825098	1.674292
0.825195	1.710065
0.825293	1.703375
0.825391	1.697497
0.825488	1.698813
0.825586	1.696260
0.825684	1.699189
0.825781	1.702362
0.825879	1.710603
0.825977	1.728125
0.826074	1.732967
0.826172	1.724287
0.826270	1.719201
0.826367	1.737417
0.826465	1.727741
0.826562	1.685075
0.826660	1.677536
0.826758	1.686054
0.826855	1.702281
0.826953	1.699901
0.827051	1.706625
0.827148	1.714678
0.827246	1.721314
0.827344	1.726454
0.827441	1.700171
0.827539	1.714384
0.827637	1.723559
0.827734	1.710860
0.827832	1.708392
0.827930	1.701985
0.828027	1.697497
0.828125	1.696772
0.828223	1.704948
0.828320	1.715655
0.828418	1.709538
0.828516	1.725273
0.828613	1.699381
0.828711	1.718755
0.828809	1.726790
0.828906	1.720822
0.829004	1.709643
0.829102	1.679532
0.829199	1.684902
0.829297	1.687390
0.829395	1.685316
0.829492	1.686465
0.829590	1.671157
0.829687	1.660308
0.829785	1.661108
0.829883	1.646053
0.829980	1.647318
0.830078	1.688065
0.830176	1.700075
0.830273	1.692471
0.830371	1.693002
0.830469	1.682244
0.830566	1.666588
0.830664	1.659968
0.830762	1.652193
0.830859	1.639596
0.830957	1.668244
0.831055	1.674697
0.831152	1.652263
0.831250	1.638815
0.831348	1.601933
0.831445	1.593756
0.831543	1.616459
0.831641	1.583714
0.831738	1.587953
0.831836	1.623672
0.831934	1.623552
0.832031	1.615316
0.832129	1.622657
0.832227	1.622417
0.832324	1.619814
0.832422	1.621324
0.832520	1.624915
0.832617	1.626423
0.832715	1.628131
0.832812	1.628552
0.832910	1.629970
0.833008	1.631257
0.833105	1.633611
0.833203	1.635820
0.833301	1.638890
0.833398	1.641491
0.833496	1.644092
0.833594	1.646070
0.833691	1.647773
0.833789	1.649181
0.833887	1.650416
0.833984	1.651249
0.834082	1.651631
0.834180	1.651488
0.834277	1.651363
0.834375	1.651472
0.834473	1.651866
0.834570	1.652334
0.834668	1.652736
0.834766	1.652665
0.834863	1.652054
0.834961	1.651505
0.835059	1.651509
0.835156	1.652269
0.835254	1.653836
0.835352	1.655582
0.835449	1.656901
0.835547	1.657187
0.835645	1.657122
0.835742	1.657081
0.835840	1.657320
0.835937	1.657708
0.836035	1.658687
0.836133	1.659787
0.836230	1.660963
0.836328	1.662129
0.836426	1.663004
0.836523	1.663699
0.836621	1.664222
0.836719	1.664926
0.836816	1.665835
0.836914	1.666931
0.837012	1.668292
0.837109	1.669764
0.837207	1.671592
0.837305	1.673578
0.837402	1.675613
0.837500	1.677595
0.837598	1.679486
0.837695	1.681370
0.837793	1.682904
0.837891	1.684393
0.837988	1.685893
0.838086	1.687266
0.838184	1.688204
0.838281	1.689542
0.838379	1.691203
0.838477	1.692514
0.838574	1.693276
0.838672	1.694026
0.838770	1.694693
0.838867	1.695692
0.838965	1.697158
0.839062	1.698693
0.839160	1.700133
0.839258	1.701547
0.839355	1.702625
0.839453	1.703635
0.839551	1.705362
0.839648	1.707670
0.839746	1.708281
0.839844	1.707083
0.839941	1.705784
0.840039	1.705271
0.840137	1.704881
0.840234	1.704819
0.840332	1.705098
0.840430	1.705619
0.840527	1.706417
0.840625	1.707601
0.840723	1.708836
0.840820	1.710467
0.840918	1.711541
0.841016	1.711276
0.841113	1.710210
0.841211	1.709735
0.841309	1.710251
0.841406	1.712504
0.841504	1.715787
0.841602	1.719147
0.841699	1.720627
0.841797	1.717349
0.841895	1.713363
0.841992	1.713668
0.842090	1.715327
0.842187	1.713045
0.842285	1.708855
0.842383	1.703428
0.842480	1.700123
0.842578	1.699587
0.842676	1.699439
0.842773	1.698801
0.842871	1.698783
0.842969	1.698009
0.843066	1.694667
0.843164	1.692138
0.843262	1.691682
0.843359	1.693224
0.843457	1.695974
0.843555	1.700467
0.843652	1.706481
0.843750	1.710620
0.843848	1.717049
0.843945	1.724207
0.844043	1.722834
0.844141	1.706451
0.844238	1.712153
0.844336	1.710199
0.844434	1.703796
0.844531	1.708137
0.844629	1.699161
0.844727	1.696153
0.844824	1.698059
0.844922	1.701769
0.845020	1.698481
0.845117	1.692813
0.845215	1.690928
0.845312	1.691568
0.845410	1.693174
0.845508	1.694324
0.845605	1.694692
0.845703	1.695160
0.845801	1.689790
0.845898	1.685997
0.845996	1.682507
0.846094	1.679768
0.846191	1.676143
0.846289	1.674086
0.846387	1.670288
0.846484	1.671648
0.846582	1.676670
0.846680	1.695628
0.846777	1.696876
0.846875	1.688855
0.846973	1.694034
0.847070	1.680396
0.847168	1.684022
0.847266	1.685284
0.847363	1.690393
0.847461	1.682767
0.847559	1.678254
0.847656	1.682369
0.847754	1.700790
0.847852	1.685123
0.847949	1.677169
0.848047	1.639868
0.848145	1.611903
0.848242	1.651651
0.848340	1.628739
0.848437	1.609869
0.848535	1.648800
0.848633	1.653496
0.848730	1.650761
0.848828	1.649687
0.848926	1.646998
0.849023	1.645678
0.849121	1.644168
0.849219	1.643991
0.849316	1.643700
0.849414	1.644168
0.849512	1.644320
0.849609	1.644925
0.849707	1.645084
0.849805	1.645354
0.849902	1.645250
0.850000	1.645438
0.850098	1.645463
0.850195	1.645942
0.850293	1.646474
0.850391	1.647518
0.850488	1.648674
0.850586	1.650296
0.850684	1.652067
0.850781	1.654009
0.850879	1.655820
0.850977	1.657712
0.851074	1.659532
0.851172	1.661309
0.851270	1.663338
0.851367	1.665149
0.851465	1.667386
0.851562	1.669794
0.851660	1.672390
0.851758	1.674794
0.851855	1.675763
0.851953	1.675332
0.852051	1.674681
0.852148	1.674391
0.852246	1.674255
0.852344	1.674330
0.852441	1.674882
0.852539	1.675619
0.852637	1.676449
0.852734	1.677321
0.852832	1.678100
0.852930	1.678994
0.853027	1.680102
0.853125	1.681590
0.853223	1.683517
0.853320	1.685910
0.853418	1.688498
0.853516	1.691249
0.853613	1.693794
0.853711	1.696193
0.853809	1.698143
0.853906	1.700020
0.854004	1.701301
0.854102	1.702224
0.854199	1.702958
0.854297	1.704039
0.854395	1.705734
0.854492	1.707272
0.854590	1.708371
0.854687	1.709444
0.854785	1.710631
0.854883	1.711871
0.854980	1.712826
0.855078	1.713595
0.855176	1.714550
0.855273	1.715799
0.855371	1.717227
0.855469	1.718656
0.855566	1.719888
0.855664	1.720542
0.855762	1.720942
0.855859	1.721353
0.855957	1.721914
0.856055	1.722040
0.856152	1.721259
0.856250	1.719081
0.856348	1.718873
0.856445	1.719918
0.856543	1.722112
0.856641	1.723235
0.856738	1.723955
0.856836	1.723439
0.856934	1.724240
0.857031	1.724685
0.857129	1.727410
0.857227	1.727100
0.857324	1.727938
0.857422	1.726803
0.857520	1.728982
0.857617	1.727960
0.857715	1.735668
0.857812	1.731254
0.857910	1.741396
0.858008	1.724151
0.858105	1.702672
0.858203	1.707668
0.858301	1.702817
0.858398	1.712507
0.858496	1.718452
0.858594	1.716348
0.858691	1.706623
0.858789	1.708984
0.858887	1.713931
0.858984	1.712220
0.859082	1.705184
0.859180	1.703990
0.859277	1.722096
0.859375	1.722479
0.859473	1.715342
0.859570	1.712691
0.859668	1.669906
0.859766	1.646483
0.859863	1.672750
0.859961	1.682720
0.860059	1.680613
0.860156	1.681804
0.860254	1.684210
0.860352	1.688235
0.860449	1.694224
0.860547	1.700052
0.860645	1.707514
0.860742	1.701581
0.860840	1.691624
0.860937	1.674687
0.861035	1.682485
0.861133	1.670687
0.861230	1.631706
0.861328	1.648929
0.861426	1.646172
0.861523	1.644743
0.861621	1.653818
0.861719	1.663444
0.861816	1.665706
0.861914	1.647097
0.862012	1.646110
0.862109	1.646705
0.862207	1.633789
0.862305	1.636362
0.862402	1.626883
0.862500	1.629101
0.862598	1.629009
0.862695	1.630717
0.862793	1.629686
0.862891	1.631314
0.862988	1.632204
0.863086	1.635271
0.863184	1.637821
0.863281	1.641401
0.863379	1.644043
0.863477	1.646546
0.863574	1.647394
0.863672	1.647688
0.863770	1.646737
0.863867	1.645334
0.863965	1.643379
0.864062	1.641752
0.864160	1.640207
0.864258	1.639037
0.864355	1.638339
0.864453	1.638163
0.864551	1.638329
0.864648	1.638916
0.864746	1.639773
0.864844	1.640800
0.864941	1.641954
0.865039	1.643357
0.865137	1.644908
0.865234	1.646737
0.865332	1.648806
0.865430	1.651161
0.865527	1.653646
0.865625	1.656245
0.865723	1.659212
0.865820	1.662184
0.865918	1.665225
0.866016	1.668502
0.866113	1.671774
0.866211	1.675043
0.866309	1.677909
0.866406	1.680379
0.866504	1.682540
0.866602	1.684369
0.866699	1.686151
0.866797	1.687903
0.866895	1.689694
0.866992	1.691696
0.867090	1.694336
0.867187	1.697890
0.867285	1.701717
0.867383	1.702445
0.867480	1.699841
0.867578	1.696506
0.867676	1.694522
0.867773	1.694431
0.867871	1.695749
0.867969	1.697769
0.868066	1.700394
0.868164	1.703084
0.868262	1.705648
0.868359	1.708071
0.868457	1.711184
0.868555	1.715620
0.868652	1.721308
0.868750	1.729376
0.868848	1.740475
0.868945	1.744158
0.869043	1.732542
0.869141	1.739133
0.869238	1.736360
0.869336	1.729055
0.869434	1.718567
0.869531	1.738924
0.869629	1.744622
0.869727	1.738135
0.869824	1.715163
0.869922	1.701424
0.870020	1.706717
0.870117	1.714751
0.870215	1.723060
0.870312	1.720398
0.870410	1.726563
0.870508	1.730106
0.870605	1.731044
0.870703	1.725303
0.870801	1.723916
0.870898	1.724261
0.870996	1.730021
0.871094	1.727310
0.871191	1.730109
0.871289	1.727087
0.871387	1.718546
0.871484	1.707225
0.871582	1.700924
0.871680	1.696777
0.871777	1.696731
0.871875	1.697929
0.871973	1.709158
0.872070	1.711234
0.872168	1.723501
0.872266	1.726696
0.872363	1.706431
0.872461	1.721245
0.872559	1.700268
0.872656	1.611925
0.872754	1.610931
0.872852	1.618722
0.872949	1.613665
0.873047	1.633232
0.873145	1.654051
0.873242	1.671607
0.873340	1.634877
0.873437	1.631916
0.873535	1.660451
0.873633	1.671599
0.873730	1.672517
0.873828	1.673689
0.873926	1.669472
0.874023	1.671818
0.874121	1.669633
0.874219	1.668859
0.874316	1.665622
0.874414	1.669467
0.874512	1.671846
0.874609	1.662598
0.874707	1.649068
0.874805	1.652517
0.874902	1.651639
0.875000	1.643557
0.875098	1.648246
0.875195	1.646333
0.875293	1.644775
0.875391	1.640367
0.875488	1.635837
0.875586	1.630810
0.875684	1.630241
0.875781	1.629630
0.875879	1.630766
0.875977	1.631047
0.876074	1.631975
0.876172	1.632339
0.876270	1.633269
0.876367	1.633745
0.876465	1.634390
0.876562	1.634348
0.876660	1.634489
0.876758	1.634341
0.876855	1.633919
0.876953	1.632851
0.877051	1.631714
0.877148	1.630458
0.877246	1.629479
0.877344	1.628560
0.877441	1.627515
0.877539	1.626630
0.877637	1.625628
0.877734	1.624591
0.877832	1.623596
0.877930	1.622446
0.878027	1.621507
0.878125	1.620509
0.878223	1.619646
0.878320	1.618906
0.878418	1.618304
0.878516	1.617861
0.878613	1.617690
0.878711	1.617813
0.878809	1.617983
0.878906	1.618590
0.879004	1.619210
0.879102	1.620131
0.879199	1.621110
0.879297	1.622224
0.879395	1.623486
0.879492	1.624806
0.879590	1.626179
0.879687	1.627477
0.879785	1.628931
0.879883	1.630359
0.879980	1.631810
0.880078	1.633504
0.880176	1.635429
0.880273	1.637248
0.880371	1.639307
0.880469	1.641314
0.880566	1.643471
0.880664	1.645645
0.880762	1.647869
0.880859	1.650128
0.880957	1.652600
0.881055	1.655148
0.881152	1.657773
0.881250	1.660487
0.881348	1.662824
0.881445	1.665149
0.881543	1.667443
0.881641	1.669961
0.881738	1.672909
0.881836	1.676584
0.881934	1.680983
0.882031	1.685766
0.882129	1.690507
0.882227	1.695090
0.882324	1.699180
0.882422	1.701643
0.882520	1.703876
0.882617	1.705706
0.882715	1.706048
0.882812	1.706342
0.882910	1.705603
0.883008	1.702829
0.883105	1.702590
0.883203	1.702698
0.883301	1.703851
0.883398	1.704433
0.883496	1.706437
0.883594	1.708072
0.883691	1.711044
0.883789	1.713620
0.883887	1.718450
0.883984	1.722286
0.884082	1.729281
0.884180	1.734388
0.884277	1.744193
0.884375	1.743042
0.884473	1.728235
0.884570	1.734611
0.884668	1.735848
0.884766	1.729657
0.884863	1.725226
0.884961	1.721489
0.885059	1.725250
0.885156	1.723461
0.885254	1.720743
0.885352	1.723842
0.885449	1.728381
0.885547	1.727556
0.885645	1.726452
0.885742	1.726651
0.885840	1.742449
0.885937	1.738741
0.886035	1.722216
0.886133	1.718598
0.886230	1.728276
0.886328	1.747217
0.886426	1.758288
0.886523	1.754856
0.886621	1.756751
0.886719	1.715586
0.886816	1.654344
0.886914	1.649995
0.887012	1.640800
0.887109	1.645384
0.887207	1.637966
0.887305	1.622372
0.887402	1.604840
0.887500	1.668139
0.887598	1.687636
0.887695	1.689159
0.887793	1.695166
0.887891	1.707712
0.887988	1.709105
0.888086	1.714498
0.888184	1.724274
0.888281	1.731061
0.888379	1.731887
0.888477	1.732949
0.888574	1.734505
0.888672	1.745141
0.888770	1.738546
0.888867	1.708919
0.888965	1.692741
0.889062	1.682809
0.889160	1.672493
0.889258	1.665865
0.889355	1.660808
0.889453	1.660969
0.889551	1.657614
0.889648	1.661368
0.889746	1.660216
0.889844	1.676670
0.889941	1.631361
0.890039	1.522134
0.890137	1.486686
0.890234	1.554099
0.890332	1.577708
0.890430	1.591272
0.890527	1.597524
0.890625	1.594553
0.890723	1.582789
0.890820	1.612218
0.890918	1.594897
0.891016	1.550731
0.891113	1.552484
0.891211	1.607596
0.891309	1.625677
0.891406	1.646693
0.891504	1.676249
0.891602	1.682921
0.891699	1.676078
0.891797	1.666172
0.891895	1.649185
0.891992	1.648665
0.892090	1.662135
0.892187	1.672143
0.892285	1.676110
0.892383	1.661113
0.892480	1.646366
0.892578	1.646933
0.892676	1.650179
0.892773	1.652291
0.892871	1.654905
0.892969	1.657091
0.893066	1.659826
0.893164	1.661893
0.893262	1.663554
0.893359	1.665606
0.893457	1.668316
0.893555	1.672566
0.893652	1.675732
0.893750	1.672345
0.893848	1.663113
0.893945	1.659520
0.894043	1.657916
0.894141	1.654306
0.894238	1.654051
0.894336	1.653597
0.894434	1.657443
0.894531	1.672530
0.894629	1.650947
0.894727	1.642068
0.894824	1.663399
0.894922	1.666490
0.895020	1.640857
0.895117	1.631609
0.895215	1.644165
0.895312	1.632135
0.895410	1.599321
0.895508	1.586587
0.895605	1.612968
0.895703	1.629991
0.895801	1.632264
0.895898	1.633114
0.895996	1.634806
0.896094	1.635303
0.896191	1.635934
0.896289	1.636284
0.896387	1.637391
0.896484	1.638398
0.896582	1.639745
0.896680	1.640961
0.896777	1.642640
0.896875	1.644346
0.896973	1.646460
0.897070	1.648545
0.897168	1.650541
0.897266	1.652556
0.897363	1.654310
0.897461	1.655835
0.897559	1.657225
0.897656	1.658450
0.897754	1.659501
0.897852	1.660662
0.897949	1.661819
0.898047	1.663222
0.898145	1.664703
0.898242	1.666146
0.898340	1.667885
0.898437	1.669697
0.898535	1.671733
0.898633	1.674125
0.898730	1.676564
0.898828	1.678858
0.898926	1.680918
0.899023	1.682648
0.899121	1.684229
0.899219	1.685615
0.899316	1.686876
0.899414	1.688451
0.899512	1.690547
0.899609	1.692936
0.899707	1.695376
0.899805	1.697663
0.899902	1.699634
0.900000	1.701207
0.900098	1.702411
0.900195	1.703415
0.900293	1.704798
0.900391	1.706448
0.900488	1.708532
0.900586	1.710091
0.900684	1.711872
0.900781	1.712679
0.900879	1.713551
0.900977	1.713214
0.901074	1.713019
0.901172	1.712431
0.901270	1.713947
0.901367	1.715808
0.901465	1.720935
0.901562	1.723781
0.901660	1.730185
0.901758	1.731497
0.901855	1.737956
0.901953	1.723735
0.902051	1.714255
0.902148	1.715295
0.902246	1.716195
0.902344	1.728063
0.902441	1.714946
0.902539	1.709073
0.902637	1.705043
0.902734	1.702666
0.902832	1.702488
0.902930	1.704147
0.903027	1.708897
0.903125	1.713828
0.903223	1.725528
0.903320	1.727841
0.903418	1.709436
0.903516	1.680453
0.903613	1.667018
0.903711	1.638446
0.903809	1.614699
0.903906	1.653489
0.904004	1.656512
0.904102	1.668320
0.904199	1.607823
0.904297	1.572199
0.904395	1.513543
0.904492	1.540935
0.904590	1.602673
0.904687	1.653930
0.904785	1.679362
0.904883	1.677223
0.904980	1.706005
0.905078	1.675873
0.905176	1.689338
0.905273	1.677621
0.905371	1.679697
0.905469	1.673029
0.905566	1.676369
0.905664	1.674872
0.905762	1.684333
0.905859	1.688944
0.905957	1.695919
0.906055	1.692290
0.906152	1.693177
0.906250	1.708243
0.906348	1.728421
0.906445	1.701450
0.906543	1.699360
0.906641	1.701945
0.906738	1.687075
0.906836	1.677717
0.906934	1.682666
0.907031	1.669545
0.907129	1.652476
0.907227	1.640939
0.907324	1.637591
0.907422	1.635764
0.907520	1.635937
0.907617	1.636792
0.907715	1.638887
0.907812	1.641321
0.907910	1.644720
0.908008	1.648182
0.908105	1.652356
0.908203	1.656737
0.908301	1.662694
0.908398	1.669872
0.908496	1.677216
0.908594	1.675312
0.908691	1.668855
0.908789	1.658355
0.908887	1.642961
0.908984	1.636538
0.909082	1.651528
0.909180	1.617111
0.909277	1.587881
0.909375	1.536827
0.909473	1.519221
0.909570	1.516594
0.909668	1.547467
0.909766	1.533570
0.909863	1.525419
0.909961	1.567095
0.910059	1.573494
0.910156	1.579543
0.910254	1.605172
0.910352	1.622497
0.910449	1.629036
0.910547	1.617139
0.910645	1.620102
0.910742	1.625439
0.910840	1.628372
0.910937	1.630991
0.911035	1.631607
0.911133	1.630964
0.911230	1.629745
0.911328	1.629208
0.911426	1.629404
0.911523	1.630418
0.911621	1.631742
0.911719	1.633382
0.911816	1.635079
0.911914	1.636743
0.912012	1.638425
0.912109	1.639905
0.912207	1.641499
0.912305	1.642975
0.912402	1.644505
0.912500	1.645951
0.912598	1.647515
0.912695	1.649034
0.912793	1.650599
0.912891	1.652329
0.912988	1.654161
0.913086	1.656337
0.913184	1.658630
0.913281	1.660879
0.913379	1.663123
0.913477	1.665169
0.913574	1.667314
0.913672	1.669345
0.913770	1.671388
0.913867	1.673192
0.913965	1.674978
0.914062	1.676710
0.914160	1.678415
0.914258	1.680306
0.914355	1.682308
0.914453	1.684551
0.914551	1.686754
0.914648	1.688940
0.914746	1.690969
0.914844	1.692966
0.914941	1.694934
0.915039	1.696931
0.915137	1.698932
0.915234	1.700950
0.915332	1.702285
0.915430	1.703059
0.915527	1.704134
0.915625	1.705593
0.915723	1.707030
0.915820	1.708313
0.915918	1.709001
0.916016	1.709626
0.916113	1.710116
0.916211	1.711343
0.916309	1.713219
0.916406	1.716236
0.916504	1.720021
0.916602	1.723525
0.916699	1.726459
0.916797	1.730740
0.916895	1.728982
0.916992	1.722981
0.917090	1.719571
0.917187	1.717501
0.917285	1.718105
0.917383	1.721062
0.917480	1.726609
0.917578	1.732424
0.917676	1.738317
0.917773	1.744050
0.917871	1.742881
0.917969	1.730904
0.918066	1.725661
0.918164	1.725272
0.918262	1.728355
0.918359	1.733872
0.918457	1.737478
0.918555	1.735770
0.918652	1.731475
0.918750	1.731464
0.918848	1.732756
0.918945	1.742181
0.919043	1.734174
0.919141	1.743283
0.919238	1.741137
0.919336	1.732916
0.919434	1.728827
0.919531	1.718379
0.919629	1.717247
0.919727	1.715508
0.919824	1.721954
0.919922	1.710926
0.920020	1.702534
0.920117	1.710539
0.920215	1.705938
0.920312	1.720532
0.920410	1.726517
0.920508	1.676348
0.920605	1.660239
0.920703	1.678775
0.920801	1.647875
0.920898	1.647081
0.920996	1.628096
0.921094	1.639955
0.921191	1.677630
0.921289	1.670386
0.921387	1.647828
0.921484	1.614546
0.921582	1.588741
0.921680	1.603994
0.921777	1.648313
0.921875	1.635950
0.921973	1.615724
0.922070	1.614414
0.922168	1.613096
0.922266	1.535807
0.922363	1.489004
0.922461	1.456186
0.922559	1.457227
0.922656	1.454376
0.922754	1.503788
0.922852	1.578776
0.922949	1.625855
0.923047	1.605097
0.923145	1.636539
0.923242	1.643676
0.923340	1.650361
0.923437	1.651029
0.923535	1.655727
0.923633	1.655836
0.923730	1.660844
0.923828	1.660306
0.923926	1.667047
0.924023	1.670952
0.924121	1.694617
0.924219	1.664743
0.924316	1.635187
0.924414	1.674242
0.924512	1.667854
0.924609	1.676030
0.924707	1.692348
0.924805	1.694056
0.924902	1.688241
0.925000	1.690632
0.925098	1.687642
0.925195	1.681015
0.925293	1.684841
0.925391	1.685850
0.925488	1.644163
0.925586	1.649970
0.925684	1.655740
0.925781	1.646889
0.925879	1.645204
0.925977	1.639481
0.926074	1.640695
0.926172	1.646782
0.926270	1.648182
0.926367	1.644681
0.926465	1.640203
0.926562	1.636433
0.926660	1.634122
0.926758	1.631750
0.926855	1.628610
0.926953	1.624211
0.927051	1.619994
0.927148	1.617003
0.927246	1.616091
0.927344	1.616222
0.927441	1.616980
0.927539	1.617830
0.927637	1.619029
0.927734	1.620142
0.927832	1.621324
0.927930	1.622460
0.928027	1.623537
0.928125	1.624638
0.928223	1.625666
0.928320	1.626860
0.928418	1.627973
0.928516	1.629297
0.928613	1.630470
0.928711	1.631742
0.928809	1.633040
0.928906	1.634237
0.929004	1.635367
0.929102	1.636556
0.929199	1.637609
0.929297	1.638822
0.929395	1.640124
0.929492	1.641551
0.929590	1.643321
0.929687	1.645259
0.929785	1.647428
0.929883	1.649912
0.929980	1.652541
0.930078	1.655173
0.930176	1.657733
0.930273	1.660254
0.930371	1.662649
0.930469	1.665465
0.930566	1.668513
0.930664	1.672428
0.930762	1.676591
0.930859	1.680685
0.930957	1.683958
0.931055	1.686254
0.931152	1.688639
0.931250	1.692415
0.931348	1.697736
0.931445	1.703108
0.931543	1.707372
0.931641	1.711254
0.931738	1.713808
0.931836	1.715963
0.931934	1.717666
0.932031	1.719428
0.932129	1.720978
0.932227	1.725165
0.932324	1.726305
0.932422	1.717773
0.932520	1.713798
0.932617	1.710415
0.932715	1.705498
0.932812	1.701171
0.932910	1.698109
0.933008	1.696368
0.933105	1.695720
0.933203	1.696078
0.933301	1.697410
0.933398	1.699281
0.933496	1.701566
0.933594	1.703849
0.933691	1.706334
0.933789	1.708506
0.933887	1.710770
0.933984	1.712428
0.934082	1.714053
0.934180	1.714637
0.934277	1.716552
0.934375	1.718235
0.934473	1.721268
0.934570	1.721211
0.934668	1.722723
0.934766	1.723309
0.934863	1.730028
0.934961	1.733785
0.935059	1.739901
0.935156	1.755958
0.935254	1.761090
0.935352	1.764558
0.935449	1.752646
0.935547	1.740498
0.935645	1.736232
0.935742	1.731560
0.935840	1.733857
0.935937	1.709684
0.936035	1.694705
0.936133	1.723526
0.936230	1.707484
0.936328	1.695592
0.936426	1.666858
0.936523	1.661437
0.936621	1.622302
0.936719	1.654552
0.936816	1.676498
0.936914	1.666273
0.937012	1.680371
0.937109	1.670943
0.937207	1.669456
0.937305	1.662463
0.937402	1.656627
0.937500	1.651778
0.937598	1.649924
0.937695	1.648664
0.937793	1.648836
0.937891	1.648983
0.937988	1.649810
0.938086	1.650994
0.938184	1.652715
0.938281	1.655216
0.938379	1.660153
0.938477	1.666034
0.938574	1.673035
0.938672	1.679863
0.938770	1.686264
0.938867	1.674622
0.938965	1.674623
0.939062	1.682729
0.939160	1.683053
0.939258	1.693601
0.939355	1.704257
0.939453	1.734406
0.939551	1.724021
0.939648	1.716668
0.939746	1.727603
0.939844	1.725344
0.939941	1.724071
0.940039	1.706843
0.940137	1.684442
0.940234	1.674801
0.940332	1.664359
0.940430	1.679728
0.940527	1.645457
0.940625	1.635912
0.940723	1.650687
0.940820	1.621710
0.940918	1.653094
0.941016	1.647518
0.941113	1.620786
0.941211	1.622021
0.941309	1.615341
0.941406	1.633248
0.941504	1.630512
0.941602	1.620734
0.941699	1.618503
0.941797	1.622763
0.941895	1.636944
0.941992	1.656727
0.942090	1.657678
0.942187	1.640028
0.942285	1.635948
0.942383	1.640406
0.942480	1.642491
0.942578	1.643673
0.942676	1.644724
0.942773	1.645979
0.942871	1.647564
0.942969	1.649000
0.943066	1.650922
0.943164	1.653557
0.943262	1.655884
0.943359	1.658170
0.943457	1.660894
0.943555	1.663799
0.943652	1.667911
0.943750	1.673433
0.943848	1.679569
0.943945	1.682793
0.944043	1.680381
0.944141	1.680658
0.944238	1.680700
0.944336	1.677604
0.944434	1.675525
0.944531	1.675662
0.944629	1.676844
0.944727	1.677721
0.944824	1.678534
0.944922	1.676341
0.945020	1.673247
0.945117	1.671200
0.945215	1.670171
0.945312	1.669338
0.945410	1.668025
0.945508	1.666417
0.945605	1.665373
0.945703	1.664910
0.945801	1.665074
0.945898	1.665631
0.945996	1.666537
0.946094	1.667859
0.946191	1.669814
0.946289	1.672807
0.946387	1.676857
0.946484	1.682261
0.946582	1.687599
0.946680	1.690608
0.946777	1.692264
0.946875	1.693014
0.946973	1.692780
0.947070	1.693023
0.947168	1.693461
0.947266	1.693130
0.947363	1.693312
0.947461	1.694294
0.947559	1.696971
0.947656	1.701119
0.947754	1.706534
0.947852	1.711209
0.947949	1.719541
0.948047	1.723287
0.948145	1.717415
0.948242	1.712829
0.948340	1.711495
0.948437	1.714047
0.948535	1.716040
0.948633	1.722520
0.948730	1.728114
0.948828	1.735080
0.948926	1.735606
0.949023	1.736655
0.949121	1.727582
0.949219	1.713764
0.949316	1.691175
0.949414	1.699044
0.949512	1.677294
0.949609	1.671395
0.949707	1.701614
0.949805	1.713164
0.949902	1.718494
0.950000	1.710289
0.950098	1.699594
0.950195	1.690430
0.950293	1.687717
0.950391	1.687337
0.950488	1.691069
0.950586	1.697446
0.950684	1.705728
0.950781	1.714226
0.950879	1.719619
0.950977	1.726071
0.951074	1.726344
0.951172	1.717942
0.951270	1.710208
0.951367	1.707371
0.951465	1.707396
0.951562	1.710430
0.951660	1.706622
0.951758	1.703618
0.951855	1.694078
0.951953	1.712475
0.952051	1.713430
0.952148	1.706074
0.952246	1.711647
0.952344	1.670434
0.952441	1.686324
0.952539	1.685304
0.952637	1.707064
0.952734	1.666741
0.952832	1.635271
0.952930	1.664321
0.953027	1.659504
0.953125	1.667945
0.953223	1.673230
0.953320	1.678789
0.953418	1.684200
0.953516	1.689408
0.953613	1.694227
0.953711	1.696600
0.953809	1.699832
0.953906	1.703942
0.954004	1.710517
0.954102	1.707417
0.954199	1.706196
0.954297	1.699036
0.954395	1.703582
0.954492	1.683875
0.954590	1.649473
0.954687	1.649140
0.954785	1.626921
0.954883	1.647951
0.954980	1.659736
0.955078	1.668846
0.955176	1.663292
0.955273	1.670277
0.955371	1.677681
0.955469	1.676733
0.955566	1.680555
0.955664	1.683020
0.955762	1.628219
0.955859	1.611256
0.955957	1.639861
0.956055	1.659078
0.956152	1.655839
0.956250	1.650207
0.956348	1.646004
0.956445	1.643601
0.956543	1.648890
0.956641	1.653567
0.956738	1.658570
0.956836	1.660876
0.956934	1.661507
0.957031	1.659631
0.957129	1.657420
0.957227	1.654524
0.957324	1.652465
0.957422	1.650400
0.957520	1.649422
0.957617	1.649120
0.957715	1.649845
0.957812	1.651157
0.957910	1.652713
0.958008	1.654096
0.958105	1.655408
0.958203	1.657395
0.958301	1.660690
0.958398	1.664767
0.958496	1.668414
0.958594	1.672153
0.958691	1.673388
0.958789	1.672065
0.958887	1.671256
0.958984	1.671394
0.959082	1.673582
0.959180	1.676753
0.959277	1.680656
0.959375	1.683423
0.959473	1.685020
0.959570	1.685980
0.959668	1.687528
0.959766	1.687036
0.959863	1.687204
0.959961	1.686525
0.960059	1.691288
0.960156	1.689621
0.960254	1.682900
0.960352	1.677969
0.960449	1.674571
0.960547	1.674328
0.960645	1.673469
0.960742	1.671837
0.960840	1.669035
0.960937	1.666321
0.961035	1.663265
0.961133	1.659698
0.961230	1.655690
0.961328	1.653464
0.961426	1.651987
0.961523	1.650535
0.961621	1.648536
0.961719	1.646695
0.961816	1.644833
0.961914	1.643048
0.962012	1.641526
0.962109	1.640306
0.962207	1.639598
0.962305	1.639369
0.962402	1.639757
0.962500	1.640455
0.962598	1.641592
0.962695	1.642621
0.962793	1.643789
0.962891	1.644922
0.962988	1.646029
0.963086	1.647423
0.963184	1.648902
0.963281	1.650615
0.963379	1.652374
0.963477	1.654268
0.963574	1.656088
0.963672	1.657789
0.963770	1.659480
0.963867	1.660931
0.963965	1.662533
0.964062	1.664153
0.964160	1.665963
0.964258	1.667675
0.964355	1.669850
0.964453	1.672223
0.964551	1.674701
0.964648	1.677736
0.964746	1.681136
0.964844	1.684965
0.964941	1.688865
0.965039	1.692365
0.965137	1.695584
0.965234	1.698476
0.965332	1.700444
0.965430	1.700900
0.965527	1.701003
0.965625	1.702170
0.965723	1.703745
0.965820	1.704880
0.965918	1.703859
0.966016	1.702999
0.966113	1.701002
0.966211	1.700369
0.966309	1.699767
0.966406	1.701863
0.966504	1.703831
0.966602	1.708800
0.966699	1.711033
0.966797	1.715624
0.966895	1.716242
0.966992	1.722039
0.967090	1.722887
0.967187	1.731874
0.967285	1.727749
0.967383	1.765489
0.967480	1.754709
0.967578	1.719451
0.967676	1.709230
0.967773	1.647888
0.967871	1.662872
0.967969	1.686849
0.968066	1.689143
0.968164	1.720652
0.968262	1.719076
0.968359	1.680667
0.968457	1.696330
0.968555	1.700338
0.968652	1.707708
0.968750	1.682194
0.968848	1.688249
0.968945	1.687403
0.969043	1.694191
0.969141	1.693401
0.969238	1.695905
0.969336	1.693337
0.969434	1.693739
0.969531	1.690700
0.969629	1.688803
0.969727	1.683789
0.969824	1.679639
0.969922	1.674233
0.970020	1.670951
0.970117	1.667923
0.970215	1.666990
0.970312	1.666747
0.970410	1.667782
0.970508	1.669250
0.970605	1.671262
0.970703	1.673316
0.970801	1.675467
0.970898	1.677403
0.970996	1.679682
0.971094	1.681719
0.971191	1.682981
0.971289	1.682754
0.971387	1.681665
0.971484	1.678526
0.971582	1.669294
0.971680	1.658457
0.971777	1.651398
0.971875	1.647824
0.971973	1.646532
0.972070	1.646971
0.972168	1.648653
0.972266	1.651751
0.972363	1.655942
0.972461	1.660185
0.972559	1.661978
0.972656	1.662077
0.972754	1.663002
0.972852	1.663227
0.972949	1.663043
0.973047	1.662929
0.973145	1.662994
0.973242	1.663142
0.973340	1.663315
0.973437	1.663398
0.973535	1.663370
0.973633	1.663385
0.973730	1.663461
0.973828	1.663631
0.973926	1.664228
0.974023	1.665197
0.974121	1.666548
0.974219	1.666478
0.974316	1.665504
0.974414	1.665607
0.974512	1.666284
0.974609	1.667513
0.974707	1.669101
0.974805	1.671068
0.974902	1.672993
0.975000	1.674257
0.975098	1.674740
0.975195	1.674604
0.975293	1.673674
0.975391	1.672591
0.975488	1.672090
0.975586	1.672331
0.975684	1.672827
0.975781	1.673120
0.975879	1.673361
0.975977	1.673416
0.976074	1.673466
0.976172	1.673760
0.976270	1.674306
0.976367	1.675096
0.976465	1.676381

