LabVIEW Measurement	
Writer_Version	2
Reader_Version	2
Separator	Tab
Decimal_Separator	.
Multi_Headings	Yes
X_Columns	One
Time_Pref	Absolute
Operator	W-Tunnel
Date	1904/01/01
Time	01:00:00
***End_of_Header***	
	
Channels	1	
Samples	10000	
Date	2024/05/17	
Time	18:27:05.6903728562496549321	
Y_Unit_Label	Volts	
X_Dimension	Time	
X0	0.0000000000000000E+0	
Delta_X	9.765625E-5	
***End_of_Header***		
X_Value	Voltage	Comment
0.000000	1.527135
9.765625E-5	1.529822
0.000195	1.540832
0.000293	1.536363
0.000391	1.538826
0.000488	1.543998
0.000586	1.561933
0.000684	1.564907
0.000781	1.537210
0.000879	1.539708
0.000977	1.543673
0.001074	1.534575
0.001172	1.553720
0.001270	1.563956
0.001367	1.564055
0.001465	1.557300
0.001562	1.566209
0.001660	1.556048
0.001758	1.552015
0.001855	1.556724
0.001953	1.555291
0.002051	1.553357
0.002148	1.559464
0.002246	1.563526
0.002344	1.579778
0.002441	1.581374
0.002539	1.577281
0.002637	1.565057
0.002734	1.543881
0.002832	1.533364
0.002930	1.529592
0.003027	1.525804
0.003125	1.517649
0.003223	1.538725
0.003320	1.560899
0.003418	1.545327
0.003516	1.519706
0.003613	1.509405
0.003711	1.501840
0.003809	1.534148
0.003906	1.566078
0.004004	1.583568
0.004102	1.569887
0.004199	1.569228
0.004297	1.574438
0.004395	1.568503
0.004492	1.568520
0.004590	1.556290
0.004687	1.545177
0.004785	1.532431
0.004883	1.535978
0.004980	1.542168
0.005078	1.556614
0.005176	1.561260
0.005273	1.544731
0.005371	1.535964
0.005469	1.536332
0.005566	1.547580
0.005664	1.528210
0.005762	1.525218
0.005859	1.542200
0.005957	1.525766
0.006055	1.523781
0.006152	1.516942
0.006250	1.518817
0.006348	1.530324
0.006445	1.520432
0.006543	1.521743
0.006641	1.551763
0.006738	1.582474
0.006836	1.579616
0.006934	1.573847
0.007031	1.578726
0.007129	1.564184
0.007227	1.572164
0.007324	1.578500
0.007422	1.579327
0.007520	1.567180
0.007617	1.556196
0.007715	1.556980
0.007812	1.556528
0.007910	1.547837
0.008008	1.538470
0.008105	1.530784
0.008203	1.521862
0.008301	1.519880
0.008398	1.546068
0.008496	1.549921
0.008594	1.553436
0.008691	1.582159
0.008789	1.570004
0.008887	1.548889
0.008984	1.534569
0.009082	1.542862
0.009180	1.553625
0.009277	1.547754
0.009375	1.533791
0.009473	1.556782
0.009570	1.572310
0.009668	1.559693
0.009766	1.550431
0.009863	1.545474
0.009961	1.544142
0.010059	1.537459
0.010156	1.530906
0.010254	1.532625
0.010352	1.527048
0.010449	1.520038
0.010547	1.514160
0.010645	1.508860
0.010742	1.514534
0.010840	1.524406
0.010937	1.531055
0.011035	1.536562
0.011133	1.520578
0.011230	1.492687
0.011328	1.494005
0.011426	1.518160
0.011523	1.552020
0.011621	1.557843
0.011719	1.559381
0.011816	1.551613
0.011914	1.557208
0.012012	1.567955
0.012109	1.562629
0.012207	1.563212
0.012305	1.559174
0.012402	1.558046
0.012500	1.564888
0.012598	1.568971
0.012695	1.567242
0.012793	1.562554
0.012891	1.571747
0.012988	1.577399
0.013086	1.553678
0.013184	1.537871
0.013281	1.551368
0.013379	1.544724
0.013477	1.536456
0.013574	1.542282
0.013672	1.538786
0.013770	1.533183
0.013867	1.516458
0.013965	1.502197
0.014062	1.503426
0.014160	1.523345
0.014258	1.529997
0.014355	1.529320
0.014453	1.529479
0.014551	1.536795
0.014648	1.568032
0.014746	1.587137
0.014844	1.587641
0.014941	1.566986
0.015039	1.542846
0.015137	1.556692
0.015234	1.548850
0.015332	1.560485
0.015430	1.568504
0.015527	1.585257
0.015625	1.580107
0.015723	1.583901
0.015820	1.588600
0.015918	1.592325
0.016016	1.581929
0.016113	1.572656
0.016211	1.564501
0.016309	1.554570
0.016406	1.549666
0.016504	1.535292
0.016602	1.520984
0.016699	1.513612
0.016797	1.518291
0.016895	1.527352
0.016992	1.537844
0.017090	1.550013
0.017187	1.541727
0.017285	1.527282
0.017383	1.545420
0.017480	1.549752
0.017578	1.530190
0.017676	1.537134
0.017773	1.581590
0.017871	1.608162
0.017969	1.605683
0.018066	1.595528
0.018164	1.586788
0.018262	1.574527
0.018359	1.564505
0.018457	1.550645
0.018555	1.535815
0.018652	1.536748
0.018750	1.536072
0.018848	1.522318
0.018945	1.519724
0.019043	1.520963
0.019141	1.538268
0.019238	1.551531
0.019336	1.552189
0.019434	1.539211
0.019531	1.529111
0.019629	1.539511
0.019727	1.543336
0.019824	1.554030
0.019922	1.564445
0.020020	1.569864
0.020117	1.565538
0.020215	1.541228
0.020312	1.524662
0.020410	1.530512
0.020508	1.555947
0.020605	1.566010
0.020703	1.568079
0.020801	1.587319
0.020898	1.588305
0.020996	1.577122
0.021094	1.593397
0.021191	1.597715
0.021289	1.590108
0.021387	1.580887
0.021484	1.582751
0.021582	1.584231
0.021680	1.596098
0.021777	1.583478
0.021875	1.561527
0.021973	1.568936
0.022070	1.585991
0.022168	1.591336
0.022266	1.596515
0.022363	1.590429
0.022461	1.569689
0.022559	1.565103
0.022656	1.567565
0.022754	1.571192
0.022852	1.586689
0.022949	1.574826
0.023047	1.539508
0.023145	1.517076
0.023242	1.516974
0.023340	1.518328
0.023437	1.525268
0.023535	1.535865
0.023633	1.537266
0.023730	1.532111
0.023828	1.532831
0.023926	1.515575
0.024023	1.516234
0.024121	1.528347
0.024219	1.539358
0.024316	1.528653
0.024414	1.510816
0.024512	1.515283
0.024609	1.546200
0.024707	1.556102
0.024805	1.540166
0.024902	1.559379
0.025000	1.562301
0.025098	1.565209
0.025195	1.564570
0.025293	1.573512
0.025391	1.562329
0.025488	1.548353
0.025586	1.540836
0.025684	1.550349
0.025781	1.553014
0.025879	1.556657
0.025977	1.593741
0.026074	1.618794
0.026172	1.628338
0.026270	1.613345
0.026367	1.608754
0.026465	1.608331
0.026562	1.600335
0.026660	1.584705
0.026758	1.573508
0.026855	1.560395
0.026953	1.538556
0.027051	1.538210
0.027148	1.556747
0.027246	1.564299
0.027344	1.565868
0.027441	1.560588
0.027539	1.558653
0.027637	1.554746
0.027734	1.536158
0.027832	1.535937
0.027930	1.556063
0.028027	1.551844
0.028125	1.531480
0.028223	1.528880
0.028320	1.524857
0.028418	1.521554
0.028516	1.526557
0.028613	1.530477
0.028711	1.538768
0.028809	1.549599
0.028906	1.540534
0.029004	1.538823
0.029102	1.533537
0.029199	1.525357
0.029297	1.532547
0.029395	1.531888
0.029492	1.533699
0.029590	1.546533
0.029687	1.550107
0.029785	1.548011
0.029883	1.545858
0.029980	1.560207
0.030078	1.553993
0.030176	1.538109
0.030273	1.540156
0.030371	1.539322
0.030469	1.542146
0.030566	1.542353
0.030664	1.558103
0.030762	1.563215
0.030859	1.575078
0.030957	1.583106
0.031055	1.573785
0.031152	1.555606
0.031250	1.542289
0.031348	1.534449
0.031445	1.521912
0.031543	1.521659
0.031641	1.536373
0.031738	1.570948
0.031836	1.589360
0.031934	1.599017
0.032031	1.595919
0.032129	1.590093
0.032227	1.585662
0.032324	1.579776
0.032422	1.574315
0.032520	1.575905
0.032617	1.582100
0.032715	1.585469
0.032812	1.577354
0.032910	1.569306
0.033008	1.555511
0.033105	1.538024
0.033203	1.521143
0.033301	1.520666
0.033398	1.528553
0.033496	1.541204
0.033594	1.563929
0.033691	1.565384
0.033789	1.571240
0.033887	1.558573
0.033984	1.546580
0.034082	1.541314
0.034180	1.540748
0.034277	1.548724
0.034375	1.534014
0.034473	1.541520
0.034570	1.540811
0.034668	1.536711
0.034766	1.529624
0.034863	1.524601
0.034961	1.549427
0.035059	1.556841
0.035156	1.569166
0.035254	1.577304
0.035352	1.576975
0.035449	1.566204
0.035547	1.574847
0.035645	1.580734
0.035742	1.577883
0.035840	1.559659
0.035937	1.550889
0.036035	1.555918
0.036133	1.575785
0.036230	1.582655
0.036328	1.569169
0.036426	1.541971
0.036523	1.529783
0.036621	1.541724
0.036719	1.555958
0.036816	1.524720
0.036914	1.514712
0.037012	1.528174
0.037109	1.539174
0.037207	1.559817
0.037305	1.547961
0.037402	1.532599
0.037500	1.525686
0.037598	1.520760
0.037695	1.517223
0.037793	1.521248
0.037891	1.530672
0.037988	1.529791
0.038086	1.530129
0.038184	1.530110
0.038281	1.528550
0.038379	1.527789
0.038477	1.527638
0.038574	1.538987
0.038672	1.544244
0.038770	1.541260
0.038867	1.579695
0.038965	1.597457
0.039062	1.568646
0.039160	1.551516
0.039258	1.550443
0.039355	1.551642
0.039453	1.538392
0.039551	1.566148
0.039648	1.576785
0.039746	1.576684
0.039844	1.584003
0.039941	1.598152
0.040039	1.583475
0.040137	1.591069
0.040234	1.593608
0.040332	1.576268
0.040430	1.555738
0.040527	1.536288
0.040625	1.536773
0.040723	1.549872
0.040820	1.546460
0.040918	1.546663
0.041016	1.541964
0.041113	1.532598
0.041211	1.522281
0.041309	1.514170
0.041406	1.514251
0.041504	1.520418
0.041602	1.515286
0.041699	1.521518
0.041797	1.522648
0.041895	1.513699
0.041992	1.496669
0.042090	1.481184
0.042187	1.499177
0.042285	1.499014
0.042383	1.518582
0.042480	1.551804
0.042578	1.556812
0.042676	1.547197
0.042773	1.552867
0.042871	1.564852
0.042969	1.573114
0.043066	1.586456
0.043164	1.592254
0.043262	1.584852
0.043359	1.568986
0.043457	1.564597
0.043555	1.541863
0.043652	1.522665
0.043750	1.521825
0.043848	1.528254
0.043945	1.532717
0.044043	1.540372
0.044141	1.563756
0.044238	1.567421
0.044336	1.562490
0.044434	1.548719
0.044531	1.551110
0.044629	1.565999
0.044727	1.594076
0.044824	1.614070
0.044922	1.605096
0.045020	1.588544
0.045117	1.563357
0.045215	1.547033
0.045312	1.560164
0.045410	1.590415
0.045508	1.567061
0.045605	1.544388
0.045703	1.542637
0.045801	1.532119
0.045898	1.516907
0.045996	1.518335
0.046094	1.534915
0.046191	1.545200
0.046289	1.565495
0.046387	1.573013
0.046484	1.561779
0.046582	1.554515
0.046680	1.557272
0.046777	1.560868
0.046875	1.581659
0.046973	1.597856
0.047070	1.604499
0.047168	1.599684
0.047266	1.595417
0.047363	1.583226
0.047461	1.560399
0.047559	1.549581
0.047656	1.547256
0.047754	1.547796
0.047852	1.543760
0.047949	1.532065
0.048047	1.532916
0.048145	1.547063
0.048242	1.534940
0.048340	1.533044
0.048437	1.537761
0.048535	1.537779
0.048633	1.533520
0.048730	1.531867
0.048828	1.538840
0.048926	1.546944
0.049023	1.561843
0.049121	1.568279
0.049219	1.593684
0.049316	1.585487
0.049414	1.568122
0.049512	1.555572
0.049609	1.545584
0.049707	1.544856
0.049805	1.536371
0.049902	1.523719
0.050000	1.512568
0.050098	1.508867
0.050195	1.525168
0.050293	1.538426
0.050391	1.527862
0.050488	1.514771
0.050586	1.514138
0.050684	1.534869
0.050781	1.566060
0.050879	1.582907
0.050977	1.579004
0.051074	1.573547
0.051172	1.559547
0.051270	1.546141
0.051367	1.541048
0.051465	1.549023
0.051562	1.546088
0.051660	1.535335
0.051758	1.536756
0.051855	1.540244
0.051953	1.523352
0.052051	1.516879
0.052148	1.525499
0.052246	1.517685
0.052344	1.506104
0.052441	1.531007
0.052539	1.557559
0.052637	1.546643
0.052734	1.512254
0.052832	1.522039
0.052930	1.544095
0.053027	1.548317
0.053125	1.542991
0.053223	1.548087
0.053320	1.548673
0.053418	1.540528
0.053516	1.568957
0.053613	1.577002
0.053711	1.573221
0.053809	1.570818
0.053906	1.580140
0.054004	1.581876
0.054102	1.574950
0.054199	1.574206
0.054297	1.568811
0.054395	1.567867
0.054492	1.562689
0.054590	1.556612
0.054687	1.549124
0.054785	1.549012
0.054883	1.552355
0.054980	1.556654
0.055078	1.549228
0.055176	1.555916
0.055273	1.555438
0.055371	1.549142
0.055469	1.553156
0.055566	1.565830
0.055664	1.578923
0.055762	1.586724
0.055859	1.589347
0.055957	1.559874
0.056055	1.565289
0.056152	1.573577
0.056250	1.572846
0.056348	1.586054
0.056445	1.594870
0.056543	1.582878
0.056641	1.554590
0.056738	1.545585
0.056836	1.558391
0.056934	1.565690
0.057031	1.562333
0.057129	1.560217
0.057227	1.552103
0.057324	1.542622
0.057422	1.549310
0.057520	1.547526
0.057617	1.567593
0.057715	1.608321
0.057812	1.609627
0.057910	1.595967
0.058008	1.586999
0.058105	1.566098
0.058203	1.548403
0.058301	1.563197
0.058398	1.577632
0.058496	1.564778
0.058594	1.567120
0.058691	1.564966
0.058789	1.552729
0.058887	1.544413
0.058984	1.537054
0.059082	1.531727
0.059180	1.544207
0.059277	1.559162
0.059375	1.548793
0.059473	1.540368
0.059570	1.557796
0.059668	1.573526
0.059766	1.579392
0.059863	1.590363
0.059961	1.578722
0.060059	1.573708
0.060156	1.579906
0.060254	1.561279
0.060352	1.547611
0.060449	1.543113
0.060547	1.545819
0.060645	1.554136
0.060742	1.561718
0.060840	1.549949
0.060937	1.533212
0.061035	1.542107
0.061133	1.555331
0.061230	1.557368
0.061328	1.542908
0.061426	1.522473
0.061523	1.529149
0.061621	1.566895
0.061719	1.558365
0.061816	1.551222
0.061914	1.562689
0.062012	1.552539
0.062109	1.552087
0.062207	1.566607
0.062305	1.543033
0.062402	1.540840
0.062500	1.549097
0.062598	1.560879
0.062695	1.586606
0.062793	1.560894
0.062891	1.532853
0.062988	1.523303
0.063086	1.513389
0.063184	1.508603
0.063281	1.505656
0.063379	1.513439
0.063477	1.514604
0.063574	1.520572
0.063672	1.529314
0.063770	1.520777
0.063867	1.515868
0.063965	1.511554
0.064062	1.522020
0.064160	1.540933
0.064258	1.552823
0.064355	1.565744
0.064453	1.564657
0.064551	1.564309
0.064648	1.565508
0.064746	1.557104
0.064844	1.569545
0.064941	1.594552
0.065039	1.595985
0.065137	1.589974
0.065234	1.579906
0.065332	1.553612
0.065430	1.537886
0.065527	1.527447
0.065625	1.525763
0.065723	1.532783
0.065820	1.533449
0.065918	1.539652
0.066016	1.548483
0.066113	1.553648
0.066211	1.545736
0.066309	1.527205
0.066406	1.509219
0.066504	1.539846
0.066602	1.575547
0.066699	1.580664
0.066797	1.582868
0.066895	1.573820
0.066992	1.564981
0.067090	1.568813
0.067187	1.569172
0.067285	1.566132
0.067383	1.564044
0.067480	1.565363
0.067578	1.590729
0.067676	1.591592
0.067773	1.569598
0.067871	1.588746
0.067969	1.588956
0.068066	1.584093
0.068164	1.584969
0.068262	1.576567
0.068359	1.561945
0.068457	1.549965
0.068555	1.544674
0.068652	1.548309
0.068750	1.552984
0.068848	1.535198
0.068945	1.522607
0.069043	1.530323
0.069141	1.523832
0.069238	1.524191
0.069336	1.529960
0.069434	1.517514
0.069531	1.539194
0.069629	1.547596
0.069727	1.532424
0.069824	1.526536
0.069922	1.529351
0.070020	1.527302
0.070117	1.513637
0.070215	1.508010
0.070312	1.525419
0.070410	1.536993
0.070508	1.531599
0.070605	1.547260
0.070703	1.564396
0.070801	1.566144
0.070898	1.564024
0.070996	1.564424
0.071094	1.567455
0.071191	1.562953
0.071289	1.567632
0.071387	1.579799
0.071484	1.569703
0.071582	1.549573
0.071680	1.537179
0.071777	1.550613
0.071875	1.564852
0.071973	1.572383
0.072070	1.560743
0.072168	1.562920
0.072266	1.551011
0.072363	1.539876
0.072461	1.528941
0.072559	1.519035
0.072656	1.526370
0.072754	1.553109
0.072852	1.571317
0.072949	1.589976
0.073047	1.579198
0.073145	1.583967
0.073242	1.584725
0.073340	1.556151
0.073437	1.553518
0.073535	1.540655
0.073633	1.541482
0.073730	1.539887
0.073828	1.544574
0.073926	1.531973
0.074023	1.512703
0.074121	1.512302
0.074219	1.511780
0.074316	1.522996
0.074414	1.547522
0.074512	1.562383
0.074609	1.557171
0.074707	1.544669
0.074805	1.545565
0.074902	1.559393
0.075000	1.544336
0.075098	1.525746
0.075195	1.505293
0.075293	1.496173
0.075391	1.502874
0.075488	1.521148
0.075586	1.541399
0.075684	1.570385
0.075781	1.580718
0.075879	1.573111
0.075977	1.560385
0.076074	1.558024
0.076172	1.554210
0.076270	1.550019
0.076367	1.545863
0.076465	1.550089
0.076562	1.561785
0.076660	1.572840
0.076758	1.579951
0.076855	1.575051
0.076953	1.557191
0.077051	1.550904
0.077148	1.539635
0.077246	1.522108
0.077344	1.509528
0.077441	1.515277
0.077539	1.520928
0.077637	1.520832
0.077734	1.525312
0.077832	1.547491
0.077930	1.547101
0.078027	1.537365
0.078125	1.547919
0.078223	1.557779
0.078320	1.565224
0.078418	1.563148
0.078516	1.601054
0.078613	1.612106
0.078711	1.600109
0.078809	1.615750
0.078906	1.612105
0.079004	1.619837
0.079102	1.617633
0.079199	1.613489
0.079297	1.599703
0.079395	1.579689
0.079492	1.550555
0.079590	1.543606
0.079687	1.542997
0.079785	1.545748
0.079883	1.533072
0.079980	1.521136
0.080078	1.507420
0.080176	1.513933
0.080273	1.522382
0.080371	1.531393
0.080469	1.548828
0.080566	1.548410
0.080664	1.551536
0.080762	1.546178
0.080859	1.549191
0.080957	1.551998
0.081055	1.553466
0.081152	1.539477
0.081250	1.526480
0.081348	1.521356
0.081445	1.523442
0.081543	1.539028
0.081641	1.565790
0.081738	1.562314
0.081836	1.537777
0.081934	1.517525
0.082031	1.521411
0.082129	1.521385
0.082227	1.509568
0.082324	1.509876
0.082422	1.521643
0.082520	1.542697
0.082617	1.544619
0.082715	1.545257
0.082812	1.568021
0.082910	1.565620
0.083008	1.556484
0.083105	1.546651
0.083203	1.550503
0.083301	1.534408
0.083398	1.528356
0.083496	1.523473
0.083594	1.541421
0.083691	1.551149
0.083789	1.553657
0.083887	1.561121
0.083984	1.574488
0.084082	1.577189
0.084180	1.577401
0.084277	1.566372
0.084375	1.550863
0.084473	1.556790
0.084570	1.556948
0.084668	1.563974
0.084766	1.550047
0.084863	1.531521
0.084961	1.517986
0.085059	1.517068
0.085156	1.528894
0.085254	1.545377
0.085352	1.551057
0.085449	1.564980
0.085547	1.564702
0.085645	1.556264
0.085742	1.545947
0.085840	1.531584
0.085937	1.539762
0.086035	1.532067
0.086133	1.523586
0.086230	1.522562
0.086328	1.537887
0.086426	1.534874
0.086523	1.515332
0.086621	1.507774
0.086719	1.501424
0.086816	1.502423
0.086914	1.507691
0.087012	1.521399
0.087109	1.527819
0.087207	1.529968
0.087305	1.531849
0.087402	1.532210
0.087500	1.531696
0.087598	1.523219
0.087695	1.521244
0.087793	1.517516
0.087891	1.512137
0.087988	1.514934
0.088086	1.516561
0.088184	1.523545
0.088281	1.535206
0.088379	1.529363
0.088477	1.517458
0.088574	1.513195
0.088672	1.531372
0.088770	1.533482
0.088867	1.538659
0.088965	1.529067
0.089062	1.527584
0.089160	1.517569
0.089258	1.525548
0.089355	1.528883
0.089453	1.516571
0.089551	1.521823
0.089648	1.537954
0.089746	1.552216
0.089844	1.538962
0.089941	1.540390
0.090039	1.545392
0.090137	1.546595
0.090234	1.539336
0.090332	1.544132
0.090430	1.551081
0.090527	1.574627
0.090625	1.588817
0.090723	1.591886
0.090820	1.593632
0.090918	1.587349
0.091016	1.586394
0.091113	1.581805
0.091211	1.560077
0.091309	1.554899
0.091406	1.539748
0.091504	1.521313
0.091602	1.512975
0.091699	1.512939
0.091797	1.517296
0.091895	1.520186
0.091992	1.523911
0.092090	1.514637
0.092187	1.496045
0.092285	1.489505
0.092383	1.496288
0.092480	1.515201
0.092578	1.535909
0.092676	1.549095
0.092773	1.535451
0.092871	1.536503
0.092969	1.536919
0.093066	1.536095
0.093164	1.536585
0.093262	1.555569
0.093359	1.568274
0.093457	1.560924
0.093555	1.549819
0.093652	1.536916
0.093750	1.535111
0.093848	1.534962
0.093945	1.529479
0.094043	1.506031
0.094141	1.508238
0.094238	1.528690
0.094336	1.526933
0.094434	1.532693
0.094531	1.539444
0.094629	1.544845
0.094727	1.536244
0.094824	1.514201
0.094922	1.531700
0.095020	1.519884
0.095117	1.504809
0.095215	1.512776
0.095312	1.510788
0.095410	1.524163
0.095508	1.549670
0.095605	1.565879
0.095703	1.561306
0.095801	1.553535
0.095898	1.540564
0.095996	1.534219
0.096094	1.548086
0.096191	1.573144
0.096289	1.595949
0.096387	1.616270
0.096484	1.620610
0.096582	1.619296
0.096680	1.622361
0.096777	1.617340
0.096875	1.604753
0.096973	1.594272
0.097070	1.581172
0.097168	1.562825
0.097266	1.571352
0.097363	1.592503
0.097461	1.591052
0.097559	1.589116
0.097656	1.585207
0.097754	1.575882
0.097852	1.571066
0.097949	1.578338
0.098047	1.573644
0.098145	1.565154
0.098242	1.558293
0.098340	1.557697
0.098437	1.560099
0.098535	1.571505
0.098633	1.586736
0.098730	1.592419
0.098828	1.610549
0.098926	1.618356
0.099023	1.606578
0.099121	1.603313
0.099219	1.594353
0.099316	1.587477
0.099414	1.577573
0.099512	1.569376
0.099609	1.566134
0.099707	1.565339
0.099805	1.568556
0.099902	1.559866
0.100000	1.540449
0.100098	1.523783
0.100195	1.520343
0.100293	1.519005
0.100391	1.515263
0.100488	1.523944
0.100586	1.523813
0.100684	1.510950
0.100781	1.545400
0.100879	1.555015
0.100977	1.551713
0.101074	1.550430
0.101172	1.542583
0.101270	1.535519
0.101367	1.528742
0.101465	1.518299
0.101562	1.550658
0.101660	1.586506
0.101758	1.567722
0.101855	1.551765
0.101953	1.530612
0.102051	1.528993
0.102148	1.537420
0.102246	1.546058
0.102344	1.535920
0.102441	1.526726
0.102539	1.536178
0.102637	1.545951
0.102734	1.550382
0.102832	1.545736
0.102930	1.553855
0.103027	1.564768
0.103125	1.570272
0.103223	1.558447
0.103320	1.555041
0.103418	1.546011
0.103516	1.549015
0.103613	1.547164
0.103711	1.534023
0.103809	1.547572
0.103906	1.563734
0.104004	1.567600
0.104102	1.563706
0.104199	1.561848
0.104297	1.567561
0.104395	1.557453
0.104492	1.559152
0.104590	1.573920
0.104687	1.576094
0.104785	1.586232
0.104883	1.574109
0.104980	1.560679
0.105078	1.566585
0.105176	1.548011
0.105273	1.557061
0.105371	1.585426
0.105469	1.575438
0.105566	1.558660
0.105664	1.554609
0.105762	1.570308
0.105859	1.586502
0.105957	1.585135
0.106055	1.573797
0.106152	1.554249
0.106250	1.542107
0.106348	1.543176
0.106445	1.539343
0.106543	1.556158
0.106641	1.579820
0.106738	1.574697
0.106836	1.560587
0.106934	1.565139
0.107031	1.570981
0.107129	1.584930
0.107227	1.593888
0.107324	1.604306
0.107422	1.590764
0.107520	1.571165
0.107617	1.580189
0.107715	1.589078
0.107812	1.580063
0.107910	1.594252
0.108008	1.587069
0.108105	1.566922
0.108203	1.562912
0.108301	1.551851
0.108398	1.533437
0.108496	1.539528
0.108594	1.552606
0.108691	1.558897
0.108789	1.579275
0.108887	1.575968
0.108984	1.579477
0.109082	1.585960
0.109180	1.574104
0.109277	1.572557
0.109375	1.579136
0.109473	1.563983
0.109570	1.565495
0.109668	1.554349
0.109766	1.537308
0.109863	1.536142
0.109961	1.552139
0.110059	1.568187
0.110156	1.575072
0.110254	1.583314
0.110352	1.579153
0.110449	1.564417
0.110547	1.550695
0.110645	1.543541
0.110742	1.548815
0.110840	1.564759
0.110937	1.547197
0.111035	1.531023
0.111133	1.547597
0.111230	1.585148
0.111328	1.591255
0.111426	1.592773
0.111523	1.602598
0.111621	1.591899
0.111719	1.588693
0.111816	1.569263
0.111914	1.563653
0.112012	1.563202
0.112109	1.562434
0.112207	1.576609
0.112305	1.562193
0.112402	1.548928
0.112500	1.550703
0.112598	1.557465
0.112695	1.552120
0.112793	1.549657
0.112891	1.560185
0.112988	1.555309
0.113086	1.555818
0.113184	1.556488
0.113281	1.554963
0.113379	1.539345
0.113477	1.526223
0.113574	1.529682
0.113672	1.530730
0.113770	1.533779
0.113867	1.530446
0.113965	1.537749
0.114062	1.527266
0.114160	1.519114
0.114258	1.521348
0.114355	1.509233
0.114453	1.497586
0.114551	1.502556
0.114648	1.508459
0.114746	1.517231
0.114844	1.509122
0.114941	1.511346
0.115039	1.523505
0.115137	1.555926
0.115234	1.598806
0.115332	1.577735
0.115430	1.557176
0.115527	1.549517
0.115625	1.552961
0.115723	1.541510
0.115820	1.536902
0.115918	1.550089
0.116016	1.559708
0.116113	1.560894
0.116211	1.575249
0.116309	1.573824
0.116406	1.565855
0.116504	1.557918
0.116602	1.551902
0.116699	1.550153
0.116797	1.539831
0.116895	1.523679
0.116992	1.532197
0.117090	1.549037
0.117187	1.543523
0.117285	1.532763
0.117383	1.538080
0.117480	1.546124
0.117578	1.537717
0.117676	1.540985
0.117773	1.537925
0.117871	1.530686
0.117969	1.533592
0.118066	1.548962
0.118164	1.553575
0.118262	1.561480
0.118359	1.579646
0.118457	1.578241
0.118555	1.554301
0.118652	1.545802
0.118750	1.555232
0.118848	1.563288
0.118945	1.566142
0.119043	1.556985
0.119141	1.546141
0.119238	1.543691
0.119336	1.544399
0.119434	1.561521
0.119531	1.559328
0.119629	1.542520
0.119727	1.530442
0.119824	1.527183
0.119922	1.533305
0.120020	1.538276
0.120117	1.533893
0.120215	1.532594
0.120312	1.532772
0.120410	1.522314
0.120508	1.510704
0.120605	1.510183
0.120703	1.529592
0.120801	1.550631
0.120898	1.570914
0.120996	1.560126
0.121094	1.541177
0.121191	1.533458
0.121289	1.534062
0.121387	1.523025
0.121484	1.503000
0.121582	1.494111
0.121680	1.492775
0.121777	1.504613
0.121875	1.524464
0.121973	1.522584
0.122070	1.516852
0.122168	1.518246
0.122266	1.526901
0.122363	1.537104
0.122461	1.535762
0.122559	1.532376
0.122656	1.556526
0.122754	1.577536
0.122852	1.583283
0.122949	1.568770
0.123047	1.548333
0.123145	1.542212
0.123242	1.548703
0.123340	1.548973
0.123437	1.570500
0.123535	1.592244
0.123633	1.595533
0.123730	1.597721
0.123828	1.590902
0.123926	1.581131
0.124023	1.574439
0.124121	1.564421
0.124219	1.558626
0.124316	1.546688
0.124414	1.532161
0.124512	1.522940
0.124609	1.523015
0.124707	1.534049
0.124805	1.550216
0.124902	1.562187
0.125000	1.552586
0.125098	1.549747
0.125195	1.541110
0.125293	1.536517
0.125391	1.529000
0.125488	1.515548
0.125586	1.522427
0.125684	1.544177
0.125781	1.549718
0.125879	1.549465
0.125977	1.541155
0.126074	1.529724
0.126172	1.544689
0.126270	1.545682
0.126367	1.549226
0.126465	1.539161
0.126562	1.536648
0.126660	1.549871
0.126758	1.553195
0.126855	1.561283
0.126953	1.557099
0.127051	1.546463
0.127148	1.530318
0.127246	1.526115
0.127344	1.522406
0.127441	1.549931
0.127539	1.573508
0.127637	1.564291
0.127734	1.569229
0.127832	1.563950
0.127930	1.555126
0.128027	1.562889
0.128125	1.583967
0.128223	1.595633
0.128320	1.594144
0.128418	1.587638
0.128516	1.584365
0.128613	1.567363
0.128711	1.555536
0.128809	1.544170
0.128906	1.543275
0.129004	1.534759
0.129102	1.513717
0.129199	1.510339
0.129297	1.551787
0.129395	1.585603
0.129492	1.584897
0.129590	1.579349
0.129687	1.569304
0.129785	1.556998
0.129883	1.557548
0.129980	1.582875
0.130078	1.590706
0.130176	1.579435
0.130273	1.551566
0.130371	1.550166
0.130469	1.552415
0.130566	1.544258
0.130664	1.530589
0.130762	1.508584
0.130859	1.513571
0.130957	1.535341
0.131055	1.559900
0.131152	1.550684
0.131250	1.544156
0.131348	1.540340
0.131445	1.540732
0.131543	1.551406
0.131641	1.561394
0.131738	1.566094
0.131836	1.556029
0.131934	1.540904
0.132031	1.526040
0.132129	1.514128
0.132227	1.504488
0.132324	1.502195
0.132422	1.509072
0.132520	1.516203
0.132617	1.527365
0.132715	1.526527
0.132812	1.522868
0.132910	1.530388
0.133008	1.536851
0.133105	1.529457
0.133203	1.538526
0.133301	1.567986
0.133398	1.576164
0.133496	1.567221
0.133594	1.551313
0.133691	1.551704
0.133789	1.562519
0.133887	1.557725
0.133984	1.550824
0.134082	1.569035
0.134180	1.555098
0.134277	1.538758
0.134375	1.572600
0.134473	1.570479
0.134570	1.560932
0.134668	1.549110
0.134766	1.544169
0.134863	1.551086
0.134961	1.554132
0.135059	1.547588
0.135156	1.535696
0.135254	1.516371
0.135352	1.497570
0.135449	1.479270
0.135547	1.497550
0.135645	1.527144
0.135742	1.519790
0.135840	1.507446
0.135937	1.500759
0.136035	1.494381
0.136133	1.488579
0.136230	1.498311
0.136328	1.524127
0.136426	1.547197
0.136523	1.543386
0.136621	1.525119
0.136719	1.544754
0.136816	1.547427
0.136914	1.546747
0.137012	1.567897
0.137109	1.573220
0.137207	1.570776
0.137305	1.559088
0.137402	1.548443
0.137500	1.547283
0.137598	1.538548
0.137695	1.526892
0.137793	1.526126
0.137891	1.539275
0.137988	1.568160
0.138086	1.597806
0.138184	1.617755
0.138281	1.603200
0.138379	1.582751
0.138477	1.588500
0.138574	1.593061
0.138672	1.602040
0.138770	1.588851
0.138867	1.574763
0.138965	1.575555
0.139062	1.552569
0.139160	1.541021
0.139258	1.552834
0.139355	1.531872
0.139453	1.523511
0.139551	1.557063
0.139648	1.567899
0.139746	1.565986
0.139844	1.552494
0.139941	1.541387
0.140039	1.530398
0.140137	1.510104
0.140234	1.511426
0.140332	1.519672
0.140430	1.518657
0.140527	1.515226
0.140625	1.534176
0.140723	1.525812
0.140820	1.548198
0.140918	1.577502
0.141016	1.555496
0.141113	1.530743
0.141211	1.530421
0.141309	1.538674
0.141406	1.534789
0.141504	1.568373
0.141602	1.579165
0.141699	1.572139
0.141797	1.554376
0.141895	1.552658
0.141992	1.559340
0.142090	1.562999
0.142187	1.561991
0.142285	1.548990
0.142383	1.538141
0.142480	1.527495
0.142578	1.525213
0.142676	1.531197
0.142773	1.555407
0.142871	1.563555
0.142969	1.557794
0.143066	1.545134
0.143164	1.533921
0.143262	1.534862
0.143359	1.538928
0.143457	1.541603
0.143555	1.543544
0.143652	1.542616
0.143750	1.542911
0.143848	1.544377
0.143945	1.551345
0.144043	1.573334
0.144141	1.575088
0.144238	1.590745
0.144336	1.598730
0.144434	1.591076
0.144531	1.571448
0.144629	1.553319
0.144727	1.566047
0.144824	1.594548
0.144922	1.610962
0.145020	1.606824
0.145117	1.600171
0.145215	1.586091
0.145312	1.587075
0.145410	1.588308
0.145508	1.577648
0.145605	1.566438
0.145703	1.557356
0.145801	1.538243
0.145898	1.526274
0.145996	1.536152
0.146094	1.547681
0.146191	1.547149
0.146289	1.546262
0.146387	1.553790
0.146484	1.549687
0.146582	1.552584
0.146680	1.552806
0.146777	1.543715
0.146875	1.539905
0.146973	1.537445
0.147070	1.532726
0.147168	1.531093
0.147266	1.558277
0.147363	1.587404
0.147461	1.597746
0.147559	1.598442
0.147656	1.592288
0.147754	1.578685
0.147852	1.573283
0.147949	1.591039
0.148047	1.620003
0.148145	1.621730
0.148242	1.611031
0.148340	1.609613
0.148437	1.619011
0.148535	1.622921
0.148633	1.624952
0.148730	1.624950
0.148828	1.615718
0.148926	1.602707
0.149023	1.591223
0.149121	1.599462
0.149219	1.606327
0.149316	1.599550
0.149414	1.578851
0.149512	1.570109
0.149609	1.564154
0.149707	1.568787
0.149805	1.572670
0.149902	1.561619
0.150000	1.548483
0.150098	1.531466
0.150195	1.523036
0.150293	1.532513
0.150391	1.554968
0.150488	1.536613
0.150586	1.534438
0.150684	1.560222
0.150781	1.581511
0.150879	1.598507
0.150977	1.558327
0.151074	1.542509
0.151172	1.530447
0.151270	1.545578
0.151367	1.555060
0.151465	1.554034
0.151562	1.554989
0.151660	1.558750
0.151758	1.560195
0.151855	1.570934
0.151953	1.581382
0.152051	1.568778
0.152148	1.556644
0.152246	1.549316
0.152344	1.532841
0.152441	1.530466
0.152539	1.552944
0.152637	1.564993
0.152734	1.564085
0.152832	1.564636
0.152930	1.560015
0.153027	1.551785
0.153125	1.542393
0.153223	1.532886
0.153320	1.544422
0.153418	1.550051
0.153516	1.563268
0.153613	1.567799
0.153711	1.540780
0.153809	1.528730
0.153906	1.529282
0.154004	1.529315
0.154102	1.514003
0.154199	1.505086
0.154297	1.510312
0.154395	1.516299
0.154492	1.520201
0.154590	1.521420
0.154687	1.516081
0.154785	1.516603
0.154883	1.533705
0.154980	1.553081
0.155078	1.589421
0.155176	1.602405
0.155273	1.599303
0.155371	1.586075
0.155469	1.574475
0.155566	1.545999
0.155664	1.539596
0.155762	1.569841
0.155859	1.601358
0.155957	1.605696
0.156055	1.594845
0.156152	1.591954
0.156250	1.573132
0.156348	1.560333
0.156445	1.560776
0.156543	1.533691
0.156641	1.515404
0.156738	1.549963
0.156836	1.576161
0.156934	1.577315
0.157031	1.558654
0.157129	1.539772
0.157227	1.530344
0.157324	1.522739
0.157422	1.514127
0.157520	1.506448
0.157617	1.517485
0.157715	1.531479
0.157812	1.544509
0.157910	1.579732
0.158008	1.596549
0.158105	1.594185
0.158203	1.587481
0.158301	1.576314
0.158398	1.569097
0.158496	1.573388
0.158594	1.565979
0.158691	1.548476
0.158789	1.527036
0.158887	1.504261
0.158984	1.511970
0.159082	1.517307
0.159180	1.525815
0.159277	1.544682
0.159375	1.541626
0.159473	1.554091
0.159570	1.554997
0.159668	1.561493
0.159766	1.569204
0.159863	1.555602
0.159961	1.547520
0.160059	1.541913
0.160156	1.542754
0.160254	1.527678
0.160352	1.519292
0.160449	1.517969
0.160547	1.515278
0.160645	1.515834
0.160742	1.527466
0.160840	1.543993
0.160937	1.552796
0.161035	1.558964
0.161133	1.543504
0.161230	1.536216
0.161328	1.528907
0.161426	1.510399
0.161523	1.507965
0.161621	1.515026
0.161719	1.510171
0.161816	1.518837
0.161914	1.526871
0.162012	1.533274
0.162109	1.530358
0.162207	1.532989
0.162305	1.525824
0.162402	1.511951
0.162500	1.523135
0.162598	1.525611
0.162695	1.516070
0.162793	1.514367
0.162891	1.518297
0.162988	1.526757
0.163086	1.513680
0.163184	1.527321
0.163281	1.556902
0.163379	1.574476
0.163477	1.578938
0.163574	1.572727
0.163672	1.560236
0.163770	1.560544
0.163867	1.553388
0.163965	1.546323
0.164062	1.532731
0.164160	1.535848
0.164258	1.540182
0.164355	1.545599
0.164453	1.536963
0.164551	1.528122
0.164648	1.520582
0.164746	1.521280
0.164844	1.523388
0.164941	1.521787
0.165039	1.515271
0.165137	1.511371
0.165234	1.513704
0.165332	1.541177
0.165430	1.562139
0.165527	1.549074
0.165625	1.560848
0.165723	1.577835
0.165820	1.593402
0.165918	1.602999
0.166016	1.595266
0.166113	1.574652
0.166211	1.552629
0.166309	1.546809
0.166406	1.549681
0.166504	1.551333
0.166602	1.544350
0.166699	1.563558
0.166797	1.589785
0.166895	1.583683
0.166992	1.588316
0.167090	1.591477
0.167187	1.575110
0.167285	1.578191
0.167383	1.573894
0.167480	1.579873
0.167578	1.580009
0.167676	1.557228
0.167773	1.560839
0.167871	1.575562
0.167969	1.560672
0.168066	1.567645
0.168164	1.585283
0.168262	1.570231
0.168359	1.562566
0.168457	1.557364
0.168555	1.542468
0.168652	1.535872
0.168750	1.536385
0.168848	1.558430
0.168945	1.565028
0.169043	1.538209
0.169141	1.534893
0.169238	1.551968
0.169336	1.546108
0.169434	1.536724
0.169531	1.550607
0.169629	1.568452
0.169727	1.586821
0.169824	1.598316
0.169922	1.600030
0.170020	1.613397
0.170117	1.596754
0.170215	1.592272
0.170312	1.594811
0.170410	1.595732
0.170508	1.596384
0.170605	1.594056
0.170703	1.598003
0.170801	1.592923
0.170898	1.578303
0.170996	1.586302
0.171094	1.594576
0.171191	1.574852
0.171289	1.560858
0.171387	1.581146
0.171484	1.587628
0.171582	1.580032
0.171680	1.566753
0.171777	1.554921
0.171875	1.544696
0.171973	1.535494
0.172070	1.520696
0.172168	1.515396
0.172266	1.523443
0.172363	1.538747
0.172461	1.548913
0.172559	1.550089
0.172656	1.551709
0.172754	1.553631
0.172852	1.534647
0.172949	1.538226
0.173047	1.552241
0.173145	1.548731
0.173242	1.546325
0.173340	1.527468
0.173437	1.509648
0.173535	1.508249
0.173633	1.529963
0.173730	1.548074
0.173828	1.576749
0.173926	1.598715
0.174023	1.606126
0.174121	1.600405
0.174219	1.587817
0.174316	1.598869
0.174414	1.598118
0.174512	1.566295
0.174609	1.580166
0.174707	1.581182
0.174805	1.564478
0.174902	1.571268
0.175000	1.584568
0.175098	1.581340
0.175195	1.571311
0.175293	1.563138
0.175391	1.556371
0.175488	1.553504
0.175586	1.540240
0.175684	1.528326
0.175781	1.529129
0.175879	1.539684
0.175977	1.576952
0.176074	1.580411
0.176172	1.565652
0.176270	1.543322
0.176367	1.532938
0.176465	1.523994
0.176562	1.520439
0.176660	1.522809
0.176758	1.524450
0.176855	1.541057
0.176953	1.561381
0.177051	1.554228
0.177148	1.546613
0.177246	1.565722
0.177344	1.593327
0.177441	1.595995
0.177539	1.584546
0.177637	1.570827
0.177734	1.569628
0.177832	1.573304
0.177930	1.580815
0.178027	1.590039
0.178125	1.594579
0.178223	1.596383
0.178320	1.598369
0.178418	1.603971
0.178516	1.594510
0.178613	1.576909
0.178711	1.576146
0.178809	1.569927
0.178906	1.585522
0.179004	1.581210
0.179102	1.565832
0.179199	1.563324
0.179297	1.553228
0.179395	1.561546
0.179492	1.549878
0.179590	1.557518
0.179687	1.562795
0.179785	1.551084
0.179883	1.558014
0.179980	1.555759
0.180078	1.565746
0.180176	1.583790
0.180273	1.583937
0.180371	1.577091
0.180469	1.566280
0.180566	1.563427
0.180664	1.562654
0.180762	1.544219
0.180859	1.519521
0.180957	1.513231
0.181055	1.522374
0.181152	1.532951
0.181250	1.566385
0.181348	1.574164
0.181445	1.562549
0.181543	1.555807
0.181641	1.551164
0.181738	1.577695
0.181836	1.581631
0.181934	1.565393
0.182031	1.553426
0.182129	1.531970
0.182227	1.526635
0.182324	1.542780
0.182422	1.549740
0.182520	1.528500
0.182617	1.542384
0.182715	1.561310
0.182812	1.569304
0.182910	1.573656
0.183008	1.580855
0.183105	1.607331
0.183203	1.607659
0.183301	1.597803
0.183398	1.589578
0.183496	1.587415
0.183594	1.578802
0.183691	1.568478
0.183789	1.573430
0.183887	1.582150
0.183984	1.574189
0.184082	1.556547
0.184180	1.536020
0.184277	1.526040
0.184375	1.520528
0.184473	1.539105
0.184570	1.525815
0.184668	1.521828
0.184766	1.514975
0.184863	1.539533
0.184961	1.543151
0.185059	1.534271
0.185156	1.523784
0.185254	1.514543
0.185352	1.519359
0.185449	1.517458
0.185547	1.525791
0.185645	1.545548
0.185742	1.563628
0.185840	1.571213
0.185937	1.570315
0.186035	1.572717
0.186133	1.575206
0.186230	1.567447
0.186328	1.552756
0.186426	1.530280
0.186523	1.529531
0.186621	1.537616
0.186719	1.538693
0.186816	1.545339
0.186914	1.559188
0.187012	1.571536
0.187109	1.571955
0.187207	1.566532
0.187305	1.567505
0.187402	1.547721
0.187500	1.518612
0.187598	1.530866
0.187695	1.549001
0.187793	1.549413
0.187891	1.537949
0.187988	1.529650
0.188086	1.502944
0.188184	1.495211
0.188281	1.501564
0.188379	1.515611
0.188477	1.524768
0.188574	1.519708
0.188672	1.521013
0.188770	1.513682
0.188867	1.517121
0.188965	1.524342
0.189062	1.522736
0.189160	1.531093
0.189258	1.535626
0.189355	1.529269
0.189453	1.539478
0.189551	1.560431
0.189648	1.580227
0.189746	1.573295
0.189844	1.553600
0.189941	1.545030
0.190039	1.547400
0.190137	1.550457
0.190234	1.558652
0.190332	1.576708
0.190430	1.580139
0.190527	1.580678
0.190625	1.583829
0.190723	1.588557
0.190820	1.597114
0.190918	1.581581
0.191016	1.585664
0.191113	1.586493
0.191211	1.566072
0.191309	1.552280
0.191406	1.551822
0.191504	1.556137
0.191602	1.563581
0.191699	1.565416
0.191797	1.564848
0.191895	1.580337
0.191992	1.580784
0.192090	1.572029
0.192187	1.582243
0.192285	1.578891
0.192383	1.560352
0.192480	1.577314
0.192578	1.570344
0.192676	1.563567
0.192773	1.566953
0.192871	1.548228
0.192969	1.525971
0.193066	1.532253
0.193164	1.533980
0.193262	1.531647
0.193359	1.530849
0.193457	1.552543
0.193555	1.554846
0.193652	1.543842
0.193750	1.542299
0.193848	1.541787
0.193945	1.534240
0.194043	1.524825
0.194141	1.540291
0.194238	1.577749
0.194336	1.599331
0.194434	1.604917
0.194531	1.610266
0.194629	1.608540
0.194727	1.597510
0.194824	1.589106
0.194922	1.571098
0.195020	1.564354
0.195117	1.556886
0.195215	1.540695
0.195312	1.533013
0.195410	1.544041
0.195508	1.569052
0.195605	1.594464
0.195703	1.600522
0.195801	1.607189
0.195898	1.615327
0.195996	1.617737
0.196094	1.602684
0.196191	1.589406
0.196289	1.584188
0.196387	1.575998
0.196484	1.562062
0.196582	1.556381
0.196680	1.565050
0.196777	1.571734
0.196875	1.579839
0.196973	1.581035
0.197070	1.581209
0.197168	1.579325
0.197266	1.564080
0.197363	1.565089
0.197461	1.562988
0.197559	1.551553
0.197656	1.539360
0.197754	1.542292
0.197852	1.540851
0.197949	1.540937
0.198047	1.555544
0.198145	1.569001
0.198242	1.568043
0.198340	1.566526
0.198437	1.561541
0.198535	1.536558
0.198633	1.522180
0.198730	1.510381
0.198828	1.517386
0.198926	1.530998
0.199023	1.549645
0.199121	1.554633
0.199219	1.548792
0.199316	1.537817
0.199414	1.527554
0.199512	1.540842
0.199609	1.562856
0.199707	1.562823
0.199805	1.548618
0.199902	1.532752
0.200000	1.536885
0.200098	1.543283
0.200195	1.551099
0.200293	1.543338
0.200391	1.541344
0.200488	1.556390
0.200586	1.561919
0.200684	1.575165
0.200781	1.572700
0.200879	1.562711
0.200977	1.557117
0.201074	1.548933
0.201172	1.526176
0.201270	1.527066
0.201367	1.528605
0.201465	1.515287
0.201562	1.495250
0.201660	1.506015
0.201758	1.525370
0.201855	1.559972
0.201953	1.587646
0.202051	1.580216
0.202148	1.571864
0.202246	1.564750
0.202344	1.564066
0.202441	1.557024
0.202539	1.557279
0.202637	1.581975
0.202734	1.602573
0.202832	1.586705
0.202930	1.572628
0.203027	1.580591
0.203125	1.586832
0.203223	1.586073
0.203320	1.581555
0.203418	1.602584
0.203516	1.596211
0.203613	1.576443
0.203711	1.564844
0.203809	1.548666
0.203906	1.542091
0.204004	1.539932
0.204102	1.540163
0.204199	1.541235
0.204297	1.552628
0.204395	1.545127
0.204492	1.556423
0.204590	1.588512
0.204687	1.597112
0.204785	1.597276
0.204883	1.594096
0.204980	1.598906
0.205078	1.601022
0.205176	1.594097
0.205273	1.585672
0.205371	1.573229
0.205469	1.562552
0.205566	1.563230
0.205664	1.563690
0.205762	1.562226
0.205859	1.554873
0.205957	1.546843
0.206055	1.520470
0.206152	1.502711
0.206250	1.515040
0.206348	1.530638
0.206445	1.555447
0.206543	1.600810
0.206641	1.595565
0.206738	1.573120
0.206836	1.564696
0.206934	1.554254
0.207031	1.541038
0.207129	1.541556
0.207227	1.547188
0.207324	1.526333
0.207422	1.527620
0.207520	1.545770
0.207617	1.542935
0.207715	1.528633
0.207812	1.564565
0.207910	1.588039
0.208008	1.581288
0.208105	1.579209
0.208203	1.552700
0.208301	1.520965
0.208398	1.509496
0.208496	1.523722
0.208594	1.535416
0.208691	1.559472
0.208789	1.573414
0.208887	1.575359
0.208984	1.578795
0.209082	1.572674
0.209180	1.550244
0.209277	1.523902
0.209375	1.522738
0.209473	1.536182
0.209570	1.532006
0.209668	1.541207
0.209766	1.553069
0.209863	1.543051
0.209961	1.524205
0.210059	1.531673
0.210156	1.524687
0.210254	1.500387
0.210352	1.499206
0.210449	1.499909
0.210547	1.505105
0.210645	1.520580
0.210742	1.543561
0.210840	1.544308
0.210937	1.538553
0.211035	1.543848
0.211133	1.562006
0.211230	1.575385
0.211328	1.575982
0.211426	1.563643
0.211523	1.566184
0.211621	1.576662
0.211719	1.595103
0.211816	1.593003
0.211914	1.581301
0.212012	1.575295
0.212109	1.579942
0.212207	1.574965
0.212305	1.561422
0.212402	1.556705
0.212500	1.555466
0.212598	1.552423
0.212695	1.550985
0.212793	1.552748
0.212891	1.559999
0.212988	1.556544
0.213086	1.541940
0.213184	1.530032
0.213281	1.515122
0.213379	1.505041
0.213477	1.504125
0.213574	1.520709
0.213672	1.526216
0.213770	1.521576
0.213867	1.518596
0.213965	1.521436
0.214062	1.519725
0.214160	1.526053
0.214258	1.521914
0.214355	1.542914
0.214453	1.531518
0.214551	1.504790
0.214648	1.509108
0.214746	1.527175
0.214844	1.538992
0.214941	1.542519
0.215039	1.551698
0.215137	1.563791
0.215234	1.587394
0.215332	1.605426
0.215430	1.599660
0.215527	1.580751
0.215625	1.569183
0.215723	1.543964
0.215820	1.528518
0.215918	1.528554
0.216016	1.514016
0.216113	1.496986
0.216211	1.485873
0.216309	1.493482
0.216406	1.513338
0.216504	1.536214
0.216602	1.539211
0.216699	1.526212
0.216797	1.517311
0.216895	1.517135
0.216992	1.519496
0.217090	1.521536
0.217187	1.528808
0.217285	1.537211
0.217383	1.534540
0.217480	1.530433
0.217578	1.533684
0.217676	1.537976
0.217773	1.534280
0.217871	1.528265
0.217969	1.518134
0.218066	1.529477
0.218164	1.535780
0.218262	1.516527
0.218359	1.520613
0.218457	1.552137
0.218555	1.575549
0.218652	1.574917
0.218750	1.570659
0.218848	1.561422
0.218945	1.556953
0.219043	1.572329
0.219141	1.575527
0.219238	1.578242
0.219336	1.593477
0.219434	1.582436
0.219531	1.577369
0.219629	1.564085
0.219727	1.551946
0.219824	1.541188
0.219922	1.535056
0.220020	1.534330
0.220117	1.532056
0.220215	1.539138
0.220312	1.536470
0.220410	1.536852
0.220508	1.524585
0.220605	1.518181
0.220703	1.524053
0.220801	1.519587
0.220898	1.515857
0.220996	1.514907
0.221094	1.530497
0.221191	1.553897
0.221289	1.557992
0.221387	1.560663
0.221484	1.549534
0.221582	1.535967
0.221680	1.535372
0.221777	1.546879
0.221875	1.539865
0.221973	1.533793
0.222070	1.535533
0.222168	1.524130
0.222266	1.527080
0.222363	1.521231
0.222461	1.526807
0.222559	1.546974
0.222656	1.555254
0.222754	1.552863
0.222852	1.559719
0.222949	1.548065
0.223047	1.544461
0.223145	1.558684
0.223242	1.534381
0.223340	1.533174
0.223437	1.537988
0.223535	1.557921
0.223633	1.570553
0.223730	1.566139
0.223828	1.550699
0.223926	1.550966
0.224023	1.556711
0.224121	1.556926
0.224219	1.563582
0.224316	1.555563
0.224414	1.571770
0.224512	1.586823
0.224609	1.586076
0.224707	1.591156
0.224805	1.575145
0.224902	1.561039
0.225000	1.580556
0.225098	1.569903
0.225195	1.560043
0.225293	1.558605
0.225391	1.560188
0.225488	1.548669
0.225586	1.535411
0.225684	1.514872
0.225781	1.502063
0.225879	1.511816
0.225977	1.522001
0.226074	1.520520
0.226172	1.522570
0.226270	1.497177
0.226367	1.502620
0.226465	1.537302
0.226562	1.564533
0.226660	1.567121
0.226758	1.562151
0.226855	1.575640
0.226953	1.566184
0.227051	1.554152
0.227148	1.554316
0.227246	1.557353
0.227344	1.549137
0.227441	1.556819
0.227539	1.554508
0.227637	1.551547
0.227734	1.561909
0.227832	1.553055
0.227930	1.553399
0.228027	1.547087
0.228125	1.532844
0.228223	1.512655
0.228320	1.507898
0.228418	1.510188
0.228516	1.505882
0.228613	1.504314
0.228711	1.526460
0.228809	1.544861
0.228906	1.536487
0.229004	1.562211
0.229102	1.582680
0.229199	1.574602
0.229297	1.573106
0.229395	1.547401
0.229492	1.529020
0.229590	1.536742
0.229687	1.541174
0.229785	1.544383
0.229883	1.552452
0.229980	1.557899
0.230078	1.545838
0.230176	1.541376
0.230273	1.536385
0.230371	1.537803
0.230469	1.533004
0.230566	1.541063
0.230664	1.548865
0.230762	1.553588
0.230859	1.567581
0.230957	1.564735
0.231055	1.568053
0.231152	1.564786
0.231250	1.549646
0.231348	1.544671
0.231445	1.553839
0.231543	1.557331
0.231641	1.545105
0.231738	1.559996
0.231836	1.575072
0.231934	1.580156
0.232031	1.590352
0.232129	1.567402
0.232227	1.553432
0.232324	1.560736
0.232422	1.578514
0.232520	1.573919
0.232617	1.545276
0.232715	1.531550
0.232812	1.533467
0.232910	1.570943
0.233008	1.588134
0.233105	1.553409
0.233203	1.570812
0.233301	1.560199
0.233398	1.533843
0.233496	1.518609
0.233594	1.515378
0.233691	1.516571
0.233789	1.515954
0.233887	1.527136
0.233984	1.562975
0.234082	1.590617
0.234180	1.601538
0.234277	1.587291
0.234375	1.573210
0.234473	1.555144
0.234570	1.539349
0.234668	1.524140
0.234766	1.516183
0.234863	1.510332
0.234961	1.517237
0.235059	1.545533
0.235156	1.559327
0.235254	1.552225
0.235352	1.538868
0.235449	1.517017
0.235547	1.498772
0.235645	1.494749
0.235742	1.488857
0.235840	1.495299
0.235937	1.519687
0.236035	1.531714
0.236133	1.539084
0.236230	1.541465
0.236328	1.533514
0.236426	1.524071
0.236523	1.531630
0.236621	1.535652
0.236719	1.542879
0.236816	1.544361
0.236914	1.546003
0.237012	1.550143
0.237109	1.556327
0.237207	1.565867
0.237305	1.562131
0.237402	1.556856
0.237500	1.560526
0.237598	1.533109
0.237695	1.541794
0.237793	1.541310
0.237891	1.527113
0.237988	1.532221
0.238086	1.549183
0.238184	1.577385
0.238281	1.582930
0.238379	1.580869
0.238477	1.569533
0.238574	1.551271
0.238672	1.547312
0.238770	1.563468
0.238867	1.563134
0.238965	1.570663
0.239062	1.561822
0.239160	1.582356
0.239258	1.589026
0.239355	1.564343
0.239453	1.583389
0.239551	1.596441
0.239648	1.587148
0.239746	1.577173
0.239844	1.572032
0.239941	1.563907
0.240039	1.555496
0.240137	1.538473
0.240234	1.556323
0.240332	1.574281
0.240430	1.552190
0.240527	1.549505
0.240625	1.554933
0.240723	1.565176
0.240820	1.564775
0.240918	1.555474
0.241016	1.551417
0.241113	1.539940
0.241211	1.545235
0.241309	1.555143
0.241406	1.565111
0.241504	1.560538
0.241602	1.548214
0.241699	1.540192
0.241797	1.536047
0.241895	1.536989
0.241992	1.536681
0.242090	1.531977
0.242187	1.541590
0.242285	1.552557
0.242383	1.569879
0.242480	1.591165
0.242578	1.595993
0.242676	1.602557
0.242773	1.623086
0.242871	1.624156
0.242969	1.599406
0.243066	1.586908
0.243164	1.570634
0.243262	1.565874
0.243359	1.567861
0.243457	1.561455
0.243555	1.554575
0.243652	1.543719
0.243750	1.533816
0.243848	1.524519
0.243945	1.522640
0.244043	1.520451
0.244141	1.526461
0.244238	1.543292
0.244336	1.544890
0.244434	1.566524
0.244531	1.568266
0.244629	1.551971
0.244727	1.559420
0.244824	1.593365
0.244922	1.618107
0.245020	1.624538
0.245117	1.594283
0.245215	1.563735
0.245312	1.555308
0.245410	1.555662
0.245508	1.563080
0.245605	1.575281
0.245703	1.579049
0.245801	1.566653
0.245898	1.545346
0.245996	1.542612
0.246094	1.543391
0.246191	1.541938
0.246289	1.540808
0.246387	1.551049
0.246484	1.570141
0.246582	1.568002
0.246680	1.583897
0.246777	1.593703
0.246875	1.581064
0.246973	1.559871
0.247070	1.538508
0.247168	1.529585
0.247266	1.526681
0.247363	1.541592
0.247461	1.555572
0.247559	1.580305
0.247656	1.594476
0.247754	1.606220
0.247852	1.599320
0.247949	1.595604
0.248047	1.592168
0.248145	1.561013
0.248242	1.549015
0.248340	1.544706
0.248437	1.550840
0.248535	1.560747
0.248633	1.574955
0.248730	1.581824
0.248828	1.564403
0.248926	1.546417
0.249023	1.544174
0.249121	1.541194
0.249219	1.545314
0.249316	1.559922
0.249414	1.580639
0.249512	1.581036
0.249609	1.574350
0.249707	1.563437
0.249805	1.557473
0.249902	1.572539
0.250000	1.562695
0.250098	1.533357
0.250195	1.526428
0.250293	1.541725
0.250391	1.548696
0.250488	1.545587
0.250586	1.547659
0.250684	1.546722
0.250781	1.542117
0.250879	1.516675
0.250977	1.511820
0.251074	1.521863
0.251172	1.520017
0.251270	1.509191
0.251367	1.517103
0.251465	1.520134
0.251562	1.524881
0.251660	1.523711
0.251758	1.511907
0.251855	1.514182
0.251953	1.523777
0.252051	1.549443
0.252148	1.559800
0.252246	1.560711
0.252344	1.548199
0.252441	1.549488
0.252539	1.543289
0.252637	1.542524
0.252734	1.556808
0.252832	1.563790
0.252930	1.568196
0.253027	1.560093
0.253125	1.543762
0.253223	1.558416
0.253320	1.562960
0.253418	1.542022
0.253516	1.552505
0.253613	1.550068
0.253711	1.554215
0.253809	1.555587
0.253906	1.581388
0.254004	1.579870
0.254102	1.571055
0.254199	1.583508
0.254297	1.567014
0.254395	1.556497
0.254492	1.538739
0.254590	1.538268
0.254687	1.557026
0.254785	1.557706
0.254883	1.529806
0.254980	1.519811
0.255078	1.538733
0.255176	1.548294
0.255273	1.536500
0.255371	1.526970
0.255469	1.528071
0.255566	1.538345
0.255664	1.565158
0.255762	1.609133
0.255859	1.592738
0.255957	1.575305
0.256055	1.554207
0.256152	1.529664
0.256250	1.522704
0.256348	1.512723
0.256445	1.513400
0.256543	1.502013
0.256641	1.517491
0.256738	1.526268
0.256836	1.544529
0.256934	1.536257
0.257031	1.547505
0.257129	1.549693
0.257227	1.531142
0.257324	1.526766
0.257422	1.561701
0.257520	1.571107
0.257617	1.559211
0.257715	1.561395
0.257812	1.546031
0.257910	1.549246
0.258008	1.546538
0.258105	1.549646
0.258203	1.554013
0.258301	1.574553
0.258398	1.595167
0.258496	1.594205
0.258594	1.609254
0.258691	1.601660
0.258789	1.574621
0.258887	1.573448
0.258984	1.564887
0.259082	1.551806
0.259180	1.539312
0.259277	1.535573
0.259375	1.538860
0.259473	1.532112
0.259570	1.523217
0.259668	1.519740
0.259766	1.525308
0.259863	1.556896
0.259961	1.548407
0.260059	1.554030
0.260156	1.561529
0.260254	1.583613
0.260352	1.581820
0.260449	1.560149
0.260547	1.555769
0.260645	1.540235
0.260742	1.557890
0.260840	1.573332
0.260937	1.548779
0.261035	1.538233
0.261133	1.553341
0.261230	1.546630
0.261328	1.529026
0.261426	1.509371
0.261523	1.505083
0.261621	1.516737
0.261719	1.526189
0.261816	1.512975
0.261914	1.518098
0.262012	1.531920
0.262109	1.526817
0.262207	1.528318
0.262305	1.523719
0.262402	1.513055
0.262500	1.520299
0.262598	1.513895
0.262695	1.507628
0.262793	1.502521
0.262891	1.503829
0.262988	1.499261
0.263086	1.512055
0.263184	1.530153
0.263281	1.545355
0.263379	1.562512
0.263477	1.555454
0.263574	1.560832
0.263672	1.566311
0.263770	1.562585
0.263867	1.553184
0.263965	1.540867
0.264062	1.539106
0.264160	1.548985
0.264258	1.586505
0.264355	1.602170
0.264453	1.595730
0.264551	1.578808
0.264648	1.581764
0.264746	1.575086
0.264844	1.567944
0.264941	1.562934
0.265039	1.551130
0.265137	1.550172
0.265234	1.547491
0.265332	1.543746
0.265430	1.548669
0.265527	1.546838
0.265625	1.554242
0.265723	1.567028
0.265820	1.543996
0.265918	1.531267
0.266016	1.528949
0.266113	1.546389
0.266211	1.566817
0.266309	1.566607
0.266406	1.556634
0.266504	1.548090
0.266602	1.531028
0.266699	1.515027
0.266797	1.532402
0.266895	1.546703
0.266992	1.543436
0.267090	1.539663
0.267187	1.545269
0.267285	1.549104
0.267383	1.563686
0.267480	1.572446
0.267578	1.571842
0.267676	1.551541
0.267773	1.530447
0.267871	1.531585
0.267969	1.541269
0.268066	1.542734
0.268164	1.551787
0.268262	1.566666
0.268359	1.550365
0.268457	1.577340
0.268555	1.598518
0.268652	1.597878
0.268750	1.600717
0.268848	1.594042
0.268945	1.583589
0.269043	1.574405
0.269141	1.579322
0.269238	1.588482
0.269336	1.572799
0.269434	1.563035
0.269531	1.585294
0.269629	1.577077
0.269727	1.566138
0.269824	1.574408
0.269922	1.570628
0.270020	1.568782
0.270117	1.561365
0.270215	1.550845
0.270312	1.550714
0.270410	1.542335
0.270508	1.536048
0.270605	1.533028
0.270703	1.519335
0.270801	1.522721
0.270898	1.535533
0.270996	1.556402
0.271094	1.562136
0.271191	1.547816
0.271289	1.528905
0.271387	1.523387
0.271484	1.521100
0.271582	1.523106
0.271680	1.537789
0.271777	1.555258
0.271875	1.567270
0.271973	1.560118
0.272070	1.551807
0.272168	1.562895
0.272266	1.529786
0.272363	1.521627
0.272461	1.535244
0.272559	1.543719
0.272656	1.541608
0.272754	1.533870
0.272852	1.532081
0.272949	1.524085
0.273047	1.527853
0.273145	1.526464
0.273242	1.524838
0.273340	1.547123
0.273437	1.560159
0.273535	1.553069
0.273633	1.540055
0.273730	1.541548
0.273828	1.543859
0.273926	1.543467
0.274023	1.551609
0.274121	1.549089
0.274219	1.537908
0.274316	1.550404
0.274414	1.552523
0.274512	1.552590
0.274609	1.557197
0.274707	1.568409
0.274805	1.547594
0.274902	1.530632
0.275000	1.526521
0.275098	1.543720
0.275195	1.555248
0.275293	1.548821
0.275391	1.550016
0.275488	1.547567
0.275586	1.572467
0.275684	1.590969
0.275781	1.582777
0.275879	1.567978
0.275977	1.548926
0.276074	1.536534
0.276172	1.547674
0.276270	1.538650
0.276367	1.529987
0.276465	1.530514
0.276562	1.548892
0.276660	1.552115
0.276758	1.540096
0.276855	1.530244
0.276953	1.517926
0.277051	1.513189
0.277148	1.503727
0.277246	1.544139
0.277344	1.587611
0.277441	1.590813
0.277539	1.586283
0.277637	1.587394
0.277734	1.588826
0.277832	1.567424
0.277930	1.551374
0.278027	1.531856
0.278125	1.514692
0.278223	1.523430
0.278320	1.542641
0.278418	1.535306
0.278516	1.524664
0.278613	1.526856
0.278711	1.537845
0.278809	1.526214
0.278906	1.530893
0.279004	1.543655
0.279102	1.566635
0.279199	1.573750
0.279297	1.583461
0.279395	1.582472
0.279492	1.566280
0.279590	1.543983
0.279687	1.538201
0.279785	1.537001
0.279883	1.546678
0.279980	1.552006
0.280078	1.549273
0.280176	1.556390
0.280273	1.526995
0.280371	1.534164
0.280469	1.548738
0.280566	1.571255
0.280664	1.573182
0.280762	1.573027
0.280859	1.578239
0.280957	1.579973
0.281055	1.560028
0.281152	1.549751
0.281250	1.536627
0.281348	1.521989
0.281445	1.527548
0.281543	1.544779
0.281641	1.542001
0.281738	1.518200
0.281836	1.505770
0.281934	1.523235
0.282031	1.546565
0.282129	1.537581
0.282227	1.532299
0.282324	1.529992
0.282422	1.537696
0.282520	1.543066
0.282617	1.537309
0.282715	1.538187
0.282812	1.540917
0.282910	1.541353
0.283008	1.541074
0.283105	1.540330
0.283203	1.529476
0.283301	1.513222
0.283398	1.513636
0.283496	1.531987
0.283594	1.546087
0.283691	1.553707
0.283789	1.568799
0.283887	1.566247
0.283984	1.574287
0.284082	1.572312
0.284180	1.568124
0.284277	1.561262
0.284375	1.540896
0.284473	1.525502
0.284570	1.532890
0.284668	1.539065
0.284766	1.547235
0.284863	1.550113
0.284961	1.544928
0.285059	1.529988
0.285156	1.521142
0.285254	1.510107
0.285352	1.503540
0.285449	1.502795
0.285547	1.507053
0.285645	1.511378
0.285742	1.520631
0.285840	1.530201
0.285937	1.541691
0.286035	1.545421
0.286133	1.541241
0.286230	1.520936
0.286328	1.502624
0.286426	1.513659
0.286523	1.548536
0.286621	1.559312
0.286719	1.551282
0.286816	1.542306
0.286914	1.535958
0.287012	1.529796
0.287109	1.516592
0.287207	1.507868
0.287305	1.501115
0.287402	1.501155
0.287500	1.505997
0.287598	1.504579
0.287695	1.513728
0.287793	1.511006
0.287891	1.535825
0.287988	1.549005
0.288086	1.526846
0.288184	1.568368
0.288281	1.577218
0.288379	1.566628
0.288477	1.561550
0.288574	1.564885
0.288672	1.566009
0.288770	1.550903
0.288867	1.534729
0.288965	1.529075
0.289062	1.525658
0.289160	1.534586
0.289258	1.517862
0.289355	1.523764
0.289453	1.550966
0.289551	1.561489
0.289648	1.594708
0.289746	1.607771
0.289844	1.610494
0.289941	1.597619
0.290039	1.606206
0.290137	1.611251
0.290234	1.597835
0.290332	1.580808
0.290430	1.571515
0.290527	1.566272
0.290625	1.571889
0.290723	1.577085
0.290820	1.566331
0.290918	1.574165
0.291016	1.576088
0.291113	1.577996
0.291211	1.566905
0.291309	1.548986
0.291406	1.535807
0.291504	1.525081
0.291602	1.519087
0.291699	1.511578
0.291797	1.504782
0.291895	1.504864
0.291992	1.505152
0.292090	1.518378
0.292187	1.530382
0.292285	1.538251
0.292383	1.536375
0.292480	1.537364
0.292578	1.547475
0.292676	1.546185
0.292773	1.535186
0.292871	1.529511
0.292969	1.536572
0.293066	1.534509
0.293164	1.513213
0.293262	1.512788
0.293359	1.533663
0.293457	1.547659
0.293555	1.548204
0.293652	1.553929
0.293750	1.572767
0.293848	1.570321
0.293945	1.580742
0.294043	1.587723
0.294141	1.571797
0.294238	1.567967
0.294336	1.569843
0.294434	1.560644
0.294531	1.546797
0.294629	1.536405
0.294727	1.531075
0.294824	1.522729
0.294922	1.522206
0.295020	1.524267
0.295117	1.529071
0.295215	1.530991
0.295312	1.529588
0.295410	1.537404
0.295508	1.548943
0.295605	1.558302
0.295703	1.551144
0.295801	1.544769
0.295898	1.537606
0.295996	1.524753
0.296094	1.528058
0.296191	1.530545
0.296289	1.549772
0.296387	1.563673
0.296484	1.566085
0.296582	1.566592
0.296680	1.555838
0.296777	1.551487
0.296875	1.554118
0.296973	1.570086
0.297070	1.583473
0.297168	1.585938
0.297266	1.596140
0.297363	1.588924
0.297461	1.556008
0.297559	1.546135
0.297656	1.539432
0.297754	1.528588
0.297852	1.525654
0.297949	1.520088
0.298047	1.513289
0.298145	1.518934
0.298242	1.522987
0.298340	1.529836
0.298437	1.545817
0.298535	1.577400
0.298633	1.588540
0.298730	1.562809
0.298828	1.558363
0.298926	1.585095
0.299023	1.584333
0.299121	1.548910
0.299219	1.554672
0.299316	1.570444
0.299414	1.576913
0.299512	1.577063
0.299609	1.554022
0.299707	1.538170
0.299805	1.533752
0.299902	1.532465
0.300000	1.526358
0.300098	1.511489
0.300195	1.488594
0.300293	1.482177
0.300391	1.485986
0.300488	1.509779
0.300586	1.528819
0.300684	1.547144
0.300781	1.541593
0.300879	1.524298
0.300977	1.500183
0.301074	1.503721
0.301172	1.525246
0.301270	1.523413
0.301367	1.517950
0.301465	1.512765
0.301562	1.513373
0.301660	1.534907
0.301758	1.550993
0.301855	1.568875
0.301953	1.571190
0.302051	1.568155
0.302148	1.586223
0.302246	1.583651
0.302344	1.578406
0.302441	1.560035
0.302539	1.554204
0.302637	1.548118
0.302734	1.535378
0.302832	1.536814
0.302930	1.547640
0.303027	1.548092
0.303125	1.548596
0.303223	1.561717
0.303320	1.555249
0.303418	1.556834
0.303516	1.577472
0.303613	1.579827
0.303711	1.577108
0.303809	1.589989
0.303906	1.597450
0.304004	1.597726
0.304102	1.594265
0.304199	1.578207
0.304297	1.580889
0.304395	1.594197
0.304492	1.586133
0.304590	1.585047
0.304687	1.590600
0.304785	1.590957
0.304883	1.583534
0.304980	1.567186
0.305078	1.557084
0.305176	1.551594
0.305273	1.539287
0.305371	1.541413
0.305469	1.542647
0.305566	1.518363
0.305664	1.502575
0.305762	1.510670
0.305859	1.531362
0.305957	1.551469
0.306055	1.541938
0.306152	1.539464
0.306250	1.545631
0.306348	1.539206
0.306445	1.524033
0.306543	1.523043
0.306641	1.541322
0.306738	1.559061
0.306836	1.559011
0.306934	1.564212
0.307031	1.561865
0.307129	1.569957
0.307227	1.565209
0.307324	1.548735
0.307422	1.537241
0.307520	1.524536
0.307617	1.521299
0.307715	1.556699
0.307812	1.581000
0.307910	1.592759
0.308008	1.605412
0.308105	1.589302
0.308203	1.572285
0.308301	1.558280
0.308398	1.534087
0.308496	1.523409
0.308594	1.525720
0.308691	1.550750
0.308789	1.584407
0.308887	1.598821
0.308984	1.593906
0.309082	1.582510
0.309180	1.577913
0.309277	1.584469
0.309375	1.594526
0.309473	1.604195
0.309570	1.595897
0.309668	1.580363
0.309766	1.574272
0.309863	1.538577
0.309961	1.530477
0.310059	1.545822
0.310156	1.548779
0.310254	1.555135
0.310352	1.547859
0.310449	1.544452
0.310547	1.558936
0.310645	1.550028
0.310742	1.544362
0.310840	1.551791
0.310937	1.561325
0.311035	1.557933
0.311133	1.542699
0.311230	1.537094
0.311328	1.539712
0.311426	1.544631
0.311523	1.545470
0.311621	1.540666
0.311719	1.542174
0.311816	1.542731
0.311914	1.539491
0.312012	1.544073
0.312109	1.553169
0.312207	1.550875
0.312305	1.537927
0.312402	1.549548
0.312500	1.551461
0.312598	1.555138
0.312695	1.568774
0.312793	1.560991
0.312891	1.560163
0.312988	1.555918
0.313086	1.555626
0.313184	1.563766
0.313281	1.561823
0.313379	1.556718
0.313477	1.552496
0.313574	1.554220
0.313672	1.570130
0.313770	1.546940
0.313867	1.539732
0.313965	1.543628
0.314062	1.542807
0.314160	1.541237
0.314258	1.538340
0.314355	1.560972
0.314453	1.585350
0.314551	1.562378
0.314648	1.571513
0.314746	1.568827
0.314844	1.550533
0.314941	1.544649
0.315039	1.524445
0.315137	1.534865
0.315234	1.567595
0.315332	1.564836
0.315430	1.554400
0.315527	1.559525
0.315625	1.576735
0.315723	1.557230
0.315820	1.529135
0.315918	1.522185
0.316016	1.526644
0.316113	1.524680
0.316211	1.522269
0.316309	1.542525
0.316406	1.547037
0.316504	1.542659
0.316602	1.535181
0.316699	1.532404
0.316797	1.542765
0.316895	1.549160
0.316992	1.548035
0.317090	1.540707
0.317187	1.544092
0.317285	1.555793
0.317383	1.557077
0.317480	1.566766
0.317578	1.564904
0.317676	1.552381
0.317773	1.559211
0.317871	1.560299
0.317969	1.553587
0.318066	1.552581
0.318164	1.550907
0.318262	1.554385
0.318359	1.543134
0.318457	1.537620
0.318555	1.559471
0.318652	1.574358
0.318750	1.595716
0.318848	1.596010
0.318945	1.585881
0.319043	1.576983
0.319141	1.574794
0.319238	1.583132
0.319336	1.576958
0.319434	1.579026
0.319531	1.568803
0.319629	1.541428
0.319727	1.537191
0.319824	1.546177
0.319922	1.550692
0.320020	1.535596
0.320117	1.524429
0.320215	1.546487
0.320312	1.551390
0.320410	1.550391
0.320508	1.542972
0.320605	1.556286
0.320703	1.579947
0.320801	1.565118
0.320898	1.567972
0.320996	1.578318
0.321094	1.580333
0.321191	1.589629
0.321289	1.573253
0.321387	1.558444
0.321484	1.551400
0.321582	1.546337
0.321680	1.535277
0.321777	1.508706
0.321875	1.496816
0.321973	1.503444
0.322070	1.526127
0.322168	1.531754
0.322266	1.536315
0.322363	1.564242
0.322461	1.568431
0.322559	1.549627
0.322656	1.552409
0.322754	1.555428
0.322852	1.553488
0.322949	1.552695
0.323047	1.551970
0.323145	1.547232
0.323242	1.538495
0.323340	1.541918
0.323437	1.570819
0.323535	1.583385
0.323633	1.573433
0.323730	1.559257
0.323828	1.554424
0.323926	1.552956
0.324023	1.551794
0.324121	1.559932
0.324219	1.566499
0.324316	1.575286
0.324414	1.595353
0.324512	1.587631
0.324609	1.583551
0.324707	1.562010
0.324805	1.547367
0.324902	1.538221
0.325000	1.539480
0.325098	1.544766
0.325195	1.557194
0.325293	1.576855
0.325391	1.577561
0.325488	1.557879
0.325586	1.552606
0.325684	1.556847
0.325781	1.561080
0.325879	1.589858
0.325977	1.608302
0.326074	1.615316
0.326172	1.618455
0.326270	1.620631
0.326367	1.607667
0.326465	1.597681
0.326562	1.589797
0.326660	1.576157
0.326758	1.566299
0.326855	1.549865
0.326953	1.540369
0.327051	1.539883
0.327148	1.548556
0.327246	1.559435
0.327344	1.581091
0.327441	1.561099
0.327539	1.538936
0.327637	1.553094
0.327734	1.546110
0.327832	1.532474
0.327930	1.533603
0.328027	1.548192
0.328125	1.563850
0.328223	1.572773
0.328320	1.569633
0.328418	1.573271
0.328516	1.572964
0.328613	1.586832
0.328711	1.577447
0.328809	1.554707
0.328906	1.547907
0.329004	1.556727
0.329102	1.570539
0.329199	1.565760
0.329297	1.556676
0.329395	1.537275
0.329492	1.530336
0.329590	1.529284
0.329687	1.526939
0.329785	1.521769
0.329883	1.519886
0.329980	1.515752
0.330078	1.516192
0.330176	1.527395
0.330273	1.528670
0.330371	1.524386
0.330469	1.538155
0.330566	1.550492
0.330664	1.562032
0.330762	1.576492
0.330859	1.573328
0.330957	1.582943
0.331055	1.574748
0.331152	1.568223
0.331250	1.575559
0.331348	1.568803
0.331445	1.554326
0.331543	1.550814
0.331641	1.559277
0.331738	1.566247
0.331836	1.562629
0.331934	1.547094
0.332031	1.532652
0.332129	1.567812
0.332227	1.571748
0.332324	1.543580
0.332422	1.539406
0.332520	1.538651
0.332617	1.530152
0.332715	1.524177
0.332812	1.520203
0.332910	1.523033
0.333008	1.525535
0.333105	1.535700
0.333203	1.555689
0.333301	1.568537
0.333398	1.575135
0.333496	1.572049
0.333594	1.557569
0.333691	1.546253
0.333789	1.538649
0.333887	1.556394
0.333984	1.571449
0.334082	1.577506
0.334180	1.572537
0.334277	1.593854
0.334375	1.598302
0.334473	1.574577
0.334570	1.585180
0.334668	1.551852
0.334766	1.531436
0.334863	1.522508
0.334961	1.513114
0.335059	1.533112
0.335156	1.551650
0.335254	1.548445
0.335352	1.568891
0.335449	1.571855
0.335547	1.578203
0.335645	1.575118
0.335742	1.568767
0.335840	1.557570
0.335937	1.570388
0.336035	1.579392
0.336133	1.565289
0.336230	1.559321
0.336328	1.553031
0.336426	1.544683
0.336523	1.541638
0.336621	1.538225
0.336719	1.545420
0.336816	1.572458
0.336914	1.577263
0.337012	1.570548
0.337109	1.556218
0.337207	1.550822
0.337305	1.556906
0.337402	1.561987
0.337500	1.559450
0.337598	1.550641
0.337695	1.543277
0.337793	1.533105
0.337891	1.528378
0.337988	1.523267
0.338086	1.515926
0.338184	1.547188
0.338281	1.563535
0.338379	1.535866
0.338477	1.521450
0.338574	1.520188
0.338672	1.502368
0.338770	1.501707
0.338867	1.534939
0.338965	1.552771
0.339062	1.560464
0.339160	1.538317
0.339258	1.522997
0.339355	1.540292
0.339453	1.556978
0.339551	1.566302
0.339648	1.555294
0.339746	1.547440
0.339844	1.557455
0.339941	1.576830
0.340039	1.572116
0.340137	1.561707
0.340234	1.570187
0.340332	1.577271
0.340430	1.567479
0.340527	1.572604
0.340625	1.568074
0.340723	1.559391
0.340820	1.550855
0.340918	1.569769
0.341016	1.585110
0.341113	1.572754
0.341211	1.560666
0.341309	1.564332
0.341406	1.580866
0.341504	1.612072
0.341602	1.614511
0.341699	1.613679
0.341797	1.609000
0.341895	1.596231
0.341992	1.580684
0.342090	1.571339
0.342187	1.568484
0.342285	1.560450
0.342383	1.563331
0.342480	1.565060
0.342578	1.551488
0.342676	1.547048
0.342773	1.548018
0.342871	1.535807
0.342969	1.535358
0.343066	1.556037
0.343164	1.582853
0.343262	1.597301
0.343359	1.602722
0.343457	1.595678
0.343555	1.589865
0.343652	1.585100
0.343750	1.580699
0.343848	1.576369
0.343945	1.570005
0.344043	1.558785
0.344141	1.554265
0.344238	1.550485
0.344336	1.527709
0.344434	1.547647
0.344531	1.568624
0.344629	1.564448
0.344727	1.575700
0.344824	1.574092
0.344922	1.551216
0.345020	1.536072
0.345117	1.541135
0.345215	1.551561
0.345312	1.537573
0.345410	1.541483
0.345508	1.578277
0.345605	1.600530
0.345703	1.596890
0.345801	1.591849
0.345898	1.580130
0.345996	1.575660
0.346094	1.578666
0.346191	1.584399
0.346289	1.575211
0.346387	1.557980
0.346484	1.557508
0.346582	1.563742
0.346680	1.560552
0.346777	1.563604
0.346875	1.550717
0.346973	1.548736
0.347070	1.564412
0.347168	1.562016
0.347266	1.567236
0.347363	1.577270
0.347461	1.579781
0.347559	1.556306
0.347656	1.555141
0.347754	1.541767
0.347852	1.534065
0.347949	1.555792
0.348047	1.554254
0.348145	1.531745
0.348242	1.520481
0.348340	1.514427
0.348437	1.531847
0.348535	1.549965
0.348633	1.541130
0.348730	1.525459
0.348828	1.507611
0.348926	1.507470
0.349023	1.525691
0.349121	1.523582
0.349219	1.517634
0.349316	1.526865
0.349414	1.535598
0.349512	1.558852
0.349609	1.557279
0.349707	1.550564
0.349805	1.550038
0.349902	1.549941
0.350000	1.556042
0.350098	1.551411
0.350195	1.549978
0.350293	1.553689
0.350391	1.539108
0.350488	1.535461
0.350586	1.550974
0.350684	1.556327
0.350781	1.553991
0.350879	1.551829
0.350977	1.542808
0.351074	1.536958
0.351172	1.536237
0.351270	1.530684
0.351367	1.522153
0.351465	1.536107
0.351562	1.537810
0.351660	1.551622
0.351758	1.565890
0.351855	1.543605
0.351953	1.492974
0.352051	1.478180
0.352148	1.523985
0.352246	1.540695
0.352344	1.526353
0.352441	1.523380
0.352539	1.524149
0.352637	1.523207
0.352734	1.525274
0.352832	1.533417
0.352930	1.532164
0.353027	1.534569
0.353125	1.535120
0.353223	1.531595
0.353320	1.521859
0.353418	1.511261
0.353516	1.506667
0.353613	1.506791
0.353711	1.512756
0.353809	1.512651
0.353906	1.517371
0.354004	1.502748
0.354102	1.493539
0.354199	1.490884
0.354297	1.487343
0.354395	1.491053
0.354492	1.511503
0.354590	1.532105
0.354687	1.536567
0.354785	1.530057
0.354883	1.539076
0.354980	1.546291
0.355078	1.545924
0.355176	1.564924
0.355273	1.552076
0.355371	1.549263
0.355469	1.547210
0.355566	1.543311
0.355664	1.540048
0.355762	1.530835
0.355859	1.522055
0.355957	1.506187
0.356055	1.498106
0.356152	1.498439
0.356250	1.511913
0.356348	1.528885
0.356445	1.547209
0.356543	1.556078
0.356641	1.566518
0.356738	1.537554
0.356836	1.519693
0.356934	1.512851
0.357031	1.536446
0.357129	1.572927
0.357227	1.568043
0.357324	1.563891
0.357422	1.543311
0.357520	1.535391
0.357617	1.524646
0.357715	1.516276
0.357812	1.514147
0.357910	1.521250
0.358008	1.536104
0.358105	1.542764
0.358203	1.549092
0.358301	1.564625
0.358398	1.558435
0.358496	1.561209
0.358594	1.568960
0.358691	1.567950
0.358789	1.557904
0.358887	1.554650
0.358984	1.565467
0.359082	1.581487
0.359180	1.575792
0.359277	1.573832
0.359375	1.570841
0.359473	1.542736
0.359570	1.521389
0.359668	1.516012
0.359766	1.525003
0.359863	1.539222
0.359961	1.529004
0.360059	1.525837
0.360156	1.535200
0.360254	1.555516
0.360352	1.554299
0.360449	1.562122
0.360547	1.570799
0.360645	1.566169
0.360742	1.571325
0.360840	1.563714
0.360937	1.557123
0.361035	1.559490
0.361133	1.551592
0.361230	1.550269
0.361328	1.557210
0.361426	1.558733
0.361523	1.555683
0.361621	1.549550
0.361719	1.561078
0.361816	1.564279
0.361914	1.550195
0.362012	1.554153
0.362109	1.547732
0.362207	1.533343
0.362305	1.536715
0.362402	1.539591
0.362500	1.536650
0.362598	1.539791
0.362695	1.544611
0.362793	1.565724
0.362891	1.571795
0.362988	1.568827
0.363086	1.571050
0.363184	1.567367
0.363281	1.587425
0.363379	1.559866
0.363477	1.536574
0.363574	1.533823
0.363672	1.538525
0.363770	1.559172
0.363867	1.544432
0.363965	1.543949
0.364062	1.547835
0.364160	1.536995
0.364258	1.539986
0.364355	1.549257
0.364453	1.548424
0.364551	1.533144
0.364648	1.531076
0.364746	1.535034
0.364844	1.543839
0.364941	1.540747
0.365039	1.528537
0.365137	1.531313
0.365234	1.536448
0.365332	1.546749
0.365430	1.567735
0.365527	1.563674
0.365625	1.554774
0.365723	1.559142
0.365820	1.545570
0.365918	1.527783
0.366016	1.534966
0.366113	1.543577
0.366211	1.547076
0.366309	1.562051
0.366406	1.564666
0.366504	1.556325
0.366602	1.532761
0.366699	1.523780
0.366797	1.515038
0.366895	1.514373
0.366992	1.536482
0.367090	1.550178
0.367187	1.565484
0.367285	1.565983
0.367383	1.569250
0.367480	1.561797
0.367578	1.558267
0.367676	1.549182
0.367773	1.536024
0.367871	1.529564
0.367969	1.528726
0.368066	1.515786
0.368164	1.517783
0.368262	1.525137
0.368359	1.531883
0.368457	1.537684
0.368555	1.540473
0.368652	1.563722
0.368750	1.572900
0.368848	1.573659
0.368945	1.598063
0.369043	1.615770
0.369141	1.610824
0.369238	1.601726
0.369336	1.576365
0.369434	1.569284
0.369531	1.562488
0.369629	1.569465
0.369727	1.587238
0.369824	1.582825
0.369922	1.580427
0.370020	1.580017
0.370117	1.590343
0.370215	1.583214
0.370312	1.573421
0.370410	1.550464
0.370508	1.545570
0.370605	1.557645
0.370703	1.554655
0.370801	1.557112
0.370898	1.548857
0.370996	1.551658
0.371094	1.549915
0.371191	1.554688
0.371289	1.564807
0.371387	1.584143
0.371484	1.583926
0.371582	1.562582
0.371680	1.531112
0.371777	1.542846
0.371875	1.567419
0.371973	1.561669
0.372070	1.549103
0.372168	1.543464
0.372266	1.532453
0.372363	1.522734
0.372461	1.523869
0.372559	1.533370
0.372656	1.547642
0.372754	1.556643
0.372852	1.566255
0.372949	1.579369
0.373047	1.586881
0.373145	1.573486
0.373242	1.557814
0.373340	1.541398
0.373437	1.531395
0.373535	1.522342
0.373633	1.525162
0.373730	1.531022
0.373828	1.521993
0.373926	1.534228
0.374023	1.549938
0.374121	1.540909
0.374219	1.556170
0.374316	1.560938
0.374414	1.564063
0.374512	1.582160
0.374609	1.587277
0.374707	1.585128
0.374805	1.556682
0.374902	1.551098
0.375000	1.555907
0.375098	1.552643
0.375195	1.560753
0.375293	1.560661
0.375391	1.556489
0.375488	1.568315
0.375586	1.558894
0.375684	1.552034
0.375781	1.542777
0.375879	1.524952
0.375977	1.523326
0.376074	1.524356
0.376172	1.525331
0.376270	1.529314
0.376367	1.535579
0.376465	1.536924
0.376562	1.555348
0.376660	1.556631
0.376758	1.547059
0.376855	1.529830
0.376953	1.523743
0.377051	1.546353
0.377148	1.580035
0.377246	1.567054
0.377344	1.572396
0.377441	1.582345
0.377539	1.580396
0.377637	1.585464
0.377734	1.589030
0.377832	1.594953
0.377930	1.599734
0.378027	1.602086
0.378125	1.604096
0.378223	1.612457
0.378320	1.590133
0.378418	1.576369
0.378516	1.563344
0.378613	1.546443
0.378711	1.548546
0.378809	1.555709
0.378906	1.561845
0.379004	1.557124
0.379102	1.566798
0.379199	1.574097
0.379297	1.574624
0.379395	1.581557
0.379492	1.595871
0.379590	1.611743
0.379687	1.618740
0.379785	1.616374
0.379883	1.599824
0.379980	1.581397
0.380078	1.568395
0.380176	1.565600
0.380273	1.549989
0.380371	1.538663
0.380469	1.545225
0.380566	1.564036
0.380664	1.572219
0.380762	1.559738
0.380859	1.547028
0.380957	1.531649
0.381055	1.531264
0.381152	1.538519
0.381250	1.552937
0.381348	1.596868
0.381445	1.620552
0.381543	1.614857
0.381641	1.609220
0.381738	1.601790
0.381836	1.595818
0.381934	1.582957
0.382031	1.584988
0.382129	1.585257
0.382227	1.580556
0.382324	1.563031
0.382422	1.545970
0.382520	1.544065
0.382617	1.556775
0.382715	1.587290
0.382812	1.574470
0.382910	1.565778
0.383008	1.567997
0.383105	1.550971
0.383203	1.535025
0.383301	1.539521
0.383398	1.542106
0.383496	1.549045
0.383594	1.549404
0.383691	1.542635
0.383789	1.532172
0.383887	1.537505
0.383984	1.554736
0.384082	1.576160
0.384180	1.570408
0.384277	1.567315
0.384375	1.573728
0.384473	1.581008
0.384570	1.588067
0.384668	1.596675
0.384766	1.593375
0.384863	1.590168
0.384961	1.595617
0.385059	1.594272
0.385156	1.586892
0.385254	1.575125
0.385352	1.575818
0.385449	1.574958
0.385547	1.561270
0.385645	1.558827
0.385742	1.574194
0.385840	1.592046
0.385937	1.610187
0.386035	1.618405
0.386133	1.597691
0.386230	1.577468
0.386328	1.560452
0.386426	1.556324
0.386523	1.549845
0.386621	1.533423
0.386719	1.530206
0.386816	1.545980
0.386914	1.538383
0.387012	1.530305
0.387109	1.540324
0.387207	1.541051
0.387305	1.560613
0.387402	1.534204
0.387500	1.530956
0.387598	1.524630
0.387695	1.541235
0.387793	1.558064
0.387891	1.563155
0.387988	1.586603
0.388086	1.586357
0.388184	1.582127
0.388281	1.581462
0.388379	1.570267
0.388477	1.556509
0.388574	1.565634
0.388672	1.551270
0.388770	1.548125
0.388867	1.549819
0.388965	1.558521
0.389062	1.576103
0.389160	1.582616
0.389258	1.565707
0.389355	1.548945
0.389453	1.550169
0.389551	1.540161
0.389648	1.542160
0.389746	1.550407
0.389844	1.570554
0.389941	1.590804
0.390039	1.589214
0.390137	1.581199
0.390234	1.585910
0.390332	1.587865
0.390430	1.591304
0.390527	1.584283
0.390625	1.586899
0.390723	1.583651
0.390820	1.581676
0.390918	1.561316
0.391016	1.548394
0.391113	1.558648
0.391211	1.582746
0.391309	1.603906
0.391406	1.605916
0.391504	1.605948
0.391602	1.600580
0.391699	1.600530
0.391797	1.604759
0.391895	1.606156
0.391992	1.606666
0.392090	1.605348
0.392187	1.581007
0.392285	1.546273
0.392383	1.560279
0.392480	1.579464
0.392578	1.577199
0.392676	1.583357
0.392773	1.587068
0.392871	1.588596
0.392969	1.577678
0.393066	1.578333
0.393164	1.578949
0.393262	1.572363
0.393359	1.566364
0.393457	1.553502
0.393555	1.548355
0.393652	1.590249
0.393750	1.598157
0.393848	1.596013
0.393945	1.599628
0.394043	1.587331
0.394141	1.576840
0.394238	1.566364
0.394336	1.578400
0.394434	1.574381
0.394531	1.571206
0.394629	1.569840
0.394727	1.560718
0.394824	1.568357
0.394922	1.568198
0.395020	1.528265
0.395117	1.512383
0.395215	1.522769
0.395312	1.532521
0.395410	1.535479
0.395508	1.530224
0.395605	1.531157
0.395703	1.540347
0.395801	1.537957
0.395898	1.535812
0.395996	1.528451
0.396094	1.529441
0.396191	1.547888
0.396289	1.545515
0.396387	1.552270
0.396484	1.572769
0.396582	1.557925
0.396680	1.522771
0.396777	1.511835
0.396875	1.514805
0.396973	1.510727
0.397070	1.522697
0.397168	1.536922
0.397266	1.536320
0.397363	1.540740
0.397461	1.521939
0.397559	1.499889
0.397656	1.524941
0.397754	1.534184
0.397852	1.539060
0.397949	1.544281
0.398047	1.540169
0.398145	1.539362
0.398242	1.561641
0.398340	1.562753
0.398437	1.556422
0.398535	1.532429
0.398633	1.542655
0.398730	1.551969
0.398828	1.541182
0.398926	1.523597
0.399023	1.532071
0.399121	1.534451
0.399219	1.544089
0.399316	1.538251
0.399414	1.537068
0.399512	1.543012
0.399609	1.535876
0.399707	1.529122
0.399805	1.535286
0.399902	1.531570
0.400000	1.537711
0.400098	1.563853
0.400195	1.576709
0.400293	1.577684
0.400391	1.574180
0.400488	1.557317
0.400586	1.548841
0.400684	1.542144
0.400781	1.557910
0.400879	1.563344
0.400977	1.560276
0.401074	1.565493
0.401172	1.592208
0.401270	1.608922
0.401367	1.606972
0.401465	1.606417
0.401562	1.601255
0.401660	1.596807
0.401758	1.588140
0.401855	1.595653
0.401953	1.581590
0.402051	1.576585
0.402148	1.580900
0.402246	1.568205
0.402344	1.558209
0.402441	1.549834
0.402539	1.544717
0.402637	1.534684
0.402734	1.539183
0.402832	1.545105
0.402930	1.555437
0.403027	1.551766
0.403125	1.542981
0.403223	1.572907
0.403320	1.613220
0.403418	1.628167
0.403516	1.608250
0.403613	1.598050
0.403711	1.601430
0.403809	1.615712
0.403906	1.600877
0.404004	1.584981
0.404102	1.583001
0.404199	1.593410
0.404297	1.589027
0.404395	1.579258
0.404492	1.581710
0.404590	1.587764
0.404687	1.570820
0.404785	1.542233
0.404883	1.533297
0.404980	1.530942
0.405078	1.528188
0.405176	1.555044
0.405273	1.563272
0.405371	1.554492
0.405469	1.581300
0.405566	1.603195
0.405664	1.614887
0.405762	1.584656
0.405859	1.560244
0.405957	1.557989
0.406055	1.547711
0.406152	1.529876
0.406250	1.508128
0.406348	1.501922
0.406445	1.505635
0.406543	1.524254
0.406641	1.545414
0.406738	1.543328
0.406836	1.547999
0.406934	1.547226
0.407031	1.558312
0.407129	1.576380
0.407227	1.574037
0.407324	1.558310
0.407422	1.543952
0.407520	1.574630
0.407617	1.580299
0.407715	1.548673
0.407812	1.531401
0.407910	1.542014
0.408008	1.538687
0.408105	1.518233
0.408203	1.507523
0.408301	1.496714
0.408398	1.493417
0.408496	1.491328
0.408594	1.500593
0.408691	1.520557
0.408789	1.535469
0.408887	1.545606
0.408984	1.546414
0.409082	1.535660
0.409180	1.526444
0.409277	1.523184
0.409375	1.525780
0.409473	1.529323
0.409570	1.529458
0.409668	1.531009
0.409766	1.541931
0.409863	1.543844
0.409961	1.527812
0.410059	1.516032
0.410156	1.508827
0.410254	1.511125
0.410352	1.512910
0.410449	1.526156
0.410547	1.550555
0.410645	1.564109
0.410742	1.584122
0.410840	1.582813
0.410937	1.581124
0.411035	1.578450
0.411133	1.576752
0.411230	1.561004
0.411328	1.553826
0.411426	1.575342
0.411523	1.584593
0.411621	1.588313
0.411719	1.575762
0.411816	1.567098
0.411914	1.565913
0.412012	1.569859
0.412109	1.564772
0.412207	1.556821
0.412305	1.549382
0.412402	1.541338
0.412500	1.538059
0.412598	1.535696
0.412695	1.534284
0.412793	1.525433
0.412891	1.554728
0.412988	1.587252
0.413086	1.594939
0.413184	1.591938
0.413281	1.582847
0.413379	1.555867
0.413477	1.556806
0.413574	1.559904
0.413672	1.548308
0.413770	1.557683
0.413867	1.563731
0.413965	1.564550
0.414062	1.553120
0.414160	1.542774
0.414258	1.530526
0.414355	1.533407
0.414453	1.539232
0.414551	1.544735
0.414648	1.558891
0.414746	1.555816
0.414844	1.548320
0.414941	1.534711
0.415039	1.515058
0.415137	1.505665
0.415234	1.508794
0.415332	1.512521
0.415430	1.511381
0.415527	1.514418
0.415625	1.514027
0.415723	1.517857
0.415820	1.519684
0.415918	1.521514
0.416016	1.544786
0.416113	1.541817
0.416211	1.531303
0.416309	1.518668
0.416406	1.497269
0.416504	1.478994
0.416602	1.471336
0.416699	1.476847
0.416797	1.500463
0.416895	1.515061
0.416992	1.518729
0.417090	1.512809
0.417187	1.502608
0.417285	1.509933
0.417383	1.528990
0.417480	1.550120
0.417578	1.572404
0.417676	1.578666
0.417773	1.580529
0.417871	1.580703
0.417969	1.571782
0.418066	1.597416
0.418164	1.606411
0.418262	1.594706
0.418359	1.580014
0.418457	1.566357
0.418555	1.561822
0.418652	1.560438
0.418750	1.569891
0.418848	1.566538
0.418945	1.556110
0.419043	1.533783
0.419141	1.533440
0.419238	1.530417
0.419336	1.516653
0.419434	1.512153
0.419531	1.523372
0.419629	1.567757
0.419727	1.590923
0.419824	1.573825
0.419922	1.558181
0.420020	1.555857
0.420117	1.546786
0.420215	1.539941
0.420312	1.543053
0.420410	1.544818
0.420508	1.541560
0.420605	1.541502
0.420703	1.538897
0.420801	1.530286
0.420898	1.519478
0.420996	1.509955
0.421094	1.505841
0.421191	1.516927
0.421289	1.521807
0.421387	1.527488
0.421484	1.538484
0.421582	1.541041
0.421680	1.543153
0.421777	1.555564
0.421875	1.569996
0.421973	1.581420
0.422070	1.589122
0.422168	1.578262
0.422266	1.573323
0.422363	1.565588
0.422461	1.576160
0.422559	1.580529
0.422656	1.566789
0.422754	1.556438
0.422852	1.545450
0.422949	1.544446
0.423047	1.554568
0.423145	1.554614
0.423242	1.550858
0.423340	1.551145
0.423437	1.559961
0.423535	1.565421
0.423633	1.579705
0.423730	1.572971
0.423828	1.559587
0.423926	1.545882
0.424023	1.538320
0.424121	1.555157
0.424219	1.573632
0.424316	1.575178
0.424414	1.573777
0.424512	1.579817
0.424609	1.574195
0.424707	1.576064
0.424805	1.595882
0.424902	1.601940
0.425000	1.612444
0.425098	1.612180
0.425195	1.600789
0.425293	1.586995
0.425391	1.580379
0.425488	1.563859
0.425586	1.554047
0.425684	1.569481
0.425781	1.561395
0.425879	1.570033
0.425977	1.564049
0.426074	1.581443
0.426172	1.575941
0.426270	1.550110
0.426367	1.550969
0.426465	1.554434
0.426562	1.572773
0.426660	1.585056
0.426758	1.585683
0.426855	1.594501
0.426953	1.587272
0.427051	1.577838
0.427148	1.583493
0.427246	1.595348
0.427344	1.598922
0.427441	1.601841
0.427539	1.591894
0.427637	1.584420
0.427734	1.583648
0.427832	1.582786
0.427930	1.568092
0.428027	1.554572
0.428125	1.573439
0.428223	1.576496
0.428320	1.565544
0.428418	1.560040
0.428516	1.572376
0.428613	1.575424
0.428711	1.561193
0.428809	1.568894
0.428906	1.584182
0.429004	1.570803
0.429102	1.548713
0.429199	1.552468
0.429297	1.570823
0.429395	1.582044
0.429492	1.597376
0.429590	1.610953
0.429687	1.615436
0.429785	1.596592
0.429883	1.584784
0.429980	1.581216
0.430078	1.564071
0.430176	1.549150
0.430273	1.541374
0.430371	1.536224
0.430469	1.533398
0.430566	1.535259
0.430664	1.555977
0.430762	1.577943
0.430859	1.583471
0.430957	1.570813
0.431055	1.557057
0.431152	1.539946
0.431250	1.527521
0.431348	1.514736
0.431445	1.509544
0.431543	1.511102
0.431641	1.559107
0.431738	1.597180
0.431836	1.592179
0.431934	1.582516
0.432031	1.572234
0.432129	1.567451
0.432227	1.551813
0.432324	1.541525
0.432422	1.543225
0.432520	1.529088
0.432617	1.512409
0.432715	1.518988
0.432812	1.525611
0.432910	1.528917
0.433008	1.544052
0.433105	1.558521
0.433203	1.580496
0.433301	1.591624
0.433398	1.576646
0.433496	1.567281
0.433594	1.556562
0.433691	1.550531
0.433789	1.531441
0.433887	1.520061
0.433984	1.534159
0.434082	1.556789
0.434180	1.562169
0.434277	1.564868
0.434375	1.574533
0.434473	1.571640
0.434570	1.570819
0.434668	1.593025
0.434766	1.613824
0.434863	1.616519
0.434961	1.620782
0.435059	1.606708
0.435156	1.593905
0.435254	1.589865
0.435352	1.585515
0.435449	1.574423
0.435547	1.556840
0.435645	1.566329
0.435742	1.567299
0.435840	1.571224
0.435937	1.563288
0.436035	1.565890
0.436133	1.562733
0.436230	1.554870
0.436328	1.544446
0.436426	1.546955
0.436523	1.548445
0.436621	1.547269
0.436719	1.547196
0.436816	1.576864
0.436914	1.600647
0.437012	1.594651
0.437109	1.581813
0.437207	1.579734
0.437305	1.576935
0.437402	1.547729
0.437500	1.531839
0.437598	1.531289
0.437695	1.548198
0.437793	1.547970
0.437891	1.536722
0.437988	1.539924
0.438086	1.526589
0.438184	1.554215
0.438281	1.577107
0.438379	1.591896
0.438477	1.610292
0.438574	1.610089
0.438672	1.616452
0.438770	1.602813
0.438867	1.573386
0.438965	1.570287
0.439062	1.578016
0.439160	1.587552
0.439258	1.561488
0.439355	1.546301
0.439453	1.552840
0.439551	1.569195
0.439648	1.558600
0.439746	1.537745
0.439844	1.525973
0.439941	1.532811
0.440039	1.551973
0.440137	1.561136
0.440234	1.569506
0.440332	1.575025
0.440430	1.580280
0.440527	1.577061
0.440625	1.567178
0.440723	1.555675
0.440820	1.550985
0.440918	1.535618
0.441016	1.523841
0.441113	1.518160
0.441211	1.512826
0.441309	1.506888
0.441406	1.491878
0.441504	1.485012
0.441602	1.493032
0.441699	1.532473
0.441797	1.577268
0.441895	1.615009
0.441992	1.622125
0.442090	1.615442
0.442187	1.594145
0.442285	1.600074
0.442383	1.611163
0.442480	1.597450
0.442578	1.586784
0.442676	1.562947
0.442773	1.545874
0.442871	1.551772
0.442969	1.579167
0.443066	1.612813
0.443164	1.609559
0.443262	1.597044
0.443359	1.607302
0.443457	1.581498
0.443555	1.571257
0.443652	1.565721
0.443750	1.554726
0.443848	1.539940
0.443945	1.534560
0.444043	1.532487
0.444141	1.549034
0.444238	1.556439
0.444336	1.566902
0.444434	1.577270
0.444531	1.583366
0.444629	1.574145
0.444727	1.572102
0.444824	1.573352
0.444922	1.567433
0.445020	1.553731
0.445117	1.563441
0.445215	1.559268
0.445312	1.558096
0.445410	1.576424
0.445508	1.574710
0.445605	1.548587
0.445703	1.534433
0.445801	1.536261
0.445898	1.534863
0.445996	1.545598
0.446094	1.583134
0.446191	1.614899
0.446289	1.620491
0.446387	1.602705
0.446484	1.584555
0.446582	1.553379
0.446680	1.547217
0.446777	1.548618
0.446875	1.533068
0.446973	1.538132
0.447070	1.544734
0.447168	1.545531
0.447266	1.546220
0.447363	1.559195
0.447461	1.576083
0.447559	1.583766
0.447656	1.586501
0.447754	1.591294
0.447852	1.587348
0.447949	1.581045
0.448047	1.567690
0.448145	1.556045
0.448242	1.547252
0.448340	1.543878
0.448437	1.542525
0.448535	1.544858
0.448633	1.551734
0.448730	1.551026
0.448828	1.546270
0.448926	1.545774
0.449023	1.538828
0.449121	1.539812
0.449219	1.539093
0.449316	1.541532
0.449414	1.528943
0.449512	1.520980
0.449609	1.522183
0.449707	1.546716
0.449805	1.550727
0.449902	1.549681
0.450000	1.549228
0.450098	1.537823
0.450195	1.543376
0.450293	1.545333
0.450391	1.545587
0.450488	1.545080
0.450586	1.545654
0.450684	1.514581
0.450781	1.504784
0.450879	1.513760
0.450977	1.514956
0.451074	1.516428
0.451172	1.506683
0.451270	1.504792
0.451367	1.512211
0.451465	1.510630
0.451562	1.513236
0.451660	1.517061
0.451758	1.560373
0.451855	1.579708
0.451953	1.565056
0.452051	1.562131
0.452148	1.545988
0.452246	1.548049
0.452344	1.545928
0.452441	1.559856
0.452539	1.567235
0.452637	1.569399
0.452734	1.597643
0.452832	1.610023
0.452930	1.609501
0.453027	1.601511
0.453125	1.585844
0.453223	1.566621
0.453320	1.543906
0.453418	1.545828
0.453516	1.555426
0.453613	1.543698
0.453711	1.535900
0.453809	1.563507
0.453906	1.569064
0.454004	1.567077
0.454102	1.566978
0.454199	1.564417
0.454297	1.558879
0.454395	1.556376
0.454492	1.567990
0.454590	1.569306
0.454687	1.559909
0.454785	1.555418
0.454883	1.574905
0.454980	1.576560
0.455078	1.586390
0.455176	1.576033
0.455273	1.563955
0.455371	1.530156
0.455469	1.517890
0.455566	1.519536
0.455664	1.518704
0.455762	1.520464
0.455859	1.527035
0.455957	1.524893
0.456055	1.522460
0.456152	1.536023
0.456250	1.539363
0.456348	1.527556
0.456445	1.520647
0.456543	1.513642
0.456641	1.503976
0.456738	1.500477
0.456836	1.510139
0.456934	1.516193
0.457031	1.518191
0.457129	1.525388
0.457227	1.543117
0.457324	1.541052
0.457422	1.540994
0.457520	1.535701
0.457617	1.551999
0.457715	1.570263
0.457812	1.584759
0.457910	1.604512
0.458008	1.581471
0.458105	1.570670
0.458203	1.573254
0.458301	1.566267
0.458398	1.558469
0.458496	1.559068
0.458594	1.561194
0.458691	1.564822
0.458789	1.567131
0.458887	1.572601
0.458984	1.560835
0.459082	1.544407
0.459180	1.539439
0.459277	1.531790
0.459375	1.529652
0.459473	1.539236
0.459570	1.537378
0.459668	1.543602
0.459766	1.534806
0.459863	1.532344
0.459961	1.529270
0.460059	1.518767
0.460156	1.511612
0.460254	1.518402
0.460352	1.546843
0.460449	1.556776
0.460547	1.553962
0.460645	1.550598
0.460742	1.559428
0.460840	1.561973
0.460937	1.554982
0.461035	1.562904
0.461133	1.577661
0.461230	1.579935
0.461328	1.571235
0.461426	1.588442
0.461523	1.609675
0.461621	1.601971
0.461719	1.592920
0.461816	1.589976
0.461914	1.591428
0.462012	1.595091
0.462109	1.593325
0.462207	1.595407
0.462305	1.594739
0.462402	1.578863
0.462500	1.579039
0.462598	1.577526
0.462695	1.572849
0.462793	1.577021
0.462891	1.582733
0.462988	1.571604
0.463086	1.566521
0.463184	1.558128
0.463281	1.555797
0.463379	1.568421
0.463477	1.568122
0.463574	1.574401
0.463672	1.592867
0.463770	1.606107
0.463867	1.617083
0.463965	1.609442
0.464062	1.589006
0.464160	1.594679
0.464258	1.601017
0.464355	1.599565
0.464453	1.571665
0.464551	1.568536
0.464648	1.557211
0.464746	1.545350
0.464844	1.551057
0.464941	1.546753
0.465039	1.555821
0.465137	1.567485
0.465234	1.579621
0.465332	1.588353
0.465430	1.586708
0.465527	1.578812
0.465625	1.570875
0.465723	1.553505
0.465820	1.543333
0.465918	1.543937
0.466016	1.570400
0.466113	1.606265
0.466211	1.616127
0.466309	1.620891
0.466406	1.610076
0.466504	1.599606
0.466602	1.582586
0.466699	1.575289
0.466797	1.559180
0.466895	1.550669
0.466992	1.552296
0.467090	1.552801
0.467187	1.550576
0.467285	1.556808
0.467383	1.550699
0.467480	1.557879
0.467578	1.559195
0.467676	1.574137
0.467773	1.590910
0.467871	1.587004
0.467969	1.579041
0.468066	1.592472
0.468164	1.605307
0.468262	1.607465
0.468359	1.606137
0.468457	1.604437
0.468555	1.611062
0.468652	1.602085
0.468750	1.591228
0.468848	1.591854
0.468945	1.601253
0.469043	1.595443
0.469141	1.593817
0.469238	1.574564
0.469336	1.556335
0.469434	1.540836
0.469531	1.566713
0.469629	1.555184
0.469727	1.513072
0.469824	1.527861
0.469922	1.553203
0.470020	1.548062
0.470117	1.538297
0.470215	1.538893
0.470312	1.533232
0.470410	1.557842
0.470508	1.575871
0.470605	1.559261
0.470703	1.542343
0.470801	1.539258
0.470898	1.544790
0.470996	1.559201
0.471094	1.589666
0.471191	1.586428
0.471289	1.558107
0.471387	1.545233
0.471484	1.543738
0.471582	1.542035
0.471680	1.538907
0.471777	1.551560
0.471875	1.553643
0.471973	1.555077
0.472070	1.559236
0.472168	1.565893
0.472266	1.561004
0.472363	1.553452
0.472461	1.550670
0.472559	1.547110
0.472656	1.547312
0.472754	1.548178
0.472852	1.547444
0.472949	1.553030
0.473047	1.571163
0.473145	1.586369
0.473242	1.579502
0.473340	1.581994
0.473437	1.591161
0.473535	1.575788
0.473633	1.556494
0.473730	1.547963
0.473828	1.558531
0.473926	1.547533
0.474023	1.531055
0.474121	1.522079
0.474219	1.525192
0.474316	1.522468
0.474414	1.512339
0.474512	1.511611
0.474609	1.529269
0.474707	1.526523
0.474805	1.521392
0.474902	1.507600
0.475000	1.499558
0.475098	1.502579
0.475195	1.507284
0.475293	1.506493
0.475391	1.510866
0.475488	1.535291
0.475586	1.560206
0.475684	1.566147
0.475781	1.546647
0.475879	1.528805
0.475977	1.512646
0.476074	1.516613
0.476172	1.526023
0.476270	1.524888
0.476367	1.521010
0.476465	1.512237
0.476562	1.503063
0.476660	1.520184
0.476758	1.536933
0.476855	1.524564
0.476953	1.505581
0.477051	1.498973
0.477148	1.497940
0.477246	1.483334
0.477344	1.482066
0.477441	1.544236
0.477539	1.596885
0.477637	1.592313
0.477734	1.573825
0.477832	1.561461
0.477930	1.561096
0.478027	1.541764
0.478125	1.544075
0.478223	1.559871
0.478320	1.553318
0.478418	1.553671
0.478516	1.550813
0.478613	1.550786
0.478711	1.569573
0.478809	1.575753
0.478906	1.571367
0.479004	1.561784
0.479102	1.552917
0.479199	1.539636
0.479297	1.535932
0.479395	1.536612
0.479492	1.550684
0.479590	1.557046
0.479687	1.560476
0.479785	1.554851
0.479883	1.550719
0.479980	1.577359
0.480078	1.577030
0.480176	1.559404
0.480273	1.540384
0.480371	1.517288
0.480469	1.516819
0.480566	1.535618
0.480664	1.550698
0.480762	1.559060
0.480859	1.553508
0.480957	1.541772
0.481055	1.531432
0.481152	1.529092
0.481250	1.516546
0.481348	1.510968
0.481445	1.514925
0.481543	1.514402
0.481641	1.514875
0.481738	1.519291
0.481836	1.526702
0.481934	1.554090
0.482031	1.573759
0.482129	1.573342
0.482227	1.566072
0.482324	1.550214
0.482422	1.533789
0.482520	1.517861
0.482617	1.527066
0.482715	1.542051
0.482812	1.536481
0.482910	1.550375
0.483008	1.571950
0.483105	1.552583
0.483203	1.522427
0.483301	1.523078
0.483398	1.532098
0.483496	1.545966
0.483594	1.573878
0.483691	1.597211
0.483789	1.625771
0.483887	1.631549
0.483984	1.610182
0.484082	1.592571
0.484180	1.571128
0.484277	1.550702
0.484375	1.541672
0.484473	1.529085
0.484570	1.532595
0.484668	1.535539
0.484766	1.517422
0.484863	1.518308
0.484961	1.523781
0.485059	1.543886
0.485156	1.561084
0.485254	1.577093
0.485352	1.583515
0.485449	1.569088
0.485547	1.554356
0.485645	1.544740
0.485742	1.536441
0.485840	1.530903
0.485937	1.519955
0.486035	1.541953
0.486133	1.579737
0.486230	1.588961
0.486328	1.591560
0.486426	1.595205
0.486523	1.585121
0.486621	1.587380
0.486719	1.576689
0.486816	1.557613
0.486914	1.552550
0.487012	1.542730
0.487109	1.531082
0.487207	1.537595
0.487305	1.538287
0.487402	1.554640
0.487500	1.555693
0.487598	1.553660
0.487695	1.557129
0.487793	1.543214
0.487891	1.539140
0.487988	1.551016
0.488086	1.581439
0.488184	1.577370
0.488281	1.587232
0.488379	1.585783
0.488477	1.565082
0.488574	1.568836
0.488672	1.566284
0.488770	1.565007
0.488867	1.548922
0.488965	1.545197
0.489062	1.548843
0.489160	1.538818
0.489258	1.527772
0.489355	1.522933
0.489453	1.512166
0.489551	1.506671
0.489648	1.512812
0.489746	1.512832
0.489844	1.507307
0.489941	1.504426
0.490039	1.514528
0.490137	1.535180
0.490234	1.547469
0.490332	1.555000
0.490430	1.555813
0.490527	1.543455
0.490625	1.543046
0.490723	1.552437
0.490820	1.546515
0.490918	1.536438
0.491016	1.532716
0.491113	1.526709
0.491211	1.517693
0.491309	1.531947
0.491406	1.563890
0.491504	1.588580
0.491602	1.608174
0.491699	1.611892
0.491797	1.612312
0.491895	1.610793
0.491992	1.603221
0.492090	1.603917
0.492187	1.590137
0.492285	1.558385
0.492383	1.537747
0.492480	1.539291
0.492578	1.539877
0.492676	1.540225
0.492773	1.551251
0.492871	1.551465
0.492969	1.534307
0.493066	1.550179
0.493164	1.571521
0.493262	1.555452
0.493359	1.528629
0.493457	1.524882
0.493555	1.534986
0.493652	1.521462
0.493750	1.506504
0.493848	1.519930
0.493945	1.536128
0.494043	1.553361
0.494141	1.567157
0.494238	1.545079
0.494336	1.539809
0.494434	1.529904
0.494531	1.538300
0.494629	1.534232
0.494727	1.527566
0.494824	1.525008
0.494922	1.523246
0.495020	1.521077
0.495117	1.519695
0.495215	1.513633
0.495312	1.513435
0.495410	1.505675
0.495508	1.500061
0.495605	1.519448
0.495703	1.551449
0.495801	1.583035
0.495898	1.583279
0.495996	1.597778
0.496094	1.607990
0.496191	1.593039
0.496289	1.588460
0.496387	1.589747
0.496484	1.573340
0.496582	1.567144
0.496680	1.557630
0.496777	1.548433
0.496875	1.562722
0.496973	1.580608
0.497070	1.606541
0.497168	1.614355
0.497266	1.611906
0.497363	1.614871
0.497461	1.616592
0.497559	1.608972
0.497656	1.597134
0.497754	1.599753
0.497852	1.612023
0.497949	1.607920
0.498047	1.606434
0.498145	1.600245
0.498242	1.593008
0.498340	1.584580
0.498437	1.573058
0.498535	1.565577
0.498633	1.555255
0.498730	1.536776
0.498828	1.529016
0.498926	1.528375
0.499023	1.529863
0.499121	1.545111
0.499219	1.563869
0.499316	1.551675
0.499414	1.556859
0.499512	1.563463
0.499609	1.559043
0.499707	1.545664
0.499805	1.540965
0.499902	1.561590
0.500000	1.565573
0.500098	1.551012
0.500195	1.537800
0.500293	1.537847
0.500391	1.532212
0.500488	1.523098
0.500586	1.519772
0.500684	1.539607
0.500781	1.559414
0.500879	1.571734
0.500977	1.571604
0.501074	1.566045
0.501172	1.558808
0.501270	1.547993
0.501367	1.544340
0.501465	1.552060
0.501562	1.553145
0.501660	1.542386
0.501758	1.519590
0.501855	1.504914
0.501953	1.503978
0.502051	1.507908
0.502148	1.521596
0.502246	1.540883
0.502344	1.565159
0.502441	1.576713
0.502539	1.571177
0.502637	1.559514
0.502734	1.561283
0.502832	1.561588
0.502930	1.545018
0.503027	1.533381
0.503125	1.545989
0.503223	1.551750
0.503320	1.546397
0.503418	1.533786
0.503516	1.525943
0.503613	1.526989
0.503711	1.533190
0.503809	1.524250
0.503906	1.509156
0.504004	1.522727
0.504102	1.515868
0.504199	1.493174
0.504297	1.484189
0.504395	1.480961
0.504492	1.490712
0.504590	1.500751
0.504687	1.508475
0.504785	1.534538
0.504883	1.556057
0.504980	1.557597
0.505078	1.546669
0.505176	1.524589
0.505273	1.512231
0.505371	1.530576
0.505469	1.526809
0.505566	1.521046
0.505664	1.539065
0.505762	1.547409
0.505859	1.560863
0.505957	1.567100
0.506055	1.564785
0.506152	1.562743
0.506250	1.557024
0.506348	1.544294
0.506445	1.532908
0.506543	1.525356
0.506641	1.514577
0.506738	1.510598
0.506836	1.512399
0.506934	1.517789
0.507031	1.562836
0.507129	1.597856
0.507227	1.590990
0.507324	1.574898
0.507422	1.573340
0.507520	1.576523
0.507617	1.586899
0.507715	1.594557
0.507812	1.614038
0.507910	1.603561
0.508008	1.577756
0.508105	1.552132
0.508203	1.558932
0.508301	1.558351
0.508398	1.537221
0.508496	1.534965
0.508594	1.539422
0.508691	1.568378
0.508789	1.584873
0.508887	1.600408
0.508984	1.603804
0.509082	1.599505
0.509180	1.595589
0.509277	1.596122
0.509375	1.573242
0.509473	1.549089
0.509570	1.545416
0.509668	1.539043
0.509766	1.540953
0.509863	1.566047
0.509961	1.564047
0.510059	1.540526
0.510156	1.521744
0.510254	1.515151
0.510352	1.526352
0.510449	1.533216
0.510547	1.517192
0.510645	1.531903
0.510742	1.576471
0.510840	1.583790
0.510937	1.595783
0.511035	1.604766
0.511133	1.602001
0.511230	1.606959
0.511328	1.609819
0.511426	1.607725
0.511523	1.610534
0.511621	1.601034
0.511719	1.594146
0.511816	1.577236
0.511914	1.563924
0.512012	1.558859
0.512109	1.557112
0.512207	1.547105
0.512305	1.530676
0.512402	1.533310
0.512500	1.553917
0.512598	1.581924
0.512695	1.612100
0.512793	1.597948
0.512891	1.587527
0.512988	1.582383
0.513086	1.552812
0.513184	1.545369
0.513281	1.567510
0.513379	1.598389
0.513477	1.623035
0.513574	1.623164
0.513672	1.594045
0.513770	1.583311
0.513867	1.583881
0.513965	1.575707
0.514062	1.553519
0.514160	1.544239
0.514258	1.552047
0.514355	1.558199
0.514453	1.556501
0.514551	1.556521
0.514648	1.568999
0.514746	1.561370
0.514844	1.561598
0.514941	1.558846
0.515039	1.548890
0.515137	1.537693
0.515234	1.512356
0.515332	1.489332
0.515430	1.488889
0.515527	1.499653
0.515625	1.505039
0.515723	1.505964
0.515820	1.504231
0.515918	1.511519
0.516016	1.520882
0.516113	1.521980
0.516211	1.535507
0.516309	1.567876
0.516406	1.567041
0.516504	1.562366
0.516602	1.549156
0.516699	1.538960
0.516797	1.539420
0.516895	1.536614
0.516992	1.527338
0.517090	1.542456
0.517187	1.541972
0.517285	1.530472
0.517383	1.519178
0.517480	1.530339
0.517578	1.551912
0.517676	1.546444
0.517773	1.544912
0.517871	1.555476
0.517969	1.543029
0.518066	1.546243
0.518164	1.548753
0.518262	1.545164
0.518359	1.545501
0.518457	1.531479
0.518555	1.529227
0.518652	1.545813
0.518750	1.554774
0.518848	1.555491
0.518945	1.554300
0.519043	1.544670
0.519141	1.544472
0.519238	1.541679
0.519336	1.548857
0.519434	1.548103
0.519531	1.540685
0.519629	1.533307
0.519727	1.527124
0.519824	1.521530
0.519922	1.508357
0.520020	1.509160
0.520117	1.501741
0.520215	1.500292
0.520312	1.500465
0.520410	1.497807
0.520508	1.495436
0.520605	1.501667
0.520703	1.502827
0.520801	1.506640
0.520898	1.527097
0.520996	1.532765
0.521094	1.535430
0.521191	1.550551
0.521289	1.562366
0.521387	1.545183
0.521484	1.525697
0.521582	1.524677
0.521680	1.518627
0.521777	1.514487
0.521875	1.528886
0.521973	1.533749
0.522070	1.529529
0.522168	1.512859
0.522266	1.519665
0.522363	1.567471
0.522461	1.583522
0.522559	1.587841
0.522656	1.597898
0.522754	1.588228
0.522852	1.573769
0.522949	1.554932
0.523047	1.543752
0.523145	1.547156
0.523242	1.562612
0.523340	1.556868
0.523437	1.540357
0.523535	1.526071
0.523633	1.516818
0.523730	1.520249
0.523828	1.551766
0.523926	1.573237
0.524023	1.576029
0.524121	1.570554
0.524219	1.553879
0.524316	1.536437
0.524414	1.523156
0.524512	1.520384
0.524609	1.523924
0.524707	1.518913
0.524805	1.525199
0.524902	1.561255
0.525000	1.577078
0.525098	1.577924
0.525195	1.579303
0.525293	1.564523
0.525391	1.563363
0.525488	1.554070
0.525586	1.554856
0.525684	1.577703
0.525781	1.572139
0.525879	1.573890
0.525977	1.580275
0.526074	1.590532
0.526172	1.585418
0.526270	1.561241
0.526367	1.560946
0.526465	1.574520
0.526562	1.591298
0.526660	1.594953
0.526758	1.581896
0.526855	1.574801
0.526953	1.579640
0.527051	1.572774
0.527148	1.567376
0.527246	1.562500
0.527344	1.553898
0.527441	1.552937
0.527539	1.556437
0.527637	1.554535
0.527734	1.542747
0.527832	1.551969
0.527930	1.554919
0.528027	1.535186
0.528125	1.520437
0.528223	1.521157
0.528320	1.541452
0.528418	1.530866
0.528516	1.532812
0.528613	1.538677
0.528711	1.526534
0.528809	1.528654
0.528906	1.522123
0.529004	1.519609
0.529102	1.516010
0.529199	1.519455
0.529297	1.512987
0.529395	1.480558
0.529492	1.479334
0.529590	1.503325
0.529687	1.513209
0.529785	1.513135
0.529883	1.503688
0.529980	1.497916
0.530078	1.506237
0.530176	1.529491
0.530273	1.554249
0.530371	1.576756
0.530469	1.585075
0.530566	1.587052
0.530664	1.592652
0.530762	1.592315
0.530859	1.589386
0.530957	1.590476
0.531055	1.581007
0.531152	1.592973
0.531250	1.604241
0.531348	1.596703
0.531445	1.579870
0.531543	1.565840
0.531641	1.543514
0.531738	1.509937
0.531836	1.519197
0.531934	1.541406
0.532031	1.545747
0.532129	1.549700
0.532227	1.555426
0.532324	1.548918
0.532422	1.551987
0.532520	1.550027
0.532617	1.545532
0.532715	1.558044
0.532812	1.563956
0.532910	1.568661
0.533008	1.573925
0.533105	1.583114
0.533203	1.584004
0.533301	1.561511
0.533398	1.553922
0.533496	1.537663
0.533594	1.526477
0.533691	1.521457
0.533789	1.509302
0.533887	1.505936
0.533984	1.498800
0.534082	1.489344
0.534180	1.513570
0.534277	1.537087
0.534375	1.546041
0.534473	1.552447
0.534570	1.560719
0.534668	1.562471
0.534766	1.547530
0.534863	1.529024
0.534961	1.529284
0.535059	1.539303
0.535156	1.536523
0.535254	1.554246
0.535352	1.555546
0.535449	1.556010
0.535547	1.559957
0.535645	1.545644
0.535742	1.553713
0.535840	1.554671
0.535937	1.545793
0.536035	1.526986
0.536133	1.528915
0.536230	1.549261
0.536328	1.553537
0.536426	1.552205
0.536523	1.556387
0.536621	1.578452
0.536719	1.587008
0.536816	1.591345
0.536914	1.602232
0.537012	1.603828
0.537109	1.606211
0.537207	1.607897
0.537305	1.599703
0.537402	1.580083
0.537500	1.593437
0.537598	1.603426
0.537695	1.594357
0.537793	1.595126
0.537891	1.592641
0.537988	1.590997
0.538086	1.593974
0.538184	1.597373
0.538281	1.573514
0.538379	1.556230
0.538477	1.550635
0.538574	1.539183
0.538672	1.543882
0.538770	1.539735
0.538867	1.547573
0.538965	1.548833
0.539062	1.533155
0.539160	1.552615
0.539258	1.592131
0.539355	1.593742
0.539453	1.590929
0.539551	1.592029
0.539648	1.599601
0.539746	1.588299
0.539844	1.586066
0.539941	1.583479
0.540039	1.566853
0.540137	1.560995
0.540234	1.555937
0.540332	1.546967
0.540430	1.544417
0.540527	1.541141
0.540625	1.548956
0.540723	1.574714
0.540820	1.585660
0.540918	1.585810
0.541016	1.559342
0.541113	1.563396
0.541211	1.575244
0.541309	1.567535
0.541406	1.568420
0.541504	1.561619
0.541602	1.564196
0.541699	1.557664
0.541797	1.558699
0.541895	1.569961
0.541992	1.569135
0.542090	1.574209
0.542187	1.579066
0.542285	1.576483
0.542383	1.570235
0.542480	1.561890
0.542578	1.556061
0.542676	1.547471
0.542773	1.547857
0.542871	1.536145
0.542969	1.519068
0.543066	1.530100
0.543164	1.526024
0.543262	1.522200
0.543359	1.528402
0.543457	1.533102
0.543555	1.520834
0.543652	1.510502
0.543750	1.510021
0.543848	1.511105
0.543945	1.515115
0.544043	1.526061
0.544141	1.535839
0.544238	1.544454
0.544336	1.558197
0.544434	1.565384
0.544531	1.558388
0.544629	1.551290
0.544727	1.541808
0.544824	1.541293
0.544922	1.531408
0.545020	1.514339
0.545117	1.495369
0.545215	1.501928
0.545312	1.509598
0.545410	1.519036
0.545508	1.526790
0.545605	1.525477
0.545703	1.538385
0.545801	1.539627
0.545898	1.521834
0.545996	1.518780
0.546094	1.516345
0.546191	1.508676
0.546289	1.507876
0.546387	1.505341
0.546484	1.504067
0.546582	1.518485
0.546680	1.522246
0.546777	1.526790
0.546875	1.537833
0.546973	1.543763
0.547070	1.544561
0.547168	1.563226
0.547266	1.534136
0.547363	1.538301
0.547461	1.578716
0.547559	1.600506
0.547656	1.614091
0.547754	1.585047
0.547852	1.572240
0.547949	1.563842
0.548047	1.564159
0.548145	1.575880
0.548242	1.579760
0.548340	1.576593
0.548437	1.568494
0.548535	1.576571
0.548633	1.571122
0.548730	1.562133
0.548828	1.563231
0.548926	1.570902
0.549023	1.570881
0.549121	1.562629
0.549219	1.554227
0.549316	1.546627
0.549414	1.580948
0.549512	1.593166
0.549609	1.584766
0.549707	1.575790
0.549805	1.575823
0.549902	1.563021
0.550000	1.553316
0.550098	1.545198
0.550195	1.537831
0.550293	1.552316
0.550391	1.559357
0.550488	1.548405
0.550586	1.540759
0.550684	1.560455
0.550781	1.582006
0.550879	1.580214
0.550977	1.578359
0.551074	1.570776
0.551172	1.557587
0.551270	1.530502
0.551367	1.521358
0.551465	1.543051
0.551562	1.544654
0.551660	1.565251
0.551758	1.592066
0.551855	1.595255
0.551953	1.598867
0.552051	1.611920
0.552148	1.608943
0.552246	1.601084
0.552344	1.599883
0.552441	1.593177
0.552539	1.578323
0.552637	1.556970
0.552734	1.545728
0.552832	1.581714
0.552930	1.594375
0.553027	1.576760
0.553125	1.578536
0.553223	1.587527
0.553320	1.590190
0.553418	1.579713
0.553516	1.564606
0.553613	1.553111
0.553711	1.533789
0.553809	1.514731
0.553906	1.522408
0.554004	1.536590
0.554102	1.544810
0.554199	1.535593
0.554297	1.546514
0.554395	1.559696
0.554492	1.556571
0.554590	1.554786
0.554687	1.546691
0.554785	1.542692
0.554883	1.512335
0.554980	1.524537
0.555078	1.538458
0.555176	1.554024
0.555273	1.559747
0.555371	1.559483
0.555469	1.558543
0.555566	1.547086
0.555664	1.546863
0.555762	1.539125
0.555859	1.544139
0.555957	1.545786
0.556055	1.540474
0.556152	1.544917
0.556250	1.552615
0.556348	1.557341
0.556445	1.572841
0.556543	1.576423
0.556641	1.572498
0.556738	1.567124
0.556836	1.559360
0.556934	1.556677
0.557031	1.542587
0.557129	1.530168
0.557227	1.520034
0.557324	1.526194
0.557422	1.528165
0.557520	1.527656
0.557617	1.527723
0.557715	1.530758
0.557812	1.519504
0.557910	1.508204
0.558008	1.512178
0.558105	1.513609
0.558203	1.509268
0.558301	1.513781
0.558398	1.527204
0.558496	1.537566
0.558594	1.550379
0.558691	1.557908
0.558789	1.566704
0.558887	1.565198
0.558984	1.571750
0.559082	1.588087
0.559180	1.575931
0.559277	1.551896
0.559375	1.549448
0.559473	1.555173
0.559570	1.551044
0.559668	1.545618
0.559766	1.548564
0.559863	1.546506
0.559961	1.538503
0.560059	1.553362
0.560156	1.555578
0.560254	1.556399
0.560352	1.528115
0.560449	1.532468
0.560547	1.535419
0.560645	1.544344
0.560742	1.555229
0.560840	1.543139
0.560937	1.549070
0.561035	1.563290
0.561133	1.560492
0.561230	1.547477
0.561328	1.545845
0.561426	1.556142
0.561523	1.542115
0.561621	1.522045
0.561719	1.508380
0.561816	1.500770
0.561914	1.499805
0.562012	1.503569
0.562109	1.493456
0.562207	1.492019
0.562305	1.492685
0.562402	1.504181
0.562500	1.518134
0.562598	1.519386
0.562695	1.534007
0.562793	1.555968
0.562891	1.584278
0.562988	1.594300
0.563086	1.594282
0.563184	1.571324
0.563281	1.561869
0.563379	1.553213
0.563477	1.554225
0.563574	1.569669
0.563672	1.562847
0.563770	1.552497
0.563867	1.551993
0.563965	1.534644
0.564062	1.521242
0.564160	1.519003
0.564258	1.526936
0.564355	1.544644
0.564453	1.543665
0.564551	1.545985
0.564648	1.554049
0.564746	1.544547
0.564844	1.536484
0.564941	1.531729
0.565039	1.524276
0.565137	1.519891
0.565234	1.515182
0.565332	1.536218
0.565430	1.562499
0.565527	1.549029
0.565625	1.523550
0.565723	1.531147
0.565820	1.549355
0.565918	1.565373
0.566016	1.583463
0.566113	1.592752
0.566211	1.592984
0.566309	1.585898
0.566406	1.589860
0.566504	1.584131
0.566602	1.572350
0.566699	1.577935
0.566797	1.578043
0.566895	1.577838
0.566992	1.567453
0.567090	1.540103
0.567187	1.520607
0.567285	1.520874
0.567383	1.527834
0.567480	1.535558
0.567578	1.527792
0.567676	1.523130
0.567773	1.513750
0.567871	1.529193
0.567969	1.559388
0.568066	1.554357
0.568164	1.559442
0.568262	1.562512
0.568359	1.550908
0.568457	1.537617
0.568555	1.551481
0.568652	1.551641
0.568750	1.549560
0.568848	1.564138
0.568945	1.573524
0.569043	1.576595
0.569141	1.572856
0.569238	1.557270
0.569336	1.544957
0.569434	1.540016
0.569531	1.533058
0.569629	1.526984
0.569727	1.529250
0.569824	1.541307
0.569922	1.556920
0.570020	1.551447
0.570117	1.537969
0.570215	1.548706
0.570312	1.547018
0.570410	1.537560
0.570508	1.532127
0.570605	1.520397
0.570703	1.507544
0.570801	1.504507
0.570898	1.516613
0.570996	1.527522
0.571094	1.533650
0.571191	1.541155
0.571289	1.547984
0.571387	1.550160
0.571484	1.554375
0.571582	1.575070
0.571680	1.602373
0.571777	1.600588
0.571875	1.599697
0.571973	1.583707
0.572070	1.561658
0.572168	1.549704
0.572266	1.547967
0.572363	1.541436
0.572461	1.533440
0.572559	1.523052
0.572656	1.522095
0.572754	1.530078
0.572852	1.533713
0.572949	1.535418
0.573047	1.531299
0.573145	1.510016
0.573242	1.522737
0.573340	1.550748
0.573437	1.541193
0.573535	1.540368
0.573633	1.551949
0.573730	1.547763
0.573828	1.554220
0.573926	1.560228
0.574023	1.556282
0.574121	1.553580
0.574219	1.548684
0.574316	1.551062
0.574414	1.551596
0.574512	1.552280
0.574609	1.548602
0.574707	1.555458
0.574805	1.577911
0.574902	1.564244
0.575000	1.582561
0.575098	1.611390
0.575195	1.585719
0.575293	1.563860
0.575391	1.584935
0.575488	1.601500
0.575586	1.586531
0.575684	1.563060
0.575781	1.549437
0.575879	1.546609
0.575977	1.548778
0.576074	1.551296
0.576172	1.550601
0.576270	1.543054
0.576367	1.544425
0.576465	1.560931
0.576562	1.555855
0.576660	1.538643
0.576758	1.530865
0.576855	1.523437
0.576953	1.514106
0.577051	1.513234
0.577148	1.517570
0.577246	1.520563
0.577344	1.524036
0.577441	1.546783
0.577539	1.557871
0.577637	1.568136
0.577734	1.571677
0.577832	1.563650
0.577930	1.565253
0.578027	1.551240
0.578125	1.556105
0.578223	1.558003
0.578320	1.544742
0.578418	1.540715
0.578516	1.537001
0.578613	1.540395
0.578711	1.544316
0.578809	1.543087
0.578906	1.539294
0.579004	1.548146
0.579102	1.545096
0.579199	1.550384
0.579297	1.550352
0.579395	1.577873
0.579492	1.602679
0.579590	1.603407
0.579687	1.600590
0.579785	1.584199
0.579883	1.570646
0.579980	1.547486
0.580078	1.525034
0.580176	1.532245
0.580273	1.547318
0.580371	1.559904
0.580469	1.571055
0.580566	1.564110
0.580664	1.570820
0.580762	1.563047
0.580859	1.553634
0.580957	1.552108
0.581055	1.541487
0.581152	1.524533
0.581250	1.509808
0.581348	1.502704
0.581445	1.505057
0.581543	1.528140
0.581641	1.534512
0.581738	1.548483
0.581836	1.566622
0.581934	1.569377
0.582031	1.560016
0.582129	1.558635
0.582227	1.561863
0.582324	1.551817
0.582422	1.545441
0.582520	1.533988
0.582617	1.528473
0.582715	1.537523
0.582812	1.560264
0.582910	1.566424
0.583008	1.553431
0.583105	1.537671
0.583203	1.537542
0.583301	1.532935
0.583398	1.550180
0.583496	1.520469
0.583594	1.502892
0.583691	1.515783
0.583789	1.555279
0.583887	1.581035
0.583984	1.579527
0.584082	1.571169
0.584180	1.560090
0.584277	1.578923
0.584375	1.600267
0.584473	1.597784
0.584570	1.591135
0.584668	1.580006
0.584766	1.565671
0.584863	1.573935
0.584961	1.572626
0.585059	1.574140
0.585156	1.581513
0.585254	1.591094
0.585352	1.581280
0.585449	1.577489
0.585547	1.552843
0.585645	1.553855
0.585742	1.561983
0.585840	1.538758
0.585937	1.524028
0.586035	1.525403
0.586133	1.549889
0.586230	1.539997
0.586328	1.539633
0.586426	1.522171
0.586523	1.535547
0.586621	1.558933
0.586719	1.566103
0.586816	1.563619
0.586914	1.553050
0.587012	1.539679
0.587109	1.525592
0.587207	1.531089
0.587305	1.554279
0.587402	1.566555
0.587500	1.566083
0.587598	1.572824
0.587695	1.559293
0.587793	1.546420
0.587891	1.532926
0.587988	1.531351
0.588086	1.578634
0.588184	1.602952
0.588281	1.613712
0.588379	1.604489
0.588477	1.556452
0.588574	1.532673
0.588672	1.535837
0.588770	1.535507
0.588867	1.523119
0.588965	1.539304
0.589062	1.555332
0.589160	1.554994
0.589258	1.549169
0.589355	1.546563
0.589453	1.548291
0.589551	1.547438
0.589648	1.543337
0.589746	1.542213
0.589844	1.550265
0.589941	1.552494
0.590039	1.553836
0.590137	1.572291
0.590234	1.579179
0.590332	1.566519
0.590430	1.554111
0.590527	1.556504
0.590625	1.560170
0.590723	1.552327
0.590820	1.536438
0.590918	1.531873
0.591016	1.534278
0.591113	1.545493
0.591211	1.544773
0.591309	1.540864
0.591406	1.546093
0.591504	1.557904
0.591602	1.567542
0.591699	1.559540
0.591797	1.551330
0.591895	1.550233
0.591992	1.571811
0.592090	1.595040
0.592187	1.584910
0.592285	1.567777
0.592383	1.562969
0.592480	1.556531
0.592578	1.555549
0.592676	1.556079
0.592773	1.583776
0.592871	1.592461
0.592969	1.564392
0.593066	1.545632
0.593164	1.554069
0.593262	1.560306
0.593359	1.576121
0.593457	1.579562
0.593555	1.562253
0.593652	1.571715
0.593750	1.552953
0.593848	1.558634
0.593945	1.548890
0.594043	1.546960
0.594141	1.580261
0.594238	1.586651
0.594336	1.560631
0.594434	1.543636
0.594531	1.529560
0.594629	1.552747
0.594727	1.559158
0.594824	1.537110
0.594922	1.514521
0.595020	1.518236
0.595117	1.513238
0.595215	1.520376
0.595312	1.541604
0.595410	1.542177
0.595508	1.518988
0.595605	1.495590
0.595703	1.492979
0.595801	1.505044
0.595898	1.508877
0.595996	1.520767
0.596094	1.541928
0.596191	1.553490
0.596289	1.566258
0.596387	1.567313
0.596484	1.545842
0.596582	1.527365
0.596680	1.506793
0.596777	1.499762
0.596875	1.500293
0.596973	1.503031
0.597070	1.530972
0.597168	1.531894
0.597266	1.519016
0.597363	1.521579
0.597461	1.537427
0.597559	1.547188
0.597656	1.551338
0.597754	1.560426
0.597852	1.558443
0.597949	1.551763
0.598047	1.551908
0.598145	1.565268
0.598242	1.565155
0.598340	1.560611
0.598437	1.562287
0.598535	1.572491
0.598633	1.570633
0.598730	1.567346
0.598828	1.566664
0.598926	1.558176
0.599023	1.543118
0.599121	1.538611
0.599219	1.567388
0.599316	1.585654
0.599414	1.586825
0.599512	1.587690
0.599609	1.568918
0.599707	1.550850
0.599805	1.537984
0.599902	1.527994
0.600000	1.524979
0.600098	1.524868
0.600195	1.521341
0.600293	1.518124
0.600391	1.514342
0.600488	1.529670
0.600586	1.558570
0.600684	1.567389
0.600781	1.590811
0.600879	1.590475
0.600977	1.560996
0.601074	1.533237
0.601172	1.555452
0.601270	1.558014
0.601367	1.545927
0.601465	1.536783
0.601562	1.525846
0.601660	1.516079
0.601758	1.503959
0.601855	1.501983
0.601953	1.507480
0.602051	1.509768
0.602148	1.509553
0.602246	1.519297
0.602344	1.525337
0.602441	1.515411
0.602539	1.507532
0.602637	1.518322
0.602734	1.527171
0.602832	1.524397
0.602930	1.508135
0.603027	1.524406
0.603125	1.545781
0.603223	1.537381
0.603320	1.535676
0.603418	1.528479
0.603516	1.529562
0.603613	1.532302
0.603711	1.546476
0.603809	1.550296
0.603906	1.563914
0.604004	1.570223
0.604102	1.562920
0.604199	1.569603
0.604297	1.547082
0.604395	1.526241
0.604492	1.511850
0.604590	1.512626
0.604687	1.518833
0.604785	1.527358
0.604883	1.544760
0.604980	1.546974
0.605078	1.572566
0.605176	1.599468
0.605273	1.589767
0.605371	1.560819
0.605469	1.538602
0.605566	1.530966
0.605664	1.567928
0.605762	1.601796
0.605859	1.620716
0.605957	1.623179
0.606055	1.607430
0.606152	1.591500
0.606250	1.575403
0.606348	1.546128
0.606445	1.534641
0.606543	1.551874
0.606641	1.588929
0.606738	1.605032
0.606836	1.601880
0.606934	1.581783
0.607031	1.571800
0.607129	1.560703
0.607227	1.556134
0.607324	1.562074
0.607422	1.557221
0.607520	1.555270
0.607617	1.570470
0.607715	1.578206
0.607812	1.586500
0.607910	1.586510
0.608008	1.576315
0.608105	1.553404
0.608203	1.536474
0.608301	1.527886
0.608398	1.519169
0.608496	1.535450
0.608594	1.554232
0.608691	1.559516
0.608789	1.574805
0.608887	1.579086
0.608984	1.550543
0.609082	1.530768
0.609180	1.531905
0.609277	1.546653
0.609375	1.552845
0.609473	1.561184
0.609570	1.568854
0.609668	1.567686
0.609766	1.560565
0.609863	1.566186
0.609961	1.549833
0.610059	1.546053
0.610156	1.542004
0.610254	1.532326
0.610352	1.555803
0.610449	1.557365
0.610547	1.561493
0.610645	1.559734
0.610742	1.558065
0.610840	1.570644
0.610937	1.555685
0.611035	1.535042
0.611133	1.534006
0.611230	1.528623
0.611328	1.529983
0.611426	1.535863
0.611523	1.533317
0.611621	1.526279
0.611719	1.514567
0.611816	1.514391
0.611914	1.522069
0.612012	1.526116
0.612109	1.536651
0.612207	1.532049
0.612305	1.514060
0.612402	1.512689
0.612500	1.522507
0.612598	1.526959
0.612695	1.529671
0.612793	1.537234
0.612891	1.539054
0.612988	1.533385
0.613086	1.517004
0.613184	1.519329
0.613281	1.536424
0.613379	1.569199
0.613477	1.593009
0.613574	1.615641
0.613672	1.602991
0.613770	1.586299
0.613867	1.590972
0.613965	1.586216
0.614062	1.600608
0.614160	1.588915
0.614258	1.582822
0.614355	1.602924
0.614453	1.603011
0.614551	1.596495
0.614648	1.583687
0.614746	1.573631
0.614844	1.567246
0.614941	1.574185
0.615039	1.565393
0.615137	1.562336
0.615234	1.574242
0.615332	1.566291
0.615430	1.567847
0.615527	1.573819
0.615625	1.579565
0.615723	1.571843
0.615820	1.591568
0.615918	1.596575
0.616016	1.566939
0.616113	1.568918
0.616211	1.557355
0.616309	1.541359
0.616406	1.555976
0.616504	1.565557
0.616602	1.560432
0.616699	1.585526
0.616797	1.594590
0.616895	1.590234
0.616992	1.588568
0.617090	1.595628
0.617187	1.597306
0.617285	1.567366
0.617383	1.562614
0.617480	1.555129
0.617578	1.542699
0.617676	1.547156
0.617773	1.555572
0.617871	1.544236
0.617969	1.537402
0.618066	1.523233
0.618164	1.525452
0.618262	1.519149
0.618359	1.515753
0.618457	1.528958
0.618555	1.536567
0.618652	1.522303
0.618750	1.523585
0.618848	1.528903
0.618945	1.520375
0.619043	1.518111
0.619141	1.540944
0.619238	1.576448
0.619336	1.587838
0.619434	1.594606
0.619531	1.602841
0.619629	1.606117
0.619727	1.599850
0.619824	1.591557
0.619922	1.581257
0.620020	1.552910
0.620117	1.526904
0.620215	1.525323
0.620312	1.549097
0.620410	1.562795
0.620508	1.564909
0.620605	1.570539
0.620703	1.556385
0.620801	1.551102
0.620898	1.544677
0.620996	1.529489
0.621094	1.532803
0.621191	1.535317
0.621289	1.536298
0.621387	1.544213
0.621484	1.553458
0.621582	1.558953
0.621680	1.562051
0.621777	1.564004
0.621875	1.559961
0.621973	1.553698
0.622070	1.543893
0.622168	1.535391
0.622266	1.524822
0.622363	1.518338
0.622461	1.523609
0.622559	1.529792
0.622656	1.532896
0.622754	1.529540
0.622852	1.549830
0.622949	1.565793
0.623047	1.579122
0.623145	1.593624
0.623242	1.580771
0.623340	1.558637
0.623437	1.549715
0.623535	1.546674
0.623633	1.543346
0.623730	1.530241
0.623828	1.524255
0.623926	1.523750
0.624023	1.529339
0.624121	1.527254
0.624219	1.524652
0.624316	1.520334
0.624414	1.513587
0.624512	1.510855
0.624609	1.519852
0.624707	1.527313
0.624805	1.528323
0.624902	1.544199
0.625000	1.544248
0.625098	1.535208
0.625195	1.544407
0.625293	1.537396
0.625391	1.518188
0.625488	1.529497
0.625586	1.555913
0.625684	1.563672
0.625781	1.554086
0.625879	1.542992
0.625977	1.534682
0.626074	1.535334
0.626172	1.536196
0.626270	1.534060
0.626367	1.524597
0.626465	1.524410
0.626562	1.537043
0.626660	1.554202
0.626758	1.575414
0.626855	1.577687
0.626953	1.548207
0.627051	1.564323
0.627148	1.588439
0.627246	1.583531
0.627344	1.568198
0.627441	1.556956
0.627539	1.553348
0.627637	1.543925
0.627734	1.537025
0.627832	1.545621
0.627930	1.553054
0.628027	1.549922
0.628125	1.537028
0.628223	1.527207
0.628320	1.522836
0.628418	1.524845
0.628516	1.531044
0.628613	1.531651
0.628711	1.522834
0.628809	1.517538
0.628906	1.525346
0.629004	1.535377
0.629102	1.539760
0.629199	1.557134
0.629297	1.551904
0.629395	1.537863
0.629492	1.546899
0.629590	1.552388
0.629687	1.558095
0.629785	1.560699
0.629883	1.569940
0.629980	1.549348
0.630078	1.544501
0.630176	1.540797
0.630273	1.539949
0.630371	1.534580
0.630469	1.541520
0.630566	1.570282
0.630664	1.575455
0.630762	1.579033
0.630859	1.579956
0.630957	1.588953
0.631055	1.587876
0.631152	1.583962
0.631250	1.587380
0.631348	1.574816
0.631445	1.558507
0.631543	1.550117
0.631641	1.556531
0.631738	1.561613
0.631836	1.564657
0.631934	1.583502
0.632031	1.580922
0.632129	1.568151
0.632227	1.563471
0.632324	1.556232
0.632422	1.554582
0.632520	1.544045
0.632617	1.533240
0.632715	1.524221
0.632812	1.537852
0.632910	1.564146
0.633008	1.551404
0.633105	1.542890
0.633203	1.533369
0.633301	1.522913
0.633398	1.532238
0.633496	1.543496
0.633594	1.559379
0.633691	1.554427
0.633789	1.534542
0.633887	1.533810
0.633984	1.542555
0.634082	1.539657
0.634180	1.540004
0.634277	1.536105
0.634375	1.532723
0.634473	1.566035
0.634570	1.578109
0.634668	1.581301
0.634766	1.588796
0.634863	1.614647
0.634961	1.604445
0.635059	1.593995
0.635156	1.581439
0.635254	1.552220
0.635352	1.531423
0.635449	1.534095
0.635547	1.546235
0.635645	1.531523
0.635742	1.514839
0.635840	1.523153
0.635937	1.531468
0.636035	1.546279
0.636133	1.574167
0.636230	1.562970
0.636328	1.556071
0.636426	1.544728
0.636523	1.563362
0.636621	1.565915
0.636719	1.550702
0.636816	1.532761
0.636914	1.523417
0.637012	1.529813
0.637109	1.559709
0.637207	1.590838
0.637305	1.592501
0.637402	1.595402
0.637500	1.603942
0.637598	1.602258
0.637695	1.573053
0.637793	1.562467
0.637891	1.555014
0.637988	1.565143
0.638086	1.564980
0.638184	1.543624
0.638281	1.535241
0.638379	1.555459
0.638477	1.562839
0.638574	1.552528
0.638672	1.557423
0.638770	1.558543
0.638867	1.549268
0.638965	1.541402
0.639062	1.548359
0.639160	1.540700
0.639258	1.532086
0.639355	1.537112
0.639453	1.539303
0.639551	1.531540
0.639648	1.517771
0.639746	1.500886
0.639844	1.510539
0.639941	1.529741
0.640039	1.523181
0.640137	1.518532
0.640234	1.517765
0.640332	1.528833
0.640430	1.531732
0.640527	1.533241
0.640625	1.558317
0.640723	1.586551
0.640820	1.581185
0.640918	1.565848
0.641016	1.555309
0.641113	1.547696
0.641211	1.569257
0.641309	1.578440
0.641406	1.567055
0.641504	1.556771
0.641602	1.566537
0.641699	1.577949
0.641797	1.571097
0.641895	1.567585
0.641992	1.554039
0.642090	1.540592
0.642187	1.541554
0.642285	1.535327
0.642383	1.532076
0.642480	1.551070
0.642578	1.563504
0.642676	1.558751
0.642773	1.550960
0.642871	1.544728
0.642969	1.565358
0.643066	1.564354
0.643164	1.548018
0.643262	1.538738
0.643359	1.531559
0.643457	1.533693
0.643555	1.531927
0.643652	1.528666
0.643750	1.514689
0.643848	1.501301
0.643945	1.501100
0.644043	1.500927
0.644141	1.503738
0.644238	1.497957
0.644336	1.501495
0.644434	1.511130
0.644531	1.532183
0.644629	1.577857
0.644727	1.592609
0.644824	1.561147
0.644922	1.536171
0.645020	1.558307
0.645117	1.566513
0.645215	1.568749
0.645312	1.551432
0.645410	1.538893
0.645508	1.536589
0.645605	1.542457
0.645703	1.527271
0.645801	1.512143
0.645898	1.524008
0.645996	1.532285
0.646094	1.538187
0.646191	1.526434
0.646289	1.542608
0.646387	1.543565
0.646484	1.540700
0.646582	1.552972
0.646680	1.562906
0.646777	1.563985
0.646875	1.539074
0.646973	1.527770
0.647070	1.539156
0.647168	1.557304
0.647266	1.577721
0.647363	1.597115
0.647461	1.598716
0.647559	1.591542
0.647656	1.586137
0.647754	1.609818
0.647852	1.608949
0.647949	1.612882
0.648047	1.624966
0.648145	1.625055
0.648242	1.606775
0.648340	1.582098
0.648437	1.578691
0.648535	1.574117
0.648633	1.567199
0.648730	1.561758
0.648828	1.574383
0.648926	1.579134
0.649023	1.572962
0.649121	1.565583
0.649219	1.566277
0.649316	1.577390
0.649414	1.602157
0.649512	1.599214
0.649609	1.599955
0.649707	1.577098
0.649805	1.581754
0.649902	1.592281
0.650000	1.587491
0.650098	1.577711
0.650195	1.581350
0.650293	1.582290
0.650391	1.569996
0.650488	1.550129
0.650586	1.552479
0.650684	1.578318
0.650781	1.571501
0.650879	1.553574
0.650977	1.558669
0.651074	1.534444
0.651172	1.530810
0.651270	1.540083
0.651367	1.549725
0.651465	1.572509
0.651562	1.571513
0.651660	1.577886
0.651758	1.568107
0.651855	1.570548
0.651953	1.595240
0.652051	1.603365
0.652148	1.601499
0.652246	1.602720
0.652344	1.597235
0.652441	1.598497
0.652539	1.580446
0.652637	1.564792
0.652734	1.556993
0.652832	1.562524
0.652930	1.553148
0.653027	1.543403
0.653125	1.553249
0.653223	1.547773
0.653320	1.541372
0.653418	1.549327
0.653516	1.543757
0.653613	1.549662
0.653711	1.545902
0.653809	1.532110
0.653906	1.560035
0.654004	1.580728
0.654102	1.575701
0.654199	1.565929
0.654297	1.569420
0.654395	1.572380
0.654492	1.575156
0.654590	1.575828
0.654687	1.577760
0.654785	1.585525
0.654883	1.590830
0.654980	1.591140
0.655078	1.578318
0.655176	1.557804
0.655273	1.548358
0.655371	1.542468
0.655469	1.539199
0.655566	1.541861
0.655664	1.559802
0.655762	1.545351
0.655859	1.541063
0.655957	1.551869
0.656055	1.536892
0.656152	1.537697
0.656250	1.529389
0.656348	1.523077
0.656445	1.530532
0.656543	1.542251
0.656641	1.546733
0.656738	1.547569
0.656836	1.537522
0.656934	1.537852
0.657031	1.563255
0.657129	1.540370
0.657227	1.533425
0.657324	1.537475
0.657422	1.533021
0.657520	1.543652
0.657617	1.565650
0.657715	1.572111
0.657812	1.566659
0.657910	1.582190
0.658008	1.593659
0.658105	1.588526
0.658203	1.582449
0.658301	1.591421
0.658398	1.585207
0.658496	1.567701
0.658594	1.576254
0.658691	1.571194
0.658789	1.558754
0.658887	1.566514
0.658984	1.562189
0.659082	1.552084
0.659180	1.547558
0.659277	1.538106
0.659375	1.516206
0.659473	1.514454
0.659570	1.531229
0.659668	1.535506
0.659766	1.530185
0.659863	1.550201
0.659961	1.582617
0.660059	1.602529
0.660156	1.607227
0.660254	1.603352
0.660352	1.598738
0.660449	1.581521
0.660547	1.572219
0.660645	1.571461
0.660742	1.564596
0.660840	1.559301
0.660937	1.561104
0.661035	1.550136
0.661133	1.553576
0.661230	1.562660
0.661328	1.545607
0.661426	1.541844
0.661523	1.555199
0.661621	1.557818
0.661719	1.548975
0.661816	1.525510
0.661914	1.507671
0.662012	1.518911
0.662109	1.535265
0.662207	1.567316
0.662305	1.576475
0.662402	1.574973
0.662500	1.574301
0.662598	1.573602
0.662695	1.552005
0.662793	1.546971
0.662891	1.567379
0.662988	1.593611
0.663086	1.580130
0.663184	1.563994
0.663281	1.554651
0.663379	1.536361
0.663477	1.536964
0.663574	1.547783
0.663672	1.554642
0.663770	1.563723
0.663867	1.571884
0.663965	1.576698
0.664062	1.573834
0.664160	1.566103
0.664258	1.566625
0.664355	1.579031
0.664453	1.581791
0.664551	1.580674
0.664648	1.574569
0.664746	1.563773
0.664844	1.545924
0.664941	1.533065
0.665039	1.532214
0.665137	1.529606
0.665234	1.543547
0.665332	1.572601
0.665430	1.580253
0.665527	1.561388
0.665625	1.538045
0.665723	1.524987
0.665820	1.524764
0.665918	1.528373
0.666016	1.522502
0.666113	1.520865
0.666211	1.514385
0.666309	1.514766
0.666406	1.518289
0.666504	1.516395
0.666602	1.536675
0.666699	1.558680
0.666797	1.550079
0.666895	1.537936
0.666992	1.569908
0.667090	1.591293
0.667187	1.591671
0.667285	1.577351
0.667383	1.564269
0.667480	1.556430
0.667578	1.562041
0.667676	1.554359
0.667773	1.544064
0.667871	1.535792
0.667969	1.537736
0.668066	1.541925
0.668164	1.552270
0.668262	1.562117
0.668359	1.552950
0.668457	1.530479
0.668555	1.529563
0.668652	1.538052
0.668750	1.540751
0.668848	1.537886
0.668945	1.528924
0.669043	1.525178
0.669141	1.529912
0.669238	1.547579
0.669336	1.557348
0.669434	1.540042
0.669531	1.528839
0.669629	1.532404
0.669727	1.533620
0.669824	1.532000
0.669922	1.525801
0.670020	1.524653
0.670117	1.523395
0.670215	1.549361
0.670312	1.544410
0.670410	1.521513
0.670508	1.527761
0.670605	1.532058
0.670703	1.535873
0.670801	1.561034
0.670898	1.567665
0.670996	1.541847
0.671094	1.533137
0.671191	1.519656
0.671289	1.503900
0.671387	1.510694
0.671484	1.513249
0.671582	1.509725
0.671680	1.514992
0.671777	1.516077
0.671875	1.519692
0.671973	1.525871
0.672070	1.524543
0.672168	1.521915
0.672266	1.526377
0.672363	1.534040
0.672461	1.568666
0.672559	1.590244
0.672656	1.583182
0.672754	1.580386
0.672852	1.574475
0.672949	1.567320
0.673047	1.552289
0.673145	1.536784
0.673242	1.534250
0.673340	1.543749
0.673437	1.546243
0.673535	1.544210
0.673633	1.543890
0.673730	1.557508
0.673828	1.549466
0.673926	1.543564
0.674023	1.551181
0.674121	1.541086
0.674219	1.523792
0.674316	1.517414
0.674414	1.518396
0.674512	1.529810
0.674609	1.551694
0.674707	1.578786
0.674805	1.589589
0.674902	1.569780
0.675000	1.550734
0.675098	1.538182
0.675195	1.532414
0.675293	1.523803
0.675391	1.546641
0.675488	1.542722
0.675586	1.540290
0.675684	1.550168
0.675781	1.544141
0.675879	1.553715
0.675977	1.556096
0.676074	1.547381
0.676172	1.537213
0.676270	1.518054
0.676367	1.525237
0.676465	1.533918
0.676562	1.539720
0.676660	1.541135
0.676758	1.546705
0.676855	1.574084
0.676953	1.575117
0.677051	1.571675
0.677148	1.590022
0.677246	1.575648
0.677344	1.559085
0.677441	1.571190
0.677539	1.578585
0.677637	1.561438
0.677734	1.549778
0.677832	1.558989
0.677930	1.565901
0.678027	1.583583
0.678125	1.598469
0.678223	1.601080
0.678320	1.587374
0.678418	1.581551
0.678516	1.588163
0.678613	1.581694
0.678711	1.570228
0.678809	1.554924
0.678906	1.562421
0.679004	1.566360
0.679102	1.549486
0.679199	1.537820
0.679297	1.529329
0.679395	1.539727
0.679492	1.528819
0.679590	1.543051
0.679687	1.576353
0.679785	1.573326
0.679883	1.563005
0.679980	1.543200
0.680078	1.541806
0.680176	1.538272
0.680273	1.528166
0.680371	1.541488
0.680469	1.545642
0.680566	1.556178
0.680664	1.559180
0.680762	1.556620
0.680859	1.558992
0.680957	1.566144
0.681055	1.567623
0.681152	1.548162
0.681250	1.553192
0.681348	1.545315
0.681445	1.540579
0.681543	1.559651
0.681641	1.593329
0.681738	1.614338
0.681836	1.620649
0.681934	1.618204
0.682031	1.595726
0.682129	1.606295
0.682227	1.601554
0.682324	1.571307
0.682422	1.558052
0.682520	1.561461
0.682617	1.567606
0.682715	1.570527
0.682812	1.568095
0.682910	1.544041
0.683008	1.545032
0.683105	1.559550
0.683203	1.548162
0.683301	1.543907
0.683398	1.544128
0.683496	1.547431
0.683594	1.550886
0.683691	1.550943
0.683789	1.576102
0.683887	1.597247
0.683984	1.600700
0.684082	1.585520
0.684180	1.573974
0.684277	1.569256
0.684375	1.578267
0.684473	1.581836
0.684570	1.586251
0.684668	1.604951
0.684766	1.613900
0.684863	1.612270
0.684961	1.599565
0.685059	1.585928
0.685156	1.586150
0.685254	1.585129
0.685352	1.582245
0.685449	1.571722
0.685547	1.564978
0.685645	1.562095
0.685742	1.559274
0.685840	1.555103
0.685937	1.549268
0.686035	1.543749
0.686133	1.530993
0.686230	1.524704
0.686328	1.533420
0.686426	1.525050
0.686523	1.559910
0.686621	1.569663
0.686719	1.568464
0.686816	1.579776
0.686914	1.562695
0.687012	1.550869
0.687109	1.520095
0.687207	1.511413
0.687305	1.523309
0.687402	1.557618
0.687500	1.562466
0.687598	1.567099
0.687695	1.586477
0.687793	1.579573
0.687891	1.567023
0.687988	1.557763
0.688086	1.552857
0.688184	1.539140
0.688281	1.528437
0.688379	1.516292
0.688477	1.518485
0.688574	1.528198
0.688672	1.546518
0.688770	1.561397
0.688867	1.568531
0.688965	1.546559
0.689062	1.535230
0.689160	1.538103
0.689258	1.537113
0.689355	1.551348
0.689453	1.558756
0.689551	1.572595
0.689648	1.574552
0.689746	1.535176
0.689844	1.552450
0.689941	1.550805
0.690039	1.549869
0.690137	1.556563
0.690234	1.552679
0.690332	1.543573
0.690430	1.551750
0.690527	1.556392
0.690625	1.542860
0.690723	1.556365
0.690820	1.555568
0.690918	1.545606
0.691016	1.544898
0.691113	1.553896
0.691211	1.565411
0.691309	1.569577
0.691406	1.559661
0.691504	1.561967
0.691602	1.572312
0.691699	1.565777
0.691797	1.552848
0.691895	1.540060
0.691992	1.557433
0.692090	1.580889
0.692187	1.585401
0.692285	1.594580
0.692383	1.590327
0.692480	1.587312
0.692578	1.578818
0.692676	1.574159
0.692773	1.579044
0.692871	1.581611
0.692969	1.566620
0.693066	1.558701
0.693164	1.553147
0.693262	1.552151
0.693359	1.554158
0.693457	1.548925
0.693555	1.568569
0.693652	1.573450
0.693750	1.567228
0.693848	1.572009
0.693945	1.571162
0.694043	1.573129
0.694141	1.566164
0.694238	1.556223
0.694336	1.550410
0.694434	1.568333
0.694531	1.587876
0.694629	1.594317
0.694727	1.599403
0.694824	1.597464
0.694922	1.580866
0.695020	1.560450
0.695117	1.543705
0.695215	1.526308
0.695312	1.515769
0.695410	1.526663
0.695508	1.552120
0.695605	1.570843
0.695703	1.578338
0.695801	1.576770
0.695898	1.587802
0.695996	1.578343
0.696094	1.555333
0.696191	1.545278
0.696289	1.551107
0.696387	1.564893
0.696484	1.567371
0.696582	1.544715
0.696680	1.524898
0.696777	1.531986
0.696875	1.552244
0.696973	1.577232
0.697070	1.566577
0.697168	1.557105
0.697266	1.539957
0.697363	1.544693
0.697461	1.546627
0.697559	1.532610
0.697656	1.521645
0.697754	1.527828
0.697852	1.544970
0.697949	1.589720
0.698047	1.618203
0.698145	1.611437
0.698242	1.595598
0.698340	1.585346
0.698437	1.587816
0.698535	1.569364
0.698633	1.551001
0.698730	1.537366
0.698828	1.538196
0.698926	1.550878
0.699023	1.567110
0.699121	1.577224
0.699219	1.580772
0.699316	1.567978
0.699414	1.565731
0.699512	1.591487
0.699609	1.595361
0.699707	1.587137
0.699805	1.572285
0.699902	1.557288
0.700000	1.556904
0.700098	1.547087
0.700195	1.538195
0.700293	1.545219
0.700391	1.543364
0.700488	1.538972
0.700586	1.527522
0.700684	1.530565
0.700781	1.527819
0.700879	1.527639
0.700977	1.526573
0.701074	1.530078
0.701172	1.540352
0.701270	1.542962
0.701367	1.564725
0.701465	1.557064
0.701562	1.558189
0.701660	1.550269
0.701758	1.519846
0.701855	1.525785
0.701953	1.544436
0.702051	1.548715
0.702148	1.554784
0.702246	1.539517
0.702344	1.528304
0.702441	1.542853
0.702539	1.538650
0.702637	1.550756
0.702734	1.547195
0.702832	1.528423
0.702930	1.516935
0.703027	1.516250
0.703125	1.534187
0.703223	1.560657
0.703320	1.590757
0.703418	1.602956
0.703516	1.602767
0.703613	1.598169
0.703711	1.592153
0.703809	1.582104
0.703906	1.582062
0.704004	1.579421
0.704102	1.575958
0.704199	1.571734
0.704297	1.552465
0.704395	1.545511
0.704492	1.560913
0.704590	1.566464
0.704687	1.562101
0.704785	1.563904
0.704883	1.579662
0.704980	1.570171
0.705078	1.567894
0.705176	1.573350
0.705273	1.579342
0.705371	1.591597
0.705469	1.595708
0.705566	1.596897
0.705664	1.601287
0.705762	1.595144
0.705859	1.565832
0.705957	1.541521
0.706055	1.567733
0.706152	1.577972
0.706250	1.572616
0.706348	1.557848
0.706445	1.550116
0.706543	1.577646
0.706641	1.564573
0.706738	1.567698
0.706836	1.578793
0.706934	1.566551
0.707031	1.568039
0.707129	1.574170
0.707227	1.555566
0.707324	1.531990
0.707422	1.526252
0.707520	1.539798
0.707617	1.546028
0.707715	1.531794
0.707812	1.532053
0.707910	1.525580
0.708008	1.509859
0.708105	1.503729
0.708203	1.511241
0.708301	1.516315
0.708398	1.523544
0.708496	1.520952
0.708594	1.534065
0.708691	1.542469
0.708789	1.549468
0.708887	1.555025
0.708984	1.540299
0.709082	1.547741
0.709180	1.547768
0.709277	1.552372
0.709375	1.545013
0.709473	1.525845
0.709570	1.518966
0.709668	1.516331
0.709766	1.528118
0.709863	1.555899
0.709961	1.562199
0.710059	1.557612
0.710156	1.557711
0.710254	1.593649
0.710352	1.606615
0.710449	1.597436
0.710547	1.583330
0.710645	1.570003
0.710742	1.559333
0.710840	1.545795
0.710937	1.531685
0.711035	1.515133
0.711133	1.501255
0.711230	1.496236
0.711328	1.502746
0.711426	1.519477
0.711523	1.536800
0.711621	1.536474
0.711719	1.540620
0.711816	1.539994
0.711914	1.527699
0.712012	1.527785
0.712109	1.533400
0.712207	1.543166
0.712305	1.569570
0.712402	1.587447
0.712500	1.578488
0.712598	1.561842
0.712695	1.554105
0.712793	1.548987
0.712891	1.551306
0.712988	1.555122
0.713086	1.551339
0.713184	1.555785
0.713281	1.550937
0.713379	1.550019
0.713477	1.556964
0.713574	1.569952
0.713672	1.576238
0.713770	1.569940
0.713867	1.557161
0.713965	1.545677
0.714062	1.540299
0.714160	1.561405
0.714258	1.585789
0.714355	1.585012
0.714453	1.585000
0.714551	1.571144
0.714648	1.574698
0.714746	1.573384
0.714844	1.578050
0.714941	1.580992
0.715039	1.568908
0.715137	1.554719
0.715234	1.550586
0.715332	1.536756
0.715430	1.527108
0.715527	1.521289
0.715625	1.515087
0.715723	1.531396
0.715820	1.538232
0.715918	1.540015
0.716016	1.567296
0.716113	1.585021
0.716211	1.582199
0.716309	1.565934
0.716406	1.539914
0.716504	1.540146
0.716602	1.547146
0.716699	1.569459
0.716797	1.593646
0.716895	1.596244
0.716992	1.598931
0.717090	1.603581
0.717187	1.603272
0.717285	1.604200
0.717383	1.602567
0.717480	1.598714
0.717578	1.598288
0.717676	1.590039
0.717773	1.590675
0.717871	1.589247
0.717969	1.595389
0.718066	1.581269
0.718164	1.577499
0.718262	1.569326
0.718359	1.577033
0.718457	1.576259
0.718555	1.559713
0.718652	1.584210
0.718750	1.595724
0.718848	1.602000
0.718945	1.576786
0.719043	1.559645
0.719141	1.548747
0.719238	1.558264
0.719336	1.546390
0.719434	1.529094
0.719531	1.551151
0.719629	1.546324
0.719727	1.549360
0.719824	1.536455
0.719922	1.541681
0.720020	1.569057
0.720117	1.552926
0.720215	1.547625
0.720312	1.559227
0.720410	1.555033
0.720508	1.562723
0.720605	1.565607
0.720703	1.557330
0.720801	1.547605
0.720898	1.531827
0.720996	1.527463
0.721094	1.528053
0.721191	1.553934
0.721289	1.557214
0.721387	1.547257
0.721484	1.555550
0.721582	1.559733
0.721680	1.559241
0.721777	1.553557
0.721875	1.551489
0.721973	1.551427
0.722070	1.579884
0.722168	1.604358
0.722266	1.601982
0.722363	1.599382
0.722461	1.585100
0.722559	1.578549
0.722656	1.565305
0.722754	1.565002
0.722852	1.566285
0.722949	1.582466
0.723047	1.581572
0.723145	1.569680
0.723242	1.578788
0.723340	1.577821
0.723437	1.563249
0.723535	1.558045
0.723633	1.560636
0.723730	1.566757
0.723828	1.562027
0.723926	1.556281
0.724023	1.573906
0.724121	1.577164
0.724219	1.560140
0.724316	1.564865
0.724414	1.566696
0.724512	1.568936
0.724609	1.571487
0.724707	1.579010
0.724805	1.591821
0.724902	1.592354
0.725000	1.581315
0.725098	1.568897
0.725195	1.561048
0.725293	1.551238
0.725391	1.538778
0.725488	1.529512
0.725586	1.537880
0.725684	1.544387
0.725781	1.548671
0.725879	1.540471
0.725977	1.532470
0.726074	1.527458
0.726172	1.521487
0.726270	1.520547
0.726367	1.527053
0.726465	1.527931
0.726562	1.525326
0.726660	1.534877
0.726758	1.526887
0.726855	1.527769
0.726953	1.535683
0.727051	1.536395
0.727148	1.536861
0.727246	1.552916
0.727344	1.571163
0.727441	1.570650
0.727539	1.589315
0.727637	1.592190
0.727734	1.578143
0.727832	1.565005
0.727930	1.560771
0.728027	1.554159
0.728125	1.536102
0.728223	1.524749
0.728320	1.543856
0.728418	1.572670
0.728516	1.579513
0.728613	1.597806
0.728711	1.608824
0.728809	1.604578
0.728906	1.598117
0.729004	1.564732
0.729102	1.539698
0.729199	1.558146
0.729297	1.587449
0.729395	1.601997
0.729492	1.612855
0.729590	1.617066
0.729687	1.607189
0.729785	1.577400
0.729883	1.571718
0.729980	1.560303
0.730078	1.560508
0.730176	1.539142
0.730273	1.536125
0.730371	1.552870
0.730469	1.555927
0.730566	1.555354
0.730664	1.548796
0.730762	1.552204
0.730859	1.566114
0.730957	1.557635
0.731055	1.540969
0.731152	1.537862
0.731250	1.540840
0.731348	1.563251
0.731445	1.600671
0.731543	1.603042
0.731641	1.594027
0.731738	1.585450
0.731836	1.583498
0.731934	1.583535
0.732031	1.576258
0.732129	1.569126
0.732227	1.561966
0.732324	1.561061
0.732422	1.579735
0.732520	1.599528
0.732617	1.600517
0.732715	1.591174
0.732812	1.586333
0.732910	1.573326
0.733008	1.577439
0.733105	1.579229
0.733203	1.560868
0.733301	1.538380
0.733398	1.521234
0.733496	1.519943
0.733594	1.535477
0.733691	1.539552
0.733789	1.525695
0.733887	1.516724
0.733984	1.505476
0.734082	1.510639
0.734180	1.519643
0.734277	1.512756
0.734375	1.513363
0.734473	1.517439
0.734570	1.515466
0.734668	1.529665
0.734766	1.540672
0.734863	1.548975
0.734961	1.546285
0.735059	1.548097
0.735156	1.559504
0.735254	1.563848
0.735352	1.546893
0.735449	1.551831
0.735547	1.556986
0.735645	1.532006
0.735742	1.542159
0.735840	1.558811
0.735937	1.558815
0.736035	1.561887
0.736133	1.564865
0.736230	1.562675
0.736328	1.529721
0.736426	1.517767
0.736523	1.538065
0.736621	1.543885
0.736719	1.535686
0.736816	1.541692
0.736914	1.575166
0.737012	1.594414
0.737109	1.596319
0.737207	1.578142
0.737305	1.551821
0.737402	1.540908
0.737500	1.535609
0.737598	1.554567
0.737695	1.591999
0.737793	1.597519
0.737891	1.601790
0.737988	1.611961
0.738086	1.587268
0.738184	1.566548
0.738281	1.551009
0.738379	1.542277
0.738477	1.539240
0.738574	1.536499
0.738672	1.533564
0.738770	1.531161
0.738867	1.546369
0.738965	1.541391
0.739062	1.539652
0.739160	1.546018
0.739258	1.538544
0.739355	1.537120
0.739453	1.553286
0.739551	1.565751
0.739648	1.578079
0.739746	1.590378
0.739844	1.590767
0.739941	1.576852
0.740039	1.591839
0.740137	1.611040
0.740234	1.612451
0.740332	1.602628
0.740430	1.587514
0.740527	1.571265
0.740625	1.559049
0.740723	1.551215
0.740820	1.550053
0.740918	1.554942
0.741016	1.559209
0.741113	1.559600
0.741211	1.555057
0.741309	1.540715
0.741406	1.532625
0.741504	1.540499
0.741602	1.540540
0.741699	1.545548
0.741797	1.542124
0.741895	1.535112
0.741992	1.531541
0.742090	1.538823
0.742187	1.537817
0.742285	1.543826
0.742383	1.548170
0.742480	1.538139
0.742578	1.527998
0.742676	1.526461
0.742773	1.531307
0.742871	1.536015
0.742969	1.536043
0.743066	1.537875
0.743164	1.543660
0.743262	1.534050
0.743359	1.514196
0.743457	1.520214
0.743555	1.549078
0.743652	1.560796
0.743750	1.546895
0.743848	1.530951
0.743945	1.521898
0.744043	1.522515
0.744141	1.532155
0.744238	1.536331
0.744336	1.530275
0.744434	1.532283
0.744531	1.532774
0.744629	1.538998
0.744727	1.522865
0.744824	1.517626
0.744922	1.511656
0.745020	1.512114
0.745117	1.523266
0.745215	1.556647
0.745312	1.560838
0.745410	1.547219
0.745508	1.555089
0.745605	1.561569
0.745703	1.546246
0.745801	1.538138
0.745898	1.543777
0.745996	1.543269
0.746094	1.551156
0.746191	1.534919
0.746289	1.525092
0.746387	1.525751
0.746484	1.530637
0.746582	1.554941
0.746680	1.568032
0.746777	1.548151
0.746875	1.531821
0.746973	1.539071
0.747070	1.539823
0.747168	1.536091
0.747266	1.541479
0.747363	1.538653
0.747461	1.536296
0.747559	1.533932
0.747656	1.537191
0.747754	1.535662
0.747852	1.523446
0.747949	1.504873
0.748047	1.501547
0.748145	1.502488
0.748242	1.490049
0.748340	1.513354
0.748437	1.567515
0.748535	1.591778
0.748633	1.603537
0.748730	1.604212
0.748828	1.604447
0.748926	1.602624
0.749023	1.594047
0.749121	1.589299
0.749219	1.572983
0.749316	1.566538
0.749414	1.558794
0.749512	1.555578
0.749609	1.559466
0.749707	1.565360
0.749805	1.562033
0.749902	1.553592
0.750000	1.539724
0.750098	1.552839
0.750195	1.563190
0.750293	1.555952
0.750391	1.553220
0.750488	1.557969
0.750586	1.568374
0.750684	1.555143
0.750781	1.551310
0.750879	1.544178
0.750977	1.542444
0.751074	1.553702
0.751172	1.562806
0.751270	1.555431
0.751367	1.562018
0.751465	1.551047
0.751562	1.535534
0.751660	1.557230
0.751758	1.581094
0.751855	1.572996
0.751953	1.555990
0.752051	1.555866
0.752148	1.564682
0.752246	1.566403
0.752344	1.555750
0.752441	1.549927
0.752539	1.541384
0.752637	1.538065
0.752734	1.540314
0.752832	1.541989
0.752930	1.552564
0.753027	1.546232
0.753125	1.553163
0.753223	1.568244
0.753320	1.565869
0.753418	1.573508
0.753516	1.579502
0.753613	1.563856
0.753711	1.556935
0.753809	1.567647
0.753906	1.579154
0.754004	1.587895
0.754102	1.585366
0.754199	1.579890
0.754297	1.596791
0.754395	1.592045
0.754492	1.582025
0.754590	1.581115
0.754687	1.577580
0.754785	1.563756
0.754883	1.546391
0.754980	1.541298
0.755078	1.519961
0.755176	1.503771
0.755273	1.504007
0.755371	1.502999
0.755469	1.508443
0.755566	1.516483
0.755664	1.518684
0.755762	1.531860
0.755859	1.557342
0.755957	1.552516
0.756055	1.567598
0.756152	1.577873
0.756250	1.544597
0.756348	1.529923
0.756445	1.535834
0.756543	1.541845
0.756641	1.544238
0.756738	1.543962
0.756836	1.535010
0.756934	1.518970
0.757031	1.517946
0.757129	1.523075
0.757227	1.523971
0.757324	1.514481
0.757422	1.534528
0.757520	1.558796
0.757617	1.552793
0.757715	1.551441
0.757812	1.543303
0.757910	1.540574
0.758008	1.575522
0.758105	1.579910
0.758203	1.580605
0.758301	1.565657
0.758398	1.547940
0.758496	1.533515
0.758594	1.531778
0.758691	1.538938
0.758789	1.555556
0.758887	1.584554
0.758984	1.585292
0.759082	1.576636
0.759180	1.573206
0.759277	1.563797
0.759375	1.558492
0.759473	1.547246
0.759570	1.528517
0.759668	1.511316
0.759766	1.522454
0.759863	1.539079
0.759961	1.543998
0.760059	1.549841
0.760156	1.554861
0.760254	1.572442
0.760352	1.564579
0.760449	1.546562
0.760547	1.552082
0.760645	1.561206
0.760742	1.544026
0.760840	1.545426
0.760937	1.568969
0.761035	1.586448
0.761133	1.589903
0.761230	1.582423
0.761328	1.559320
0.761426	1.554191
0.761523	1.570372
0.761621	1.567330
0.761719	1.562288
0.761816	1.550532
0.761914	1.561078
0.762012	1.569541
0.762109	1.568273
0.762207	1.558385
0.762305	1.556634
0.762402	1.524614
0.762500	1.518709
0.762598	1.557612
0.762695	1.579535
0.762793	1.588432
0.762891	1.608739
0.762988	1.609364
0.763086	1.586753
0.763184	1.583311
0.763281	1.583012
0.763379	1.580800
0.763477	1.561204
0.763574	1.566128
0.763672	1.551605
0.763770	1.572487
0.763867	1.592860
0.763965	1.578428
0.764062	1.571944
0.764160	1.559081
0.764258	1.531662
0.764355	1.539730
0.764453	1.541005
0.764551	1.555351
0.764648	1.576150
0.764746	1.576386
0.764844	1.566587
0.764941	1.551589
0.765039	1.552128
0.765137	1.553966
0.765234	1.566912
0.765332	1.553403
0.765430	1.533952
0.765527	1.571095
0.765625	1.607552
0.765723	1.599327
0.765820	1.576850
0.765918	1.556956
0.766016	1.556206
0.766113	1.571446
0.766211	1.571048
0.766309	1.556871
0.766406	1.545373
0.766504	1.540169
0.766602	1.535911
0.766699	1.531812
0.766797	1.528251
0.766895	1.540391
0.766992	1.536791
0.767090	1.526360
0.767187	1.508054
0.767285	1.505905
0.767383	1.513317
0.767480	1.516940
0.767578	1.529922
0.767676	1.541557
0.767773	1.550990
0.767871	1.572347
0.767969	1.566660
0.768066	1.554097
0.768164	1.525065
0.768262	1.535083
0.768359	1.541714
0.768457	1.557191
0.768555	1.605286
0.768652	1.603330
0.768750	1.583876
0.768848	1.561462
0.768945	1.582138
0.769043	1.582898
0.769141	1.569418
0.769238	1.550803
0.769336	1.551324
0.769434	1.563872
0.769531	1.566419
0.769629	1.551588
0.769727	1.546484
0.769824	1.546366
0.769922	1.545847
0.770020	1.540930
0.770117	1.551016
0.770215	1.557596
0.770312	1.549546
0.770410	1.532443
0.770508	1.559484
0.770605	1.586681
0.770703	1.568970
0.770801	1.555681
0.770898	1.549662
0.770996	1.547798
0.771094	1.553927
0.771191	1.566875
0.771289	1.572836
0.771387	1.564910
0.771484	1.532627
0.771582	1.526212
0.771680	1.538544
0.771777	1.541204
0.771875	1.533448
0.771973	1.548269
0.772070	1.563636
0.772168	1.560393
0.772266	1.553360
0.772363	1.549678
0.772461	1.543645
0.772559	1.531042
0.772656	1.542926
0.772754	1.540733
0.772852	1.538231
0.772949	1.560134
0.773047	1.543874
0.773145	1.534541
0.773242	1.539693
0.773340	1.539142
0.773437	1.546500
0.773535	1.552823
0.773633	1.550095
0.773730	1.557592
0.773828	1.553368
0.773926	1.537806
0.774023	1.520262
0.774121	1.519469
0.774219	1.533878
0.774316	1.540191
0.774414	1.537311
0.774512	1.539538
0.774609	1.544638
0.774707	1.574334
0.774805	1.597112
0.774902	1.603916
0.775000	1.602294
0.775098	1.617983
0.775195	1.621019
0.775293	1.614650
0.775391	1.597537
0.775488	1.572980
0.775586	1.550844
0.775684	1.530942
0.775781	1.518176
0.775879	1.515380
0.775977	1.530925
0.776074	1.541219
0.776172	1.546315
0.776270	1.547538
0.776367	1.565591
0.776465	1.593847
0.776562	1.587752
0.776660	1.573016
0.776758	1.581097
0.776855	1.571016
0.776953	1.572782
0.777051	1.574409
0.777148	1.562360
0.777246	1.542982
0.777344	1.548219
0.777441	1.543063
0.777539	1.530249
0.777637	1.525463
0.777734	1.539565
0.777832	1.555875
0.777930	1.561640
0.778027	1.582206
0.778125	1.587275
0.778223	1.577318
0.778320	1.559928
0.778418	1.551455
0.778516	1.550035
0.778613	1.539242
0.778711	1.537101
0.778809	1.531203
0.778906	1.530554
0.779004	1.518952
0.779102	1.514950
0.779199	1.516615
0.779297	1.513274
0.779395	1.532776
0.779492	1.544524
0.779590	1.535322
0.779687	1.531519
0.779785	1.536870
0.779883	1.556479
0.779980	1.584261
0.780078	1.591159
0.780176	1.589939
0.780273	1.585681
0.780371	1.569966
0.780469	1.571679
0.780566	1.574262
0.780664	1.572478
0.780762	1.527736
0.780859	1.532072
0.780957	1.557267
0.781055	1.572211
0.781152	1.594290
0.781250	1.594556
0.781348	1.576227
0.781445	1.545579
0.781543	1.552671
0.781641	1.557871
0.781738	1.555164
0.781836	1.554039
0.781934	1.549036
0.782031	1.549502
0.782129	1.551338
0.782227	1.562070
0.782324	1.568412
0.782422	1.574239
0.782520	1.572402
0.782617	1.565322
0.782715	1.542912
0.782812	1.556455
0.782910	1.574184
0.783008	1.560101
0.783105	1.537429
0.783203	1.530841
0.783301	1.540315
0.783398	1.544587
0.783496	1.554774
0.783594	1.543283
0.783691	1.523921
0.783789	1.513168
0.783887	1.506490
0.783984	1.504873
0.784082	1.501503
0.784180	1.493971
0.784277	1.500311
0.784375	1.505825
0.784473	1.501427
0.784570	1.503078
0.784668	1.507756
0.784766	1.516329
0.784863	1.537969
0.784961	1.560785
0.785059	1.560754
0.785156	1.543042
0.785254	1.543381
0.785352	1.531558
0.785449	1.520133
0.785547	1.516107
0.785645	1.517698
0.785742	1.522845
0.785840	1.519498
0.785937	1.520927
0.786035	1.517057
0.786133	1.511154
0.786230	1.521936
0.786328	1.533904
0.786426	1.534638
0.786523	1.530139
0.786621	1.540934
0.786719	1.572892
0.786816	1.588284
0.786914	1.586417
0.787012	1.580806
0.787109	1.590813
0.787207	1.596319
0.787305	1.593336
0.787402	1.603647
0.787500	1.596715
0.787598	1.595531
0.787695	1.594167
0.787793	1.574544
0.787891	1.578520
0.787988	1.569752
0.788086	1.574478
0.788184	1.577198
0.788281	1.562639
0.788379	1.573780
0.788477	1.598888
0.788574	1.610165
0.788672	1.607070
0.788770	1.599601
0.788867	1.609228
0.788965	1.601272
0.789062	1.591079
0.789160	1.585019
0.789258	1.578711
0.789355	1.559451
0.789453	1.534425
0.789551	1.517133
0.789648	1.515018
0.789746	1.518654
0.789844	1.538689
0.789941	1.545707
0.790039	1.547845
0.790137	1.553063
0.790234	1.555369
0.790332	1.553540
0.790430	1.549907
0.790527	1.548978
0.790625	1.552336
0.790723	1.564368
0.790820	1.576761
0.790918	1.574782
0.791016	1.574052
0.791113	1.588284
0.791211	1.617739
0.791309	1.610342
0.791406	1.588602
0.791504	1.590121
0.791602	1.600526
0.791699	1.602116
0.791797	1.599929
0.791895	1.591535
0.791992	1.575427
0.792090	1.560581
0.792187	1.544771
0.792285	1.538737
0.792383	1.533973
0.792480	1.533243
0.792578	1.527047
0.792676	1.528719
0.792773	1.549910
0.792871	1.574574
0.792969	1.574918
0.793066	1.561045
0.793164	1.563058
0.793262	1.549098
0.793359	1.532584
0.793457	1.540949
0.793555	1.547451
0.793652	1.549607
0.793750	1.532328
0.793848	1.521384
0.793945	1.521524
0.794043	1.526396
0.794141	1.538772
0.794238	1.548810
0.794336	1.552023
0.794434	1.560381
0.794531	1.553246
0.794629	1.551401
0.794727	1.535421
0.794824	1.536589
0.794922	1.540898
0.795020	1.536392
0.795117	1.531909
0.795215	1.521143
0.795312	1.505776
0.795410	1.506315
0.795508	1.515278
0.795605	1.517338
0.795703	1.535498
0.795801	1.536617
0.795898	1.529797
0.795996	1.519408
0.796094	1.509844
0.796191	1.496717
0.796289	1.510531
0.796387	1.542956
0.796484	1.569931
0.796582	1.583030
0.796680	1.567573
0.796777	1.557208
0.796875	1.557914
0.796973	1.581478
0.797070	1.579526
0.797168	1.565397
0.797266	1.567501
0.797363	1.557233
0.797461	1.543944
0.797559	1.554317
0.797656	1.586528
0.797754	1.602527
0.797852	1.590273
0.797949	1.580680
0.798047	1.583859
0.798145	1.563577
0.798242	1.542973
0.798340	1.540421
0.798437	1.557745
0.798535	1.589526
0.798633	1.582633
0.798730	1.565261
0.798828	1.575143
0.798926	1.601430
0.799023	1.599953
0.799121	1.584962
0.799219	1.584279
0.799316	1.576692
0.799414	1.572760
0.799512	1.568122
0.799609	1.551749
0.799707	1.537645
0.799805	1.542058
0.799902	1.546666
0.800000	1.531814
0.800098	1.521620
0.800195	1.509178
0.800293	1.500117
0.800391	1.518767
0.800488	1.524749
0.800586	1.532805
0.800684	1.543725
0.800781	1.547453
0.800879	1.553084
0.800977	1.553818
0.801074	1.544875
0.801172	1.519284
0.801270	1.510681
0.801367	1.501763
0.801465	1.497504
0.801562	1.517241
0.801660	1.527308
0.801758	1.536481
0.801855	1.544380
0.801953	1.557308
0.802051	1.552035
0.802148	1.549933
0.802246	1.541759
0.802344	1.526150
0.802441	1.516606
0.802539	1.505672
0.802637	1.509097
0.802734	1.527792
0.802832	1.551605
0.802930	1.556077
0.803027	1.561588
0.803125	1.553145
0.803223	1.559072
0.803320	1.565537
0.803418	1.553400
0.803516	1.543617
0.803613	1.530955
0.803711	1.520162
0.803809	1.511170
0.803906	1.507033
0.804004	1.510461
0.804102	1.511685
0.804199	1.518027
0.804297	1.515039
0.804395	1.512236
0.804492	1.517619
0.804590	1.506861
0.804687	1.510147
0.804785	1.552068
0.804883	1.556189
0.804980	1.559158
0.805078	1.557998
0.805176	1.558693
0.805273	1.571668
0.805371	1.576748
0.805469	1.576910
0.805566	1.561793
0.805664	1.557629
0.805762	1.552804
0.805859	1.537941
0.805957	1.539496
0.806055	1.561331
0.806152	1.564238
0.806250	1.546741
0.806348	1.521495
0.806445	1.512669
0.806543	1.514850
0.806641	1.528479
0.806738	1.567723
0.806836	1.577642
0.806934	1.579003
0.807031	1.579959
0.807129	1.575873
0.807227	1.557886
0.807324	1.543558
0.807422	1.544338
0.807520	1.537995
0.807617	1.530579
0.807715	1.526475
0.807812	1.519471
0.807910	1.516575
0.808008	1.520219
0.808105	1.523722
0.808203	1.535608
0.808301	1.536611
0.808398	1.533689
0.808496	1.553964
0.808594	1.560472
0.808691	1.554679
0.808789	1.541870
0.808887	1.535222
0.808984	1.517934
0.809082	1.512722
0.809180	1.517428
0.809277	1.531062
0.809375	1.541265
0.809473	1.540526
0.809570	1.537985
0.809668	1.540471
0.809766	1.539782
0.809863	1.579747
0.809961	1.610137
0.810059	1.609400
0.810156	1.597044
0.810254	1.588987
0.810352	1.570918
0.810449	1.564506
0.810547	1.575012
0.810645	1.574372
0.810742	1.558651
0.810840	1.543355
0.810937	1.545439
0.811035	1.551976
0.811133	1.553258
0.811230	1.541282
0.811328	1.531449
0.811426	1.523173
0.811523	1.523045
0.811621	1.528324
0.811719	1.549301
0.811816	1.564391
0.811914	1.572266
0.812012	1.578547
0.812109	1.579469
0.812207	1.579255
0.812305	1.580175
0.812402	1.591040
0.812500	1.587988
0.812598	1.580562
0.812695	1.576120
0.812793	1.576186
0.812891	1.578736
0.812988	1.558003
0.813086	1.538013
0.813184	1.526989
0.813281	1.536582
0.813379	1.541919
0.813477	1.553452
0.813574	1.570759
0.813672	1.560678
0.813770	1.546147
0.813867	1.531324
0.813965	1.532586
0.814062	1.536727
0.814160	1.568440
0.814258	1.577895
0.814355	1.562915
0.814453	1.557579
0.814551	1.562419
0.814648	1.559502
0.814746	1.550719
0.814844	1.549683
0.814941	1.540691
0.815039	1.527844
0.815137	1.544134
0.815234	1.558400
0.815332	1.575172
0.815430	1.594280
0.815527	1.579102
0.815625	1.560719
0.815723	1.542572
0.815820	1.546833
0.815918	1.559013
0.816016	1.564547
0.816113	1.581901
0.816211	1.573735
0.816309	1.567004
0.816406	1.555207
0.816504	1.559738
0.816602	1.561007
0.816699	1.541984
0.816797	1.540579
0.816895	1.546534
0.816992	1.551802
0.817090	1.545870
0.817187	1.547220
0.817285	1.558660
0.817383	1.574025
0.817480	1.584062
0.817578	1.584200
0.817676	1.577197
0.817773	1.588628
0.817871	1.601179
0.817969	1.595896
0.818066	1.580042
0.818164	1.571228
0.818262	1.540404
0.818359	1.544280
0.818457	1.557442
0.818555	1.544856
0.818652	1.535933
0.818750	1.554277
0.818848	1.560029
0.818945	1.558561
0.819043	1.553599
0.819141	1.549914
0.819238	1.574149
0.819336	1.591899
0.819434	1.598463
0.819531	1.597129
0.819629	1.591451
0.819727	1.594711
0.819824	1.587538
0.819922	1.576604
0.820020	1.566404
0.820117	1.553306
0.820215	1.535609
0.820312	1.523113
0.820410	1.518529
0.820508	1.513822
0.820605	1.503272
0.820703	1.487365
0.820801	1.479561
0.820898	1.478728
0.820996	1.477440
0.821094	1.490803
0.821191	1.500007
0.821289	1.498917
0.821387	1.491961
0.821484	1.515473
0.821582	1.549268
0.821680	1.565109
0.821777	1.564462
0.821875	1.556738
0.821973	1.546963
0.822070	1.543220
0.822168	1.556109
0.822266	1.567753
0.822363	1.555052
0.822461	1.546617
0.822559	1.542382
0.822656	1.503140
0.822754	1.506886
0.822852	1.518385
0.822949	1.555840
0.823047	1.564803
0.823145	1.559961
0.823242	1.556185
0.823340	1.537405
0.823437	1.542484
0.823535	1.546387
0.823633	1.544366
0.823730	1.517390
0.823828	1.522864
0.823926	1.516265
0.824023	1.509823
0.824121	1.506218
0.824219	1.505143
0.824316	1.515464
0.824414	1.510465
0.824512	1.507584
0.824609	1.506546
0.824707	1.501186
0.824805	1.513419
0.824902	1.535390
0.825000	1.550692
0.825098	1.546016
0.825195	1.543998
0.825293	1.561651
0.825391	1.563442
0.825488	1.565712
0.825586	1.541816
0.825684	1.531737
0.825781	1.542544
0.825879	1.549253
0.825977	1.576069
0.826074	1.602698
0.826172	1.593340
0.826270	1.572102
0.826367	1.559819
0.826465	1.553671
0.826562	1.539067
0.826660	1.559860
0.826758	1.556727
0.826855	1.557297
0.826953	1.557788
0.827051	1.554833
0.827148	1.555827
0.827246	1.546632
0.827344	1.529446
0.827441	1.522768
0.827539	1.538997
0.827637	1.528600
0.827734	1.540104
0.827832	1.535508
0.827930	1.541237
0.828027	1.540149
0.828125	1.530962
0.828223	1.532197
0.828320	1.540615
0.828418	1.532234
0.828516	1.518997
0.828613	1.521707
0.828711	1.517613
0.828809	1.525989
0.828906	1.526460
0.829004	1.529223
0.829102	1.553116
0.829199	1.566452
0.829297	1.567578
0.829395	1.568384
0.829492	1.561239
0.829590	1.547880
0.829687	1.547773
0.829785	1.548195
0.829883	1.545932
0.829980	1.546202
0.830078	1.553477
0.830176	1.550842
0.830273	1.549628
0.830371	1.544628
0.830469	1.535306
0.830566	1.531532
0.830664	1.542719
0.830762	1.537264
0.830859	1.530874
0.830957	1.554465
0.831055	1.568154
0.831152	1.565219
0.831250	1.557925
0.831348	1.544059
0.831445	1.539602
0.831543	1.583611
0.831641	1.617077
0.831738	1.607474
0.831836	1.593658
0.831934	1.586432
0.832031	1.574895
0.832129	1.558520
0.832227	1.543839
0.832324	1.534220
0.832422	1.523634
0.832520	1.533458
0.832617	1.551850
0.832715	1.559794
0.832812	1.554192
0.832910	1.542625
0.833008	1.529002
0.833105	1.544973
0.833203	1.539827
0.833301	1.521235
0.833398	1.527795
0.833496	1.543181
0.833594	1.548252
0.833691	1.539530
0.833789	1.541255
0.833887	1.549781
0.833984	1.543645
0.834082	1.559224
0.834180	1.569678
0.834277	1.573355
0.834375	1.574271
0.834473	1.602928
0.834570	1.614433
0.834668	1.618539
0.834766	1.628873
0.834863	1.596887
0.834961	1.590014
0.835059	1.607124
0.835156	1.589064
0.835254	1.573608
0.835352	1.587503
0.835449	1.592408
0.835547	1.593130
0.835645	1.588061
0.835742	1.587564
0.835840	1.592892
0.835937	1.597798
0.836035	1.588585
0.836133	1.580200
0.836230	1.572729
0.836328	1.564269
0.836426	1.556039
0.836523	1.551268
0.836621	1.533996
0.836719	1.524829
0.836816	1.528821
0.836914	1.539812
0.837012	1.556969
0.837109	1.571487
0.837207	1.580875
0.837305	1.577975
0.837402	1.564867
0.837500	1.558310
0.837598	1.561060
0.837695	1.561094
0.837793	1.555412
0.837891	1.574501
0.837988	1.581399
0.838086	1.564531
0.838184	1.553790
0.838281	1.563509
0.838379	1.550152
0.838477	1.536672
0.838574	1.550035
0.838672	1.562389
0.838770	1.572190
0.838867	1.573218
0.838965	1.556816
0.839062	1.545607
0.839160	1.542196
0.839258	1.541620
0.839355	1.528805
0.839453	1.512323
0.839551	1.502970
0.839648	1.511876
0.839746	1.552454
0.839844	1.592793
0.839941	1.598023
0.840039	1.595094
0.840137	1.596917
0.840234	1.585477
0.840332	1.561302
0.840430	1.550312
0.840527	1.545147
0.840625	1.559886
0.840723	1.564321
0.840820	1.557223
0.840918	1.551069
0.841016	1.567978
0.841113	1.595520
0.841211	1.579376
0.841309	1.583888
0.841406	1.596665
0.841504	1.601552
0.841602	1.573902
0.841699	1.568534
0.841797	1.564264
0.841895	1.566208
0.841992	1.557928
0.842090	1.560559
0.842187	1.575109
0.842285	1.579344
0.842383	1.592171
0.842480	1.584293
0.842578	1.561204
0.842676	1.575703
0.842773	1.572067
0.842871	1.552543
0.842969	1.539926
0.843066	1.542170
0.843164	1.548142
0.843262	1.568986
0.843359	1.594404
0.843457	1.588457
0.843555	1.590876
0.843652	1.591763
0.843750	1.579552
0.843848	1.557323
0.843945	1.539814
0.844043	1.542754
0.844141	1.557852
0.844238	1.548636
0.844336	1.535683
0.844434	1.523367
0.844531	1.520687
0.844629	1.548568
0.844727	1.570234
0.844824	1.578046
0.844922	1.589794
0.845020	1.588906
0.845117	1.582916
0.845215	1.584542
0.845312	1.563521
0.845410	1.528144
0.845508	1.524805
0.845605	1.554971
0.845703	1.584837
0.845801	1.575812
0.845898	1.575725
0.845996	1.596978
0.846094	1.591219
0.846191	1.577417
0.846289	1.600247
0.846387	1.618775
0.846484	1.605985
0.846582	1.592089
0.846680	1.613332
0.846777	1.614090
0.846875	1.591724
0.846973	1.569523
0.847070	1.585593
0.847168	1.581949
0.847266	1.569666
0.847363	1.563103
0.847461	1.552827
0.847559	1.561575
0.847656	1.549687
0.847754	1.545670
0.847852	1.538068
0.847949	1.553045
0.848047	1.587258
0.848145	1.576085
0.848242	1.577732
0.848340	1.581309
0.848437	1.594486
0.848535	1.603002
0.848633	1.605932
0.848730	1.599293
0.848828	1.589658
0.848926	1.575205
0.849023	1.564057
0.849121	1.553490
0.849219	1.552077
0.849316	1.563628
0.849414	1.570453
0.849512	1.575856
0.849609	1.577948
0.849707	1.566938
0.849805	1.558405
0.849902	1.552494
0.850000	1.542507
0.850098	1.541508
0.850195	1.548848
0.850293	1.562886
0.850391	1.564921
0.850488	1.543971
0.850586	1.526345
0.850684	1.528213
0.850781	1.515059
0.850879	1.545272
0.850977	1.566601
0.851074	1.553828
0.851172	1.557838
0.851270	1.567128
0.851367	1.593050
0.851465	1.600290
0.851562	1.591942
0.851660	1.591245
0.851758	1.592901
0.851855	1.579145
0.851953	1.558155
0.852051	1.560567
0.852148	1.552894
0.852246	1.564430
0.852344	1.579527
0.852441	1.586967
0.852539	1.590905
0.852637	1.594860
0.852734	1.585918
0.852832	1.577918
0.852930	1.568191
0.853027	1.554037
0.853125	1.531485
0.853223	1.512347
0.853320	1.514968
0.853418	1.517713
0.853516	1.518922
0.853613	1.530043
0.853711	1.553308
0.853809	1.573880
0.853906	1.586566
0.854004	1.570958
0.854102	1.583529
0.854199	1.583044
0.854297	1.561056
0.854395	1.564611
0.854492	1.560860
0.854590	1.565414
0.854687	1.570468
0.854785	1.551764
0.854883	1.547572
0.854980	1.551872
0.855078	1.542765
0.855176	1.535073
0.855273	1.533404
0.855371	1.542622
0.855469	1.536705
0.855566	1.521654
0.855664	1.542601
0.855762	1.564359
0.855859	1.567693
0.855957	1.556569
0.856055	1.552945
0.856152	1.554741
0.856250	1.549531
0.856348	1.543873
0.856445	1.554056
0.856543	1.559193
0.856641	1.557398
0.856738	1.561214
0.856836	1.555880
0.856934	1.555032
0.857031	1.562839
0.857129	1.564404
0.857227	1.555944
0.857324	1.546961
0.857422	1.551582
0.857520	1.555210
0.857617	1.571104
0.857715	1.577400
0.857812	1.575230
0.857910	1.579532
0.858008	1.578710
0.858105	1.570912
0.858203	1.546569
0.858301	1.536305
0.858398	1.552751
0.858496	1.568481
0.858594	1.551698
0.858691	1.541256
0.858789	1.517806
0.858887	1.521972
0.858984	1.557585
0.859082	1.559792
0.859180	1.554352
0.859277	1.528631
0.859375	1.516801
0.859473	1.544537
0.859570	1.542929
0.859668	1.547974
0.859766	1.561042
0.859863	1.573929
0.859961	1.587400
0.860059	1.594792
0.860156	1.588740
0.860254	1.582329
0.860352	1.567157
0.860449	1.561422
0.860547	1.557911
0.860645	1.543418
0.860742	1.543237
0.860840	1.544468
0.860937	1.544499
0.861035	1.537853
0.861133	1.530040
0.861230	1.524863
0.861328	1.519319
0.861426	1.519839
0.861523	1.542589
0.861621	1.540347
0.861719	1.521047
0.861816	1.524412
0.861914	1.532475
0.862012	1.531726
0.862109	1.535885
0.862207	1.525031
0.862305	1.516812
0.862402	1.539032
0.862500	1.547412
0.862598	1.533073
0.862695	1.546398
0.862793	1.551554
0.862891	1.563548
0.862988	1.567761
0.863086	1.570458
0.863184	1.569624
0.863281	1.568507
0.863379	1.564854
0.863477	1.561394
0.863574	1.583455
0.863672	1.577201
0.863770	1.571867
0.863867	1.547755
0.863965	1.548726
0.864062	1.547664
0.864160	1.574937
0.864258	1.586760
0.864355	1.582276
0.864453	1.598333
0.864551	1.603819
0.864648	1.588908
0.864746	1.572104
0.864844	1.553177
0.864941	1.538904
0.865039	1.539336
0.865137	1.531224
0.865234	1.523563
0.865332	1.527412
0.865430	1.538649
0.865527	1.541511
0.865625	1.565154
0.865723	1.561081
0.865820	1.569802
0.865918	1.564772
0.866016	1.547970
0.866113	1.535239
0.866211	1.519227
0.866309	1.517154
0.866406	1.528523
0.866504	1.535591
0.866602	1.526548
0.866699	1.506548
0.866797	1.490634
0.866895	1.527988
0.866992	1.522646
0.867090	1.521864
0.867187	1.538456
0.867285	1.585900
0.867383	1.596232
0.867480	1.562042
0.867578	1.550833
0.867676	1.557338
0.867773	1.576869
0.867871	1.577072
0.867969	1.574682
0.868066	1.574883
0.868164	1.571786
0.868262	1.563979
0.868359	1.558750
0.868457	1.564246
0.868555	1.573218
0.868652	1.555523
0.868750	1.560501
0.868848	1.573164
0.868945	1.560864
0.869043	1.548356
0.869141	1.534666
0.869238	1.548889
0.869336	1.552453
0.869434	1.544807
0.869531	1.538851
0.869629	1.559471
0.869727	1.584096
0.869824	1.595492
0.869922	1.613979
0.870020	1.609693
0.870117	1.593131
0.870215	1.585366
0.870312	1.575061
0.870410	1.565960
0.870508	1.570295
0.870605	1.573159
0.870703	1.572902
0.870801	1.563133
0.870898	1.552727
0.870996	1.530992
0.871094	1.525672
0.871191	1.524180
0.871289	1.541180
0.871387	1.533146
0.871484	1.550006
0.871582	1.578773
0.871680	1.596266
0.871777	1.603860
0.871875	1.606322
0.871973	1.603957
0.872070	1.576925
0.872168	1.558502
0.872266	1.562375
0.872363	1.571216
0.872461	1.568759
0.872559	1.575715
0.872656	1.579358
0.872754	1.569192
0.872852	1.567088
0.872949	1.565829
0.873047	1.552680
0.873145	1.554209
0.873242	1.555145
0.873340	1.552383
0.873437	1.555148
0.873535	1.554600
0.873633	1.548793
0.873730	1.549041
0.873828	1.537554
0.873926	1.555458
0.874023	1.583035
0.874121	1.587206
0.874219	1.588182
0.874316	1.590182
0.874414	1.584805
0.874512	1.567230
0.874609	1.548659
0.874707	1.541843
0.874805	1.537456
0.874902	1.527005
0.875000	1.526128
0.875098	1.530060
0.875195	1.536471
0.875293	1.545206
0.875391	1.552172
0.875488	1.569990
0.875586	1.598754
0.875684	1.600115
0.875781	1.591730
0.875879	1.585488
0.875977	1.575925
0.876074	1.573938
0.876172	1.585219
0.876270	1.587491
0.876367	1.571980
0.876465	1.561931
0.876562	1.574153
0.876660	1.571091
0.876758	1.558538
0.876855	1.547935
0.876953	1.527905
0.877051	1.528137
0.877148	1.542400
0.877246	1.543806
0.877344	1.572970
0.877441	1.592255
0.877539	1.585868
0.877637	1.580265
0.877734	1.573404
0.877832	1.562953
0.877930	1.552095
0.878027	1.563875
0.878125	1.568136
0.878223	1.546987
0.878320	1.523769
0.878418	1.523431
0.878516	1.536868
0.878613	1.553435
0.878711	1.564265
0.878809	1.555736
0.878906	1.537387
0.879004	1.517984
0.879102	1.485749
0.879199	1.478170
0.879297	1.492321
0.879395	1.487509
0.879492	1.480885
0.879590	1.482985
0.879687	1.512213
0.879785	1.533260
0.879883	1.540324
0.879980	1.547239
0.880078	1.560344
0.880176	1.557718
0.880273	1.556832
0.880371	1.551743
0.880469	1.539060
0.880566	1.530161
0.880664	1.523293
0.880762	1.513991
0.880859	1.500546
0.880957	1.514019
0.881055	1.514442
0.881152	1.499367
0.881250	1.489387
0.881348	1.483762
0.881445	1.490937
0.881543	1.513485
0.881641	1.534960
0.881738	1.545354
0.881836	1.545185
0.881934	1.543788
0.882031	1.550072
0.882129	1.546205
0.882227	1.548337
0.882324	1.532989
0.882422	1.533071
0.882520	1.521884
0.882617	1.519656
0.882715	1.539100
0.882812	1.530701
0.882910	1.522362
0.883008	1.518252
0.883105	1.521795
0.883203	1.556837
0.883301	1.594313
0.883398	1.611025
0.883496	1.604289
0.883594	1.589285
0.883691	1.584851
0.883789	1.587974
0.883887	1.570323
0.883984	1.561420
0.884082	1.545714
0.884180	1.551273
0.884277	1.565785
0.884375	1.567603
0.884473	1.588093
0.884570	1.568091
0.884668	1.573977
0.884766	1.575991
0.884863	1.574699
0.884961	1.555427
0.885059	1.545321
0.885156	1.546151
0.885254	1.554842
0.885352	1.574582
0.885449	1.562743
0.885547	1.567400
0.885645	1.561154
0.885742	1.545425
0.885840	1.541542
0.885937	1.547261
0.886035	1.542728
0.886133	1.556248
0.886230	1.585064
0.886328	1.598227
0.886426	1.590666
0.886523	1.568298
0.886621	1.545700
0.886719	1.521573
0.886816	1.531397
0.886914	1.548056
0.887012	1.550594
0.887109	1.550084
0.887207	1.573472
0.887305	1.608212
0.887402	1.603675
0.887500	1.580596
0.887598	1.573611
0.887695	1.560195
0.887793	1.556711
0.887891	1.573157
0.887988	1.584089
0.888086	1.578932
0.888184	1.564377
0.888281	1.561610
0.888379	1.545958
0.888477	1.532720
0.888574	1.528060
0.888672	1.536880
0.888770	1.556048
0.888867	1.555066
0.888965	1.546407
0.889062	1.536149
0.889160	1.523124
0.889258	1.516771
0.889355	1.523035
0.889453	1.534389
0.889551	1.522131
0.889648	1.523425
0.889746	1.538945
0.889844	1.540234
0.889941	1.531874
0.890039	1.517438
0.890137	1.529315
0.890234	1.563566
0.890332	1.575638
0.890430	1.565070
0.890527	1.555224
0.890625	1.544735
0.890723	1.544042
0.890820	1.540673
0.890918	1.546733
0.891016	1.552332
0.891113	1.538064
0.891211	1.526659
0.891309	1.517668
0.891406	1.513651
0.891504	1.512668
0.891602	1.507647
0.891699	1.505274
0.891797	1.501968
0.891895	1.496198
0.891992	1.524074
0.892090	1.547902
0.892187	1.558587
0.892285	1.568030
0.892383	1.567260
0.892480	1.556531
0.892578	1.558227
0.892676	1.564780
0.892773	1.547204
0.892871	1.536737
0.892969	1.526879
0.893066	1.527072
0.893164	1.529198
0.893262	1.524273
0.893359	1.524498
0.893457	1.529980
0.893555	1.542890
0.893652	1.546013
0.893750	1.537291
0.893848	1.526589
0.893945	1.525491
0.894043	1.535544
0.894141	1.565111
0.894238	1.575828
0.894336	1.579010
0.894434	1.564329
0.894531	1.534479
0.894629	1.520707
0.894727	1.515102
0.894824	1.516649
0.894922	1.549917
0.895020	1.567542
0.895117	1.552934
0.895215	1.564895
0.895312	1.564912
0.895410	1.551120
0.895508	1.543156
0.895605	1.548298
0.895703	1.564650
0.895801	1.561920
0.895898	1.541554
0.895996	1.526074
0.896094	1.525182
0.896191	1.542220
0.896289	1.544795
0.896387	1.534276
0.896484	1.541465
0.896582	1.563095
0.896680	1.553648
0.896777	1.546075
0.896875	1.529648
0.896973	1.542008
0.897070	1.552132
0.897168	1.542960
0.897266	1.534610
0.897363	1.547990
0.897461	1.581511
0.897559	1.590793
0.897656	1.584778
0.897754	1.562385
0.897852	1.540979
0.897949	1.529716
0.898047	1.528524
0.898145	1.532789
0.898242	1.530319
0.898340	1.537305
0.898437	1.546766
0.898535	1.546885
0.898633	1.557538
0.898730	1.570956
0.898828	1.582934
0.898926	1.566323
0.899023	1.560262
0.899121	1.567471
0.899219	1.563923
0.899316	1.563792
0.899414	1.566363
0.899512	1.564804
0.899609	1.559357
0.899707	1.565869
0.899805	1.587313
0.899902	1.586938
0.900000	1.562562
0.900098	1.583045
0.900195	1.573375
0.900293	1.584945
0.900391	1.608600
0.900488	1.592048
0.900586	1.582595
0.900684	1.577863
0.900781	1.581550
0.900879	1.577074
0.900977	1.554238
0.901074	1.552740
0.901172	1.567327
0.901270	1.571955
0.901367	1.581218
0.901465	1.577387
0.901562	1.567853
0.901660	1.563919
0.901758	1.555892
0.901855	1.557172
0.901953	1.564343
0.902051	1.558675
0.902148	1.554057
0.902246	1.564616
0.902344	1.577775
0.902441	1.582553
0.902539	1.578794
0.902637	1.569293
0.902734	1.549925
0.902832	1.536093
0.902930	1.543784
0.903027	1.540371
0.903125	1.534276
0.903223	1.548557
0.903320	1.570634
0.903418	1.555400
0.903516	1.555951
0.903613	1.544529
0.903711	1.520135
0.903809	1.516410
0.903906	1.520511
0.904004	1.516608
0.904102	1.544436
0.904199	1.574537
0.904297	1.578008
0.904395	1.595479
0.904492	1.604437
0.904590	1.614121
0.904687	1.602499
0.904785	1.590639
0.904883	1.573736
0.904980	1.565733
0.905078	1.562397
0.905176	1.561710
0.905273	1.563852
0.905371	1.562484
0.905469	1.566036
0.905566	1.568794
0.905664	1.558562
0.905762	1.540999
0.905859	1.534907
0.905957	1.534465
0.906055	1.523609
0.906152	1.504006
0.906250	1.496320
0.906348	1.500159
0.906445	1.505754
0.906543	1.504462
0.906641	1.495871
0.906738	1.521313
0.906836	1.541392
0.906934	1.536364
0.907031	1.531457
0.907129	1.522539
0.907227	1.535155
0.907324	1.532279
0.907422	1.529447
0.907520	1.525923
0.907617	1.527132
0.907715	1.537165
0.907812	1.536993
0.907910	1.547273
0.908008	1.548832
0.908105	1.548043
0.908203	1.545781
0.908301	1.541458
0.908398	1.528644
0.908496	1.519038
0.908594	1.513584
0.908691	1.515788
0.908789	1.505742
0.908887	1.513893
0.908984	1.515171
0.909082	1.529489
0.909180	1.552924
0.909277	1.536647
0.909375	1.528918
0.909473	1.521267
0.909570	1.520320
0.909668	1.520185
0.909766	1.530917
0.909863	1.563703
0.909961	1.575051
0.910059	1.572273
0.910156	1.569805
0.910254	1.557477
0.910352	1.553314
0.910449	1.553815
0.910547	1.550437
0.910645	1.553888
0.910742	1.546964
0.910840	1.540894
0.910937	1.563038
0.911035	1.558578
0.911133	1.546968
0.911230	1.556440
0.911328	1.547866
0.911426	1.535483
0.911523	1.527169
0.911621	1.529096
0.911719	1.533350
0.911816	1.530918
0.911914	1.527200
0.912012	1.517028
0.912109	1.511477
0.912207	1.508476
0.912305	1.512966
0.912402	1.524160
0.912500	1.538823
0.912598	1.545935
0.912695	1.552131
0.912793	1.557915
0.912891	1.558386
0.912988	1.558168
0.913086	1.571319
0.913184	1.571747
0.913281	1.560205
0.913379	1.543093
0.913477	1.528191
0.913574	1.526479
0.913672	1.524245
0.913770	1.524558
0.913867	1.523584
0.913965	1.530439
0.914062	1.530370
0.914160	1.541857
0.914258	1.544448
0.914355	1.527632
0.914453	1.517300
0.914551	1.495791
0.914648	1.497035
0.914746	1.509521
0.914844	1.519688
0.914941	1.518020
0.915039	1.530170
0.915137	1.534942
0.915234	1.533368
0.915332	1.547567
0.915430	1.563653
0.915527	1.561022
0.915625	1.554590
0.915723	1.552117
0.915820	1.552245
0.915918	1.571692
0.916016	1.555201
0.916113	1.539145
0.916211	1.523848
0.916309	1.524447
0.916406	1.534809
0.916504	1.526601
0.916602	1.534269
0.916699	1.532508
0.916797	1.534940
0.916895	1.542003
0.916992	1.537859
0.917090	1.516607
0.917187	1.504223
0.917285	1.495037
0.917383	1.505295
0.917480	1.537051
0.917578	1.542683
0.917676	1.540767
0.917773	1.547342
0.917871	1.552744
0.917969	1.560371
0.918066	1.542849
0.918164	1.530088
0.918262	1.545233
0.918359	1.535539
0.918457	1.532628
0.918555	1.539933
0.918652	1.537974
0.918750	1.560018
0.918848	1.585935
0.918945	1.579604
0.919043	1.569826
0.919141	1.566445
0.919238	1.556665
0.919336	1.546873
0.919434	1.540732
0.919531	1.524672
0.919629	1.519706
0.919727	1.539001
0.919824	1.555187
0.919922	1.549482
0.920020	1.533947
0.920117	1.529446
0.920215	1.519200
0.920312	1.521139
0.920410	1.537043
0.920508	1.576092
0.920605	1.605493
0.920703	1.602405
0.920801	1.587761
0.920898	1.571649
0.920996	1.547044
0.921094	1.550567
0.921191	1.553467
0.921289	1.547441
0.921387	1.538145
0.921484	1.556486
0.921582	1.548419
0.921680	1.516539
0.921777	1.528593
0.921875	1.531300
0.921973	1.530044
0.922070	1.523870
0.922168	1.511926
0.922266	1.509463
0.922363	1.531851
0.922461	1.571829
0.922559	1.588219
0.922656	1.587412
0.922754	1.578612
0.922852	1.582483
0.922949	1.565273
0.923047	1.580110
0.923145	1.602483
0.923242	1.588136
0.923340	1.573699
0.923437	1.569673
0.923535	1.567864
0.923633	1.563856
0.923730	1.561066
0.923828	1.555638
0.923926	1.565918
0.924023	1.566327
0.924121	1.567282
0.924219	1.586239
0.924316	1.570247
0.924414	1.557496
0.924512	1.548170
0.924609	1.540275
0.924707	1.534510
0.924805	1.566056
0.924902	1.602510
0.925000	1.607333
0.925098	1.618835
0.925195	1.616798
0.925293	1.612850
0.925391	1.604572
0.925488	1.591349
0.925586	1.576391
0.925684	1.565708
0.925781	1.548666
0.925879	1.546642
0.925977	1.545707
0.926074	1.549543
0.926172	1.560509
0.926270	1.552417
0.926367	1.541756
0.926465	1.527051
0.926562	1.517839
0.926660	1.524213
0.926758	1.554197
0.926855	1.559561
0.926953	1.586204
0.927051	1.597856
0.927148	1.583121
0.927246	1.582133
0.927344	1.582963
0.927441	1.577213
0.927539	1.568334
0.927637	1.561408
0.927734	1.541824
0.927832	1.528441
0.927930	1.521656
0.928027	1.515486
0.928125	1.529373
0.928223	1.534283
0.928320	1.559506
0.928418	1.594928
0.928516	1.601233
0.928613	1.583040
0.928711	1.572630
0.928809	1.568520
0.928906	1.574555
0.929004	1.576083
0.929102	1.579890
0.929199	1.591138
0.929297	1.585332
0.929395	1.570377
0.929492	1.571005
0.929590	1.567312
0.929687	1.565414
0.929785	1.566473
0.929883	1.566792
0.929980	1.568332
0.930078	1.569844
0.930176	1.565115
0.930273	1.561600
0.930371	1.551847
0.930469	1.546602
0.930566	1.534331
0.930664	1.535688
0.930762	1.552852
0.930859	1.594432
0.930957	1.624845
0.931055	1.619961
0.931152	1.616504
0.931250	1.598861
0.931348	1.580235
0.931445	1.571456
0.931543	1.572764
0.931641	1.564351
0.931738	1.560420
0.931836	1.565436
0.931934	1.554650
0.932031	1.539510
0.932129	1.533243
0.932227	1.532566
0.932324	1.535582
0.932422	1.539463
0.932520	1.526034
0.932617	1.510581
0.932715	1.505345
0.932812	1.500982
0.932910	1.498002
0.933008	1.522546
0.933105	1.547898
0.933203	1.545128
0.933301	1.545698
0.933398	1.555313
0.933496	1.554601
0.933594	1.539945
0.933691	1.535053
0.933789	1.549376
0.933887	1.577459
0.933984	1.583333
0.934082	1.579015
0.934180	1.583411
0.934277	1.591763
0.934375	1.584275
0.934473	1.574873
0.934570	1.566264
0.934668	1.548313
0.934766	1.531097
0.934863	1.506993
0.934961	1.497780
0.935059	1.512041
0.935156	1.508762
0.935254	1.509677
0.935352	1.518726
0.935449	1.538363
0.935547	1.545907
0.935645	1.538828
0.935742	1.543101
0.935840	1.545512
0.935937	1.540026
0.936035	1.542154
0.936133	1.538316
0.936230	1.524686
0.936328	1.530760
0.936426	1.562152
0.936523	1.590242
0.936621	1.596418
0.936719	1.581209
0.936816	1.579004
0.936914	1.590495
0.937012	1.583314
0.937109	1.596734
0.937207	1.577938
0.937305	1.539419
0.937402	1.540095
0.937500	1.557917
0.937598	1.549825
0.937695	1.548596
0.937793	1.552353
0.937891	1.560512
0.937988	1.556909
0.938086	1.556616
0.938184	1.546121
0.938281	1.534707
0.938379	1.523197
0.938477	1.523092
0.938574	1.537480
0.938672	1.538270
0.938770	1.544505
0.938867	1.545216
0.938965	1.535863
0.939062	1.541130
0.939160	1.558886
0.939258	1.544482
0.939355	1.560473
0.939453	1.577234
0.939551	1.588934
0.939648	1.570917
0.939746	1.563979
0.939844	1.580795
0.939941	1.583359
0.940039	1.579684
0.940137	1.555354
0.940234	1.537368
0.940332	1.528431
0.940430	1.527490
0.940527	1.534052
0.940625	1.542601
0.940723	1.550356
0.940820	1.550374
0.940918	1.528976
0.941016	1.518259
0.941113	1.526324
0.941211	1.530559
0.941309	1.540696
0.941406	1.550623
0.941504	1.537025
0.941602	1.522214
0.941699	1.509626
0.941797	1.512318
0.941895	1.519863
0.941992	1.528240
0.942090	1.531492
0.942187	1.530189
0.942285	1.509269
0.942383	1.489597
0.942480	1.489689
0.942578	1.499090
0.942676	1.493866
0.942773	1.488613
0.942871	1.504402
0.942969	1.537752
0.943066	1.542232
0.943164	1.545200
0.943262	1.568520
0.943359	1.576378
0.943457	1.602893
0.943555	1.597777
0.943652	1.567423
0.943750	1.573327
0.943848	1.568976
0.943945	1.559392
0.944043	1.563935
0.944141	1.550536
0.944238	1.539098
0.944336	1.534342
0.944434	1.551595
0.944531	1.568296
0.944629	1.565055
0.944727	1.578478
0.944824	1.598709
0.944922	1.594600
0.945020	1.595069
0.945117	1.596998
0.945215	1.593441
0.945312	1.590475
0.945410	1.581100
0.945508	1.562130
0.945605	1.544665
0.945703	1.526981
0.945801	1.518884
0.945898	1.523537
0.945996	1.522952
0.946094	1.528381
0.946191	1.553560
0.946289	1.556965
0.946387	1.555162
0.946484	1.553642
0.946582	1.547862
0.946680	1.540853
0.946777	1.539837
0.946875	1.552287
0.946973	1.563969
0.947070	1.571338
0.947168	1.574558
0.947266	1.567415
0.947363	1.571014
0.947461	1.571087
0.947559	1.552214
0.947656	1.520171
0.947754	1.513015
0.947852	1.522192
0.947949	1.535342
0.948047	1.537933
0.948145	1.550974
0.948242	1.538450
0.948340	1.537435
0.948437	1.536590
0.948535	1.532296
0.948633	1.518188
0.948730	1.522825
0.948828	1.521028
0.948926	1.515783
0.949023	1.519674
0.949121	1.525531
0.949219	1.545152
0.949316	1.562945
0.949414	1.578857
0.949512	1.596414
0.949609	1.607445
0.949707	1.602154
0.949805	1.588710
0.949902	1.572977
0.950000	1.553782
0.950098	1.559006
0.950195	1.562801
0.950293	1.541948
0.950391	1.530715
0.950488	1.538293
0.950586	1.544301
0.950684	1.539984
0.950781	1.535692
0.950879	1.534650
0.950977	1.540713
0.951074	1.549465
0.951172	1.547731
0.951270	1.538497
0.951367	1.529141
0.951465	1.520286
0.951562	1.518928
0.951660	1.520591
0.951758	1.521369
0.951855	1.523282
0.951953	1.515484
0.952051	1.519758
0.952148	1.537124
0.952246	1.543098
0.952344	1.555448
0.952441	1.572958
0.952539	1.567647
0.952637	1.552153
0.952734	1.528076
0.952832	1.505388
0.952930	1.506819
0.953027	1.537123
0.953125	1.548035
0.953223	1.527083
0.953320	1.531108
0.953418	1.546093
0.953516	1.543362
0.953613	1.536351
0.953711	1.521345
0.953809	1.521103
0.953906	1.539405
0.954004	1.564512
0.954102	1.558119
0.954199	1.580266
0.954297	1.598377
0.954395	1.589214
0.954492	1.572719
0.954590	1.563812
0.954687	1.563274
0.954785	1.565138
0.954883	1.570954
0.954980	1.580263
0.955078	1.568303
0.955176	1.566965
0.955273	1.575176
0.955371	1.569336
0.955469	1.569867
0.955566	1.556423
0.955664	1.559182
0.955762	1.558944
0.955859	1.574207
0.955957	1.580014
0.956055	1.592585
0.956152	1.582786
0.956250	1.567123
0.956348	1.557831
0.956445	1.543852
0.956543	1.537374
0.956641	1.526713
0.956738	1.509565
0.956836	1.505268
0.956934	1.512683
0.957031	1.514873
0.957129	1.530702
0.957227	1.527085
0.957324	1.515685
0.957422	1.510364
0.957520	1.509480
0.957617	1.513461
0.957715	1.511318
0.957812	1.517707
0.957910	1.538824
0.958008	1.568141
0.958105	1.567989
0.958203	1.552692
0.958301	1.541995
0.958398	1.548320
0.958496	1.551211
0.958594	1.555213
0.958691	1.549786
0.958789	1.543886
0.958887	1.535748
0.958984	1.543818
0.959082	1.551905
0.959180	1.566805
0.959277	1.572670
0.959375	1.582547
0.959473	1.606820
0.959570	1.604403
0.959668	1.603847
0.959766	1.607989
0.959863	1.618218
0.959961	1.616002
0.960059	1.595057
0.960156	1.571375
0.960254	1.576320
0.960352	1.567718
0.960449	1.558843
0.960547	1.560703
0.960645	1.565340
0.960742	1.558761
0.960840	1.544415
0.960937	1.541063
0.961035	1.534395
0.961133	1.516106
0.961230	1.505963
0.961328	1.508081
0.961426	1.527391
0.961523	1.556568
0.961621	1.565059
0.961719	1.539073
0.961816	1.542104
0.961914	1.551320
0.962012	1.532885
0.962109	1.527362
0.962207	1.542854
0.962305	1.558253
0.962402	1.561819
0.962500	1.548492
0.962598	1.543285
0.962695	1.564121
0.962793	1.568454
0.962891	1.559038
0.962988	1.561920
0.963086	1.575745
0.963184	1.560424
0.963281	1.545319
0.963379	1.543001
0.963477	1.547018
0.963574	1.560084
0.963672	1.558407
0.963770	1.562125
0.963867	1.567664
0.963965	1.553934
0.964062	1.557947
0.964160	1.578490
0.964258	1.595705
0.964355	1.594836
0.964453	1.594828
0.964551	1.595891
0.964648	1.584587
0.964746	1.572791
0.964844	1.583116
0.964941	1.591181
0.965039	1.589222
0.965137	1.576836
0.965234	1.552411
0.965332	1.525863
0.965430	1.503677
0.965527	1.503315
0.965625	1.504812
0.965723	1.505562
0.965820	1.512419
0.965918	1.533877
0.966016	1.541200
0.966113	1.533468
0.966211	1.514733
0.966309	1.514270
0.966406	1.519350
0.966504	1.508911
0.966602	1.512908
0.966699	1.524517
0.966797	1.534964
0.966895	1.528655
0.966992	1.523883
0.967090	1.515293
0.967187	1.515825
0.967285	1.523933
0.967383	1.520344
0.967480	1.522424
0.967578	1.526713
0.967676	1.513438
0.967773	1.514928
0.967871	1.525952
0.967969	1.527764
0.968066	1.523127
0.968164	1.511100
0.968262	1.507411
0.968359	1.525036
0.968457	1.531533
0.968555	1.530197
0.968652	1.522873
0.968750	1.523175
0.968848	1.519401
0.968945	1.525802
0.969043	1.532719
0.969141	1.545564
0.969238	1.552734
0.969336	1.546065
0.969434	1.535672
0.969531	1.543726
0.969629	1.565686
0.969727	1.572057
0.969824	1.576421
0.969922	1.584368
0.970020	1.581045
0.970117	1.563042
0.970215	1.556780
0.970312	1.552297
0.970410	1.550421
0.970508	1.549486
0.970605	1.548836
0.970703	1.568562
0.970801	1.593338
0.970898	1.570580
0.970996	1.550176
0.971094	1.535449
0.971191	1.542866
0.971289	1.542077
0.971387	1.543749
0.971484	1.566217
0.971582	1.591588
0.971680	1.591359
0.971777	1.599968
0.971875	1.588142
0.971973	1.574955
0.972070	1.569807
0.972168	1.549526
0.972266	1.533495
0.972363	1.532194
0.972461	1.537674
0.972559	1.540357
0.972656	1.548505
0.972754	1.553915
0.972852	1.564821
0.972949	1.577171
0.973047	1.571535
0.973145	1.574056
0.973242	1.576925
0.973340	1.570300
0.973437	1.583886
0.973535	1.588306
0.973633	1.575158
0.973730	1.567811
0.973828	1.558214
0.973926	1.560331
0.974023	1.581680
0.974121	1.571902
0.974219	1.541246
0.974316	1.533753
0.974414	1.543657
0.974512	1.557076
0.974609	1.591696
0.974707	1.595689
0.974805	1.580497
0.974902	1.587569
0.975000	1.583859
0.975098	1.563081
0.975195	1.553701
0.975293	1.553128
0.975391	1.547588
0.975488	1.533368
0.975586	1.514216
0.975684	1.517194
0.975781	1.550794
0.975879	1.587128
0.975977	1.584171
0.976074	1.578977
0.976172	1.565455
0.976270	1.566689
0.976367	1.568633
0.976465	1.563121

