LabVIEW Measurement	
Writer_Version	2
Reader_Version	2
Separator	Tab
Decimal_Separator	.
Multi_Headings	Yes
X_Columns	One
Time_Pref	Absolute
Operator	W-Tunnel
Date	1904/01/01
Time	01:00:00
***End_of_Header***	
	
Channels	1	
Samples	10000	
Date	2024/05/17	
Time	18:31:57.8959067562495485079	
Y_Unit_Label	Volts	
X_Dimension	Time	
X0	0.0000000000000000E+0	
Delta_X	9.765625E-5	
***End_of_Header***		
X_Value	Voltage	Comment
0.000000	1.683698
9.765625E-5	1.687117
0.000195	1.689639
0.000293	1.681973
0.000391	1.678518
0.000488	1.677490
0.000586	1.679735
0.000684	1.674696
0.000781	1.667497
0.000879	1.662984
0.000977	1.660393
0.001074	1.656960
0.001172	1.653096
0.001270	1.647999
0.001367	1.634177
0.001465	1.596017
0.001562	1.594329
0.001660	1.556369
0.001758	1.569082
0.001855	1.586091
0.001953	1.578131
0.002051	1.554658
0.002148	1.549556
0.002246	1.592507
0.002344	1.608325
0.002441	1.588135
0.002539	1.572105
0.002637	1.586169
0.002734	1.607015
0.002832	1.642009
0.002930	1.639790
0.003027	1.649950
0.003125	1.647189
0.003223	1.642311
0.003320	1.643094
0.003418	1.647186
0.003516	1.653631
0.003613	1.658330
0.003711	1.661705
0.003809	1.663360
0.003906	1.682134
0.004004	1.668962
0.004102	1.645666
0.004199	1.666179
0.004297	1.675764
0.004395	1.658610
0.004492	1.648467
0.004590	1.620603
0.004687	1.615705
0.004785	1.621335
0.004883	1.636547
0.004980	1.627683
0.005078	1.649794
0.005176	1.667798
0.005273	1.647383
0.005371	1.652345
0.005469	1.667182
0.005566	1.661560
0.005664	1.653229
0.005762	1.653353
0.005859	1.652989
0.005957	1.655036
0.006055	1.656420
0.006152	1.658682
0.006250	1.660308
0.006348	1.661813
0.006445	1.661730
0.006543	1.660936
0.006641	1.659399
0.006738	1.658207
0.006836	1.657443
0.006934	1.657451
0.007031	1.658019
0.007129	1.659197
0.007227	1.661031
0.007324	1.663627
0.007422	1.666309
0.007520	1.667538
0.007617	1.667753
0.007715	1.669659
0.007812	1.671948
0.007910	1.674798
0.008008	1.679001
0.008105	1.681942
0.008203	1.684746
0.008301	1.689524
0.008398	1.691800
0.008496	1.695268
0.008594	1.685416
0.008691	1.673151
0.008789	1.691408
0.008887	1.651466
0.008984	1.634074
0.009082	1.669732
0.009180	1.692429
0.009277	1.691716
0.009375	1.696153
0.009473	1.646228
0.009570	1.621742
0.009668	1.642497
0.009766	1.644160
0.009863	1.652638
0.009961	1.687322
0.010059	1.684377
0.010156	1.671224
0.010254	1.667760
0.010352	1.669095
0.010449	1.670610
0.010547	1.659203
0.010645	1.631361
0.010742	1.628205
0.010840	1.611842
0.010937	1.614208
0.011035	1.610945
0.011133	1.587553
0.011230	1.608486
0.011328	1.603715
0.011426	1.620945
0.011523	1.647155
0.011621	1.706927
0.011719	1.724041
0.011816	1.688863
0.011914	1.682912
0.012012	1.698554
0.012109	1.651886
0.012207	1.668402
0.012305	1.693453
0.012402	1.671511
0.012500	1.672109
0.012598	1.619708
0.012695	1.629710
0.012793	1.613195
0.012891	1.617734
0.012988	1.627818
0.013086	1.630316
0.013184	1.601650
0.013281	1.580145
0.013379	1.606651
0.013477	1.581773
0.013574	1.590343
0.013672	1.579862
0.013770	1.615697
0.013867	1.609958
0.013965	1.604741
0.014062	1.588695
0.014160	1.568603
0.014258	1.572387
0.014355	1.553266
0.014453	1.546180
0.014551	1.545036
0.014648	1.573024
0.014746	1.609297
0.014844	1.632085
0.014941	1.648308
0.015039	1.629088
0.015137	1.638864
0.015234	1.651858
0.015332	1.660618
0.015430	1.657082
0.015527	1.654679
0.015625	1.652980
0.015723	1.656458
0.015820	1.657022
0.015918	1.659101
0.016016	1.659140
0.016113	1.661667
0.016211	1.661346
0.016309	1.659235
0.016406	1.649209
0.016504	1.631470
0.016602	1.628408
0.016699	1.609314
0.016797	1.598994
0.016895	1.588826
0.016992	1.597230
0.017090	1.602601
0.017187	1.603252
0.017285	1.609575
0.017383	1.596513
0.017480	1.633208
0.017578	1.655332
0.017676	1.651559
0.017773	1.656222
0.017871	1.657775
0.017969	1.659734
0.018066	1.658347
0.018164	1.656994
0.018262	1.655544
0.018359	1.655306
0.018457	1.655673
0.018555	1.657074
0.018652	1.661540
0.018750	1.656007
0.018848	1.656398
0.018945	1.658030
0.019043	1.657805
0.019141	1.659295
0.019238	1.660500
0.019336	1.662589
0.019434	1.664298
0.019531	1.666093
0.019629	1.665795
0.019727	1.663294
0.019824	1.660439
0.019922	1.658201
0.020020	1.656439
0.020117	1.655341
0.020215	1.654560
0.020312	1.654231
0.020410	1.654297
0.020508	1.654682
0.020605	1.655363
0.020703	1.656250
0.020801	1.657257
0.020898	1.658398
0.020996	1.659479
0.021094	1.660599
0.021191	1.661666
0.021289	1.662808
0.021387	1.663729
0.021484	1.664838
0.021582	1.665720
0.021680	1.666629
0.021777	1.667406
0.021875	1.668270
0.021973	1.669146
0.022070	1.670040
0.022168	1.671065
0.022266	1.672127
0.022363	1.673255
0.022461	1.674229
0.022559	1.675308
0.022656	1.676270
0.022754	1.677097
0.022852	1.677703
0.022949	1.678383
0.023047	1.679015
0.023145	1.679738
0.023242	1.680373
0.023340	1.681277
0.023437	1.682040
0.023535	1.683045
0.023633	1.683908
0.023730	1.685157
0.023828	1.686321
0.023926	1.688210
0.024023	1.690815
0.024121	1.694423
0.024219	1.698597
0.024316	1.701288
0.024414	1.693241
0.024512	1.699762
0.024609	1.701395
0.024707	1.711902
0.024805	1.701754
0.024902	1.687357
0.025000	1.688092
0.025098	1.685317
0.025195	1.680833
0.025293	1.676529
0.025391	1.672812
0.025488	1.674097
0.025586	1.679753
0.025684	1.685815
0.025781	1.683486
0.025879	1.679730
0.025977	1.667901
0.026074	1.686011
0.026172	1.703496
0.026270	1.685193
0.026367	1.682642
0.026465	1.680090
0.026562	1.678552
0.026660	1.652234
0.026758	1.628837
0.026855	1.636712
0.026953	1.648905
0.027051	1.657039
0.027148	1.635526
0.027246	1.646466
0.027344	1.663440
0.027441	1.669379
0.027539	1.649663
0.027637	1.641455
0.027734	1.644654
0.027832	1.635365
0.027930	1.645526
0.028027	1.646661
0.028125	1.622696
0.028223	1.654957
0.028320	1.637443
0.028418	1.618610
0.028516	1.632241
0.028613	1.618602
0.028711	1.620432
0.028809	1.602629
0.028906	1.567267
0.029004	1.571667
0.029102	1.571754
0.029199	1.570335
0.029297	1.590351
0.029395	1.611213
0.029492	1.630200
0.029590	1.651210
0.029687	1.623131
0.029785	1.589300
0.029883	1.561436
0.029980	1.549974
0.030078	1.557605
0.030176	1.613790
0.030273	1.605879
0.030371	1.617369
0.030469	1.638110
0.030566	1.608078
0.030664	1.596990
0.030762	1.635906
0.030859	1.654148
0.030957	1.658709
0.031055	1.659784
0.031152	1.654141
0.031250	1.651930
0.031348	1.649489
0.031445	1.648354
0.031543	1.646440
0.031641	1.645751
0.031738	1.644795
0.031836	1.645159
0.031934	1.645034
0.032031	1.645792
0.032129	1.645683
0.032227	1.646792
0.032324	1.647065
0.032422	1.649234
0.032520	1.649886
0.032617	1.653176
0.032715	1.648208
0.032812	1.641993
0.032910	1.655115
0.033008	1.656695
0.033105	1.658908
0.033203	1.659185
0.033301	1.660089
0.033398	1.659234
0.033496	1.659194
0.033594	1.658203
0.033691	1.658866
0.033789	1.658498
0.033887	1.660506
0.033984	1.661445
0.034082	1.665994
0.034180	1.667871
0.034277	1.672734
0.034375	1.679248
0.034473	1.672803
0.034570	1.666772
0.034668	1.683196
0.034766	1.685341
0.034863	1.662591
0.034961	1.667054
0.035059	1.665479
0.035156	1.668344
0.035254	1.668531
0.035352	1.672115
0.035449	1.675547
0.035547	1.681363
0.035645	1.684724
0.035742	1.688502
0.035840	1.692362
0.035937	1.693448
0.036035	1.697467
0.036133	1.702304
0.036230	1.701185
0.036328	1.700122
0.036426	1.700564
0.036523	1.695332
0.036621	1.692212
0.036719	1.690055
0.036816	1.686756
0.036914	1.683706
0.037012	1.680836
0.037109	1.679271
0.037207	1.677439
0.037305	1.675293
0.037402	1.673085
0.037500	1.671047
0.037598	1.669099
0.037695	1.667188
0.037793	1.665365
0.037891	1.663783
0.037988	1.662206
0.038086	1.660737
0.038184	1.659688
0.038281	1.658567
0.038379	1.658051
0.038477	1.657333
0.038574	1.657370
0.038672	1.656898
0.038770	1.657424
0.038867	1.657201
0.038965	1.658196
0.039062	1.658092
0.039160	1.659699
0.039258	1.659035
0.039355	1.661763
0.039453	1.664567
0.039551	1.674138
0.039648	1.665668
0.039746	1.659128
0.039844	1.646496
0.039941	1.635966
0.040039	1.626877
0.040137	1.624350
0.040234	1.603680
0.040332	1.602961
0.040430	1.645046
0.040527	1.652884
0.040625	1.665081
0.040723	1.661928
0.040820	1.666398
0.040918	1.656277
0.041016	1.655081
0.041113	1.679781
0.041211	1.669319
0.041309	1.642911
0.041406	1.610990
0.041504	1.615306
0.041602	1.659848
0.041699	1.663339
0.041797	1.648690
0.041895	1.642238
0.041992	1.634190
0.042090	1.655646
0.042187	1.680275
0.042285	1.667393
0.042383	1.666773
0.042480	1.641298
0.042578	1.661027
0.042676	1.686248
0.042773	1.697973
0.042871	1.696487
0.042969	1.684528
0.043066	1.676525
0.043164	1.669849
0.043262	1.688933
0.043359	1.696932
0.043457	1.704880
0.043555	1.701484
0.043652	1.686840
0.043750	1.683893
0.043848	1.681612
0.043945	1.675837
0.044043	1.674060
0.044141	1.672461
0.044238	1.671677
0.044336	1.671542
0.044434	1.689736
0.044531	1.707258
0.044629	1.707182
0.044727	1.706805
0.044824	1.694383
0.044922	1.699288
0.045020	1.720582
0.045117	1.709914
0.045215	1.698846
0.045312	1.698447
0.045410	1.690476
0.045508	1.679019
0.045605	1.665572
0.045703	1.657071
0.045801	1.651786
0.045898	1.651289
0.045996	1.650325
0.046094	1.629635
0.046191	1.623818
0.046289	1.620906
0.046387	1.634047
0.046484	1.654982
0.046582	1.653835
0.046680	1.658728
0.046777	1.671397
0.046875	1.668956
0.046973	1.658088
0.047070	1.643700
0.047168	1.636311
0.047266	1.635614
0.047363	1.638781
0.047461	1.642427
0.047559	1.641000
0.047656	1.642233
0.047754	1.643839
0.047852	1.647581
0.047949	1.648911
0.048047	1.658957
0.048145	1.669927
0.048242	1.659378
0.048340	1.654526
0.048437	1.654376
0.048535	1.653974
0.048633	1.654229
0.048730	1.654571
0.048828	1.655357
0.048926	1.656091
0.049023	1.657052
0.049121	1.657705
0.049219	1.658406
0.049316	1.658943
0.049414	1.659664
0.049512	1.660127
0.049609	1.660671
0.049707	1.661110
0.049805	1.661633
0.049902	1.662351
0.050000	1.663142
0.050098	1.664050
0.050195	1.664926
0.050293	1.665790
0.050391	1.666520
0.050488	1.667148
0.050586	1.667810
0.050684	1.668369
0.050781	1.669070
0.050879	1.669774
0.050977	1.670775
0.051074	1.671697
0.051172	1.673617
0.051270	1.675968
0.051367	1.684038
0.051465	1.685674
0.051562	1.688185
0.051660	1.688575
0.051758	1.688609
0.051855	1.690922
0.051953	1.690796
0.052051	1.690684
0.052148	1.685357
0.052246	1.687755
0.052344	1.686208
0.052441	1.685953
0.052539	1.674622
0.052637	1.661863
0.052734	1.672542
0.052832	1.675162
0.052930	1.678791
0.053027	1.679331
0.053125	1.680769
0.053223	1.680748
0.053320	1.681744
0.053418	1.681893
0.053516	1.682932
0.053613	1.683405
0.053711	1.684871
0.053809	1.685645
0.053906	1.687908
0.054004	1.690180
0.054102	1.694065
0.054199	1.695027
0.054297	1.696219
0.054395	1.697298
0.054492	1.695373
0.054590	1.695553
0.054687	1.697000
0.054785	1.696728
0.054883	1.696681
0.054980	1.691748
0.055078	1.690429
0.055176	1.673956
0.055273	1.686093
0.055371	1.673701
0.055469	1.665234
0.055566	1.685489
0.055664	1.688378
0.055762	1.689199
0.055859	1.689091
0.055957	1.693223
0.056055	1.685431
0.056152	1.685837
0.056250	1.679185
0.056348	1.663298
0.056445	1.672190
0.056543	1.663462
0.056641	1.685218
0.056738	1.687492
0.056836	1.669150
0.056934	1.666779
0.057031	1.641374
0.057129	1.626677
0.057227	1.624583
0.057324	1.633040
0.057422	1.625729
0.057520	1.629251
0.057617	1.632911
0.057715	1.608565
0.057812	1.591980
0.057910	1.586432
0.058008	1.575806
0.058105	1.611665
0.058203	1.627702
0.058301	1.657266
0.058398	1.704869
0.058496	1.705189
0.058594	1.709033
0.058691	1.683914
0.058789	1.687075
0.058887	1.646284
0.058984	1.658161
0.059082	1.658755
0.059180	1.658926
0.059277	1.665662
0.059375	1.670745
0.059473	1.636046
0.059570	1.628774
0.059668	1.609653
0.059766	1.609378
0.059863	1.599866
0.059961	1.570689
0.060059	1.603101
0.060156	1.624337
0.060254	1.624170
0.060352	1.595416
0.060449	1.541777
0.060547	1.559018
0.060645	1.577027
0.060742	1.562018
0.060840	1.522990
0.060937	1.537670
0.061035	1.598213
0.061133	1.574113
0.061230	1.575076
0.061328	1.571618
0.061426	1.564456
0.061523	1.563531
0.061621	1.547395
0.061719	1.570659
0.061816	1.624568
0.061914	1.607307
0.062012	1.621288
0.062109	1.645445
0.062207	1.645923
0.062305	1.634834
0.062402	1.625376
0.062500	1.625205
0.062598	1.621730
0.062695	1.619997
0.062793	1.603784
0.062891	1.571234
0.062988	1.594598
0.063086	1.582788
0.063184	1.604221
0.063281	1.600559
0.063379	1.604036
0.063477	1.603355
0.063574	1.608740
0.063672	1.610194
0.063770	1.618127
0.063867	1.612343
0.063965	1.610008
0.064062	1.607856
0.064160	1.606697
0.064258	1.604230
0.064355	1.603078
0.064453	1.601618
0.064551	1.601246
0.064648	1.600783
0.064746	1.601261
0.064844	1.601591
0.064941	1.602270
0.065039	1.603086
0.065137	1.604025
0.065234	1.604931
0.065332	1.606053
0.065430	1.607207
0.065527	1.608463
0.065625	1.609799
0.065723	1.611214
0.065820	1.612747
0.065918	1.614343
0.066016	1.616008
0.066113	1.617920
0.066211	1.619874
0.066309	1.621963
0.066406	1.624158
0.066504	1.626618
0.066602	1.629188
0.066699	1.631887
0.066797	1.634727
0.066895	1.637848
0.066992	1.641050
0.067090	1.644435
0.067187	1.647638
0.067285	1.650618
0.067383	1.655531
0.067480	1.658943
0.067578	1.665906
0.067676	1.673075
0.067773	1.661191
0.067871	1.645888
0.067969	1.644012
0.068066	1.648282
0.068164	1.649199
0.068262	1.660892
0.068359	1.679345
0.068457	1.684570
0.068555	1.687708
0.068652	1.686130
0.068750	1.683376
0.068848	1.675303
0.068945	1.678518
0.069043	1.678028
0.069141	1.674508
0.069238	1.671123
0.069336	1.669567
0.069434	1.669719
0.069531	1.670520
0.069629	1.672529
0.069727	1.673355
0.069824	1.674682
0.069922	1.676136
0.070020	1.683453
0.070117	1.692210
0.070215	1.704579
0.070312	1.693571
0.070410	1.669167
0.070508	1.663483
0.070605	1.674821
0.070703	1.696031
0.070801	1.690961
0.070898	1.683274
0.070996	1.668621
0.071094	1.677122
0.071191	1.675883
0.071289	1.679063
0.071387	1.675370
0.071484	1.676375
0.071582	1.669787
0.071680	1.665215
0.071777	1.658486
0.071875	1.665100
0.071973	1.647418
0.072070	1.657742
0.072168	1.715425
0.072266	1.693409
0.072363	1.665343
0.072461	1.683302
0.072559	1.673299
0.072656	1.651639
0.072754	1.655734
0.072852	1.649198
0.072949	1.644172
0.073047	1.622982
0.073145	1.590831
0.073242	1.592809
0.073340	1.626716
0.073437	1.647048
0.073535	1.648442
0.073633	1.658067
0.073730	1.636671
0.073828	1.615870
0.073926	1.606114
0.074023	1.618544
0.074121	1.645416
0.074219	1.626766
0.074316	1.634604
0.074414	1.656161
0.074512	1.662682
0.074609	1.680787
0.074707	1.676007
0.074805	1.681951
0.074902	1.708224
0.075000	1.696268
0.075098	1.681261
0.075195	1.678687
0.075293	1.672183
0.075391	1.669478
0.075488	1.664872
0.075586	1.662027
0.075684	1.659998
0.075781	1.658879
0.075879	1.659475
0.075977	1.658645
0.076074	1.657533
0.076172	1.657136
0.076270	1.656270
0.076367	1.655840
0.076465	1.655297
0.076562	1.655103
0.076660	1.655149
0.076758	1.655864
0.076855	1.657186
0.076953	1.659237
0.077051	1.660415
0.077148	1.669668
0.077246	1.667240
0.077344	1.663930
0.077441	1.663939
0.077539	1.664170
0.077637	1.669181
0.077734	1.673146
0.077832	1.675366
0.077930	1.676284
0.078027	1.677797
0.078125	1.679704
0.078223	1.680855
0.078320	1.680957
0.078418	1.678441
0.078516	1.676427
0.078613	1.673909
0.078711	1.671437
0.078809	1.670537
0.078906	1.669586
0.079004	1.670192
0.079102	1.671370
0.079199	1.674049
0.079297	1.677139
0.079395	1.682744
0.079492	1.687955
0.079590	1.695659
0.079687	1.699392
0.079785	1.695731
0.079883	1.690109
0.079980	1.683341
0.080078	1.677421
0.080176	1.671696
0.080273	1.673535
0.080371	1.673028
0.080469	1.674578
0.080566	1.674869
0.080664	1.678991
0.080762	1.664505
0.080859	1.647953
0.080957	1.659756
0.081055	1.663707
0.081152	1.664276
0.081250	1.664667
0.081348	1.665004
0.081445	1.664945
0.081543	1.664841
0.081641	1.664499
0.081738	1.664369
0.081836	1.664155
0.081934	1.664442
0.082031	1.665122
0.082129	1.666263
0.082227	1.668135
0.082324	1.670829
0.082422	1.673909
0.082520	1.677079
0.082617	1.681089
0.082715	1.685175
0.082812	1.688022
0.082910	1.689871
0.083008	1.691704
0.083105	1.694548
0.083203	1.700684
0.083301	1.700252
0.083398	1.697304
0.083496	1.697813
0.083594	1.695919
0.083691	1.694935
0.083789	1.694438
0.083887	1.695549
0.083984	1.696737
0.084082	1.699069
0.084180	1.700977
0.084277	1.703923
0.084375	1.705963
0.084473	1.709133
0.084570	1.711406
0.084668	1.715076
0.084766	1.716093
0.084863	1.716697
0.084961	1.713920
0.085059	1.719736
0.085156	1.683752
0.085254	1.662433
0.085352	1.672663
0.085449	1.668895
0.085547	1.666063
0.085645	1.666107
0.085742	1.688553
0.085840	1.681990
0.085937	1.669158
0.086035	1.660171
0.086133	1.641557
0.086230	1.641237
0.086328	1.618875
0.086426	1.621808
0.086523	1.634218
0.086621	1.597511
0.086719	1.575969
0.086816	1.604050
0.086914	1.630678
0.087012	1.654438
0.087109	1.675231
0.087207	1.674836
0.087305	1.661246
0.087402	1.643367
0.087500	1.629252
0.087598	1.661754
0.087695	1.697631
0.087793	1.686583
0.087891	1.674264
0.087988	1.666337
0.088086	1.654279
0.088184	1.632478
0.088281	1.621586
0.088379	1.622248
0.088477	1.605940
0.088574	1.581300
0.088672	1.583508
0.088770	1.603498
0.088867	1.617537
0.088965	1.625071
0.089062	1.629120
0.089160	1.641294
0.089258	1.641165
0.089355	1.641819
0.089453	1.640214
0.089551	1.637832
0.089648	1.637615
0.089746	1.636698
0.089844	1.640231
0.089941	1.637285
0.090039	1.626595
0.090137	1.620537
0.090234	1.631627
0.090332	1.627597
0.090430	1.626630
0.090527	1.621774
0.090625	1.622108
0.090723	1.613536
0.090820	1.615621
0.090918	1.634291
0.091016	1.637872
0.091113	1.651156
0.091211	1.628970
0.091309	1.594233
0.091406	1.578604
0.091504	1.559299
0.091602	1.575801
0.091699	1.617056
0.091797	1.617567
0.091895	1.604544
0.091992	1.603410
0.092090	1.596132
0.092187	1.625738
0.092285	1.646550
0.092383	1.653090
0.092480	1.665533
0.092578	1.670486
0.092676	1.673105
0.092773	1.669578
0.092871	1.648860
0.092969	1.656614
0.093066	1.639746
0.093164	1.631282
0.093262	1.637465
0.093359	1.630499
0.093457	1.630429
0.093555	1.627076
0.093652	1.627913
0.093750	1.626588
0.093848	1.627757
0.093945	1.627565
0.094043	1.629183
0.094141	1.629686
0.094238	1.632101
0.094336	1.633756
0.094434	1.638155
0.094531	1.640663
0.094629	1.643352
0.094727	1.636258
0.094824	1.639791
0.094922	1.644765
0.095020	1.645525
0.095117	1.647884
0.095215	1.648110
0.095312	1.648075
0.095410	1.648890
0.095508	1.650578
0.095605	1.659486
0.095703	1.668234
0.095801	1.660440
0.095898	1.662448
0.095996	1.650804
0.096094	1.634172
0.096191	1.617457
0.096289	1.646884
0.096387	1.675342
0.096484	1.665820
0.096582	1.646258
0.096680	1.613167
0.096777	1.619468
0.096875	1.636425
0.096973	1.695408
0.097070	1.686679
0.097168	1.683678
0.097266	1.687974
0.097363	1.684556
0.097461	1.667953
0.097559	1.673405
0.097656	1.679180
0.097754	1.681056
0.097852	1.683109
0.097949	1.683266
0.098047	1.683423
0.098145	1.683053
0.098242	1.683317
0.098340	1.683755
0.098437	1.684678
0.098535	1.685662
0.098633	1.686778
0.098730	1.687919
0.098828	1.689118
0.098926	1.690201
0.099023	1.691502
0.099121	1.693335
0.099219	1.696089
0.099316	1.698149
0.099414	1.699447
0.099512	1.701089
0.099609	1.700543
0.099707	1.700347
0.099805	1.698596
0.099902	1.696834
0.100000	1.696551
0.100098	1.695586
0.100195	1.694851
0.100293	1.694903
0.100391	1.695194
0.100488	1.695490
0.100586	1.695876
0.100684	1.697041
0.100781	1.698169
0.100879	1.700108
0.100977	1.700567
0.101074	1.701728
0.101172	1.702026
0.101270	1.697853
0.101367	1.699742
0.101465	1.697814
0.101562	1.695359
0.101660	1.696266
0.101758	1.709225
0.101855	1.697169
0.101953	1.697857
0.102051	1.679142
0.102148	1.687091
0.102246	1.684924
0.102344	1.691156
0.102441	1.674245
0.102539	1.701648
0.102637	1.713561
0.102734	1.697032
0.102832	1.679626
0.102930	1.660965
0.103027	1.647309
0.103125	1.653783
0.103223	1.674224
0.103320	1.652009
0.103418	1.659294
0.103516	1.652525
0.103613	1.664646
0.103711	1.644094
0.103809	1.667278
0.103906	1.669153
0.104004	1.685116
0.104102	1.676198
0.104199	1.678651
0.104297	1.676405
0.104395	1.670498
0.104492	1.643949
0.104590	1.646759
0.104687	1.662698
0.104785	1.658284
0.104883	1.646911
0.104980	1.652974
0.105078	1.657489
0.105176	1.656643
0.105273	1.657089
0.105371	1.656333
0.105469	1.653193
0.105566	1.650541
0.105664	1.650253
0.105762	1.649367
0.105859	1.654784
0.105957	1.651142
0.106055	1.652797
0.106152	1.650018
0.106250	1.650613
0.106348	1.657443
0.106445	1.643750
0.106543	1.622921
0.106641	1.613983
0.106738	1.625002
0.106836	1.626210
0.106934	1.631279
0.107031	1.630191
0.107129	1.636164
0.107227	1.630988
0.107324	1.612077
0.107422	1.588459
0.107520	1.570777
0.107617	1.566122
0.107715	1.540820
0.107812	1.529131
0.107910	1.549277
0.108008	1.578949
0.108105	1.619807
0.108203	1.622945
0.108301	1.618675
0.108398	1.559938
0.108496	1.508645
0.108594	1.535146
0.108691	1.552060
0.108789	1.537929
0.108887	1.558134
0.108984	1.578734
0.109082	1.587671
0.109180	1.620578
0.109277	1.622666
0.109375	1.599207
0.109473	1.587383
0.109570	1.570492
0.109668	1.543503
0.109766	1.549139
0.109863	1.582597
0.109961	1.621760
0.110059	1.626522
0.110156	1.631622
0.110254	1.631941
0.110352	1.635747
0.110449	1.637522
0.110547	1.642500
0.110645	1.644022
0.110742	1.647198
0.110840	1.649804
0.110937	1.653082
0.111035	1.656169
0.111133	1.658922
0.111230	1.662256
0.111328	1.662943
0.111426	1.668873
0.111523	1.677803
0.111621	1.679271
0.111719	1.678937
0.111816	1.680296
0.111914	1.680818
0.112012	1.679266
0.112109	1.680146
0.112207	1.682112
0.112305	1.684078
0.112402	1.685185
0.112500	1.685701
0.112598	1.686311
0.112695	1.686809
0.112793	1.688274
0.112891	1.690747
0.112988	1.686337
0.113086	1.686773
0.113184	1.688180
0.113281	1.689535
0.113379	1.690346
0.113477	1.691534
0.113574	1.691456
0.113672	1.692121
0.113770	1.692120
0.113867	1.693604
0.113965	1.693247
0.114062	1.694110
0.114160	1.695578
0.114258	1.697696
0.114355	1.675967
0.114453	1.670511
0.114551	1.672406
0.114648	1.656335
0.114746	1.616435
0.114844	1.609849
0.114941	1.611000
0.115039	1.666805
0.115137	1.684262
0.115234	1.646795
0.115332	1.638913
0.115430	1.642773
0.115527	1.654291
0.115625	1.664688
0.115723	1.673621
0.115820	1.657849
0.115918	1.650873
0.116016	1.642572
0.116113	1.653575
0.116211	1.688224
0.116309	1.686033
0.116406	1.678728
0.116504	1.690866
0.116602	1.667082
0.116699	1.658571
0.116797	1.661656
0.116895	1.656776
0.116992	1.653196
0.117090	1.646491
0.117187	1.639038
0.117285	1.691789
0.117383	1.696900
0.117480	1.682734
0.117578	1.677563
0.117676	1.673026
0.117773	1.673133
0.117871	1.671564
0.117969	1.663356
0.118066	1.643075
0.118164	1.652800
0.118262	1.671063
0.118359	1.665922
0.118457	1.667845
0.118555	1.668742
0.118652	1.668008
0.118750	1.667217
0.118848	1.670326
0.118945	1.668671
0.119043	1.663644
0.119141	1.661913
0.119238	1.673190
0.119336	1.682890
0.119434	1.667178
0.119531	1.651783
0.119629	1.643147
0.119727	1.647860
0.119824	1.661775
0.119922	1.664034
0.120020	1.664020
0.120117	1.664256
0.120215	1.662171
0.120312	1.660902
0.120410	1.660008
0.120508	1.660781
0.120605	1.661458
0.120703	1.662455
0.120801	1.660404
0.120898	1.659850
0.120996	1.661731
0.121094	1.662076
0.121191	1.661653
0.121289	1.660675
0.121387	1.659396
0.121484	1.657948
0.121582	1.656767
0.121680	1.656307
0.121777	1.656418
0.121875	1.657318
0.121973	1.659100
0.122070	1.661699
0.122168	1.664405
0.122266	1.666758
0.122363	1.669303
0.122461	1.672151
0.122559	1.672588
0.122656	1.672933
0.122754	1.670763
0.122852	1.666365
0.122949	1.664772
0.123047	1.663390
0.123145	1.662251
0.123242	1.662170
0.123340	1.662531
0.123437	1.662808
0.123535	1.663002
0.123633	1.663253
0.123730	1.663051
0.123828	1.663397
0.123926	1.663638
0.124023	1.664089
0.124121	1.664043
0.124219	1.664638
0.124316	1.665225
0.124414	1.666932
0.124512	1.668587
0.124609	1.671660
0.124707	1.674204
0.124805	1.679439
0.124902	1.684865
0.125000	1.696312
0.125098	1.705216
0.125195	1.709913
0.125293	1.708546
0.125391	1.691999
0.125488	1.677718
0.125586	1.673822
0.125684	1.676262
0.125781	1.672213
0.125879	1.674701
0.125977	1.674266
0.126074	1.667207
0.126172	1.664125
0.126270	1.666539
0.126367	1.666966
0.126465	1.668611
0.126562	1.669354
0.126660	1.670849
0.126758	1.671279
0.126855	1.672170
0.126953	1.672237
0.127051	1.672643
0.127148	1.672640
0.127246	1.672591
0.127344	1.672475
0.127441	1.672436
0.127539	1.672073
0.127637	1.671829
0.127734	1.671460
0.127832	1.671412
0.127930	1.671439
0.128027	1.671877
0.128125	1.672454
0.128223	1.673280
0.128320	1.674291
0.128418	1.675398
0.128516	1.676615
0.128613	1.678322
0.128711	1.680461
0.128809	1.682390
0.128906	1.683629
0.129004	1.685781
0.129102	1.686790
0.129199	1.684167
0.129297	1.689089
0.129395	1.691931
0.129492	1.691780
0.129590	1.687925
0.129687	1.681108
0.129785	1.686587
0.129883	1.692052
0.129980	1.687139
0.130078	1.683769
0.130176	1.676958
0.130273	1.687515
0.130371	1.694776
0.130469	1.678960
0.130566	1.678679
0.130664	1.663442
0.130762	1.676577
0.130859	1.704444
0.130957	1.684069
0.131055	1.663209
0.131152	1.656969
0.131250	1.615850
0.131348	1.556354
0.131445	1.556941
0.131543	1.549155
0.131641	1.541761
0.131738	1.532218
0.131836	1.499468
0.131934	1.520019
0.132031	1.540120
0.132129	1.519710
0.132227	1.611781
0.132324	1.643440
0.132422	1.644934
0.132520	1.640302
0.132617	1.620101
0.132715	1.631588
0.132812	1.608054
0.132910	1.600545
0.133008	1.618968
0.133105	1.631779
0.133203	1.628677
0.133301	1.639212
0.133398	1.639399
0.133496	1.636727
0.133594	1.634783
0.133691	1.637060
0.133789	1.639390
0.133887	1.643197
0.133984	1.646424
0.134082	1.649861
0.134180	1.652547
0.134277	1.655595
0.134375	1.658973
0.134473	1.662012
0.134570	1.665384
0.134668	1.667930
0.134766	1.667852
0.134863	1.665424
0.134961	1.663006
0.135059	1.660307
0.135156	1.655308
0.135254	1.663813
0.135352	1.670742
0.135449	1.668519
0.135547	1.681721
0.135645	1.676275
0.135742	1.669750
0.135840	1.666819
0.135937	1.666203
0.136035	1.646679
0.136133	1.622259
0.136230	1.625559
0.136328	1.595572
0.136426	1.591167
0.136523	1.608685
0.136621	1.602338
0.136719	1.599064
0.136816	1.612263
0.136914	1.616337
0.137012	1.605815
0.137109	1.615391
0.137207	1.618946
0.137305	1.625610
0.137402	1.660909
0.137500	1.670564
0.137598	1.680090
0.137695	1.694633
0.137793	1.684775
0.137891	1.687100
0.137988	1.682259
0.138086	1.667006
0.138184	1.688716
0.138281	1.682565
0.138379	1.669468
0.138477	1.658503
0.138574	1.649083
0.138672	1.649084
0.138770	1.649393
0.138867	1.649693
0.138965	1.649564
0.139062	1.649311
0.139160	1.648990
0.139258	1.648836
0.139355	1.648932
0.139453	1.649309
0.139551	1.649856
0.139648	1.650665
0.139746	1.651531
0.139844	1.652680
0.139941	1.653899
0.140039	1.655247
0.140137	1.656593
0.140234	1.658103
0.140332	1.659504
0.140430	1.661052
0.140527	1.662454
0.140625	1.663780
0.140723	1.665287
0.140820	1.666500
0.140918	1.667857
0.141016	1.669129
0.141113	1.670556
0.141211	1.671671
0.141309	1.673220
0.141406	1.674528
0.141504	1.677015
0.141602	1.680417
0.141699	1.687308
0.141797	1.693459
0.141895	1.696171
0.141992	1.694209
0.142090	1.702542
0.142187	1.698673
0.142285	1.692993
0.142383	1.677694
0.142480	1.664398
0.142578	1.677963
0.142676	1.681632
0.142773	1.681494
0.142871	1.677610
0.142969	1.670559
0.143066	1.669953
0.143164	1.645184
0.143262	1.662585
0.143359	1.679348
0.143457	1.646127
0.143555	1.610324
0.143652	1.576638
0.143750	1.614065
0.143848	1.629097
0.143945	1.616898
0.144043	1.618921
0.144141	1.623646
0.144238	1.605344
0.144336	1.597789
0.144434	1.594557
0.144531	1.581426
0.144629	1.637984
0.144727	1.684046
0.144824	1.656563
0.144922	1.632378
0.145020	1.611927
0.145117	1.616106
0.145215	1.621135
0.145312	1.641679
0.145410	1.640123
0.145508	1.640071
0.145605	1.667650
0.145703	1.666501
0.145801	1.656923
0.145898	1.645719
0.145996	1.658921
0.146094	1.683587
0.146191	1.698401
0.146289	1.690538
0.146387	1.652069
0.146484	1.661143
0.146582	1.642714
0.146680	1.631737
0.146777	1.639850
0.146875	1.634946
0.146973	1.630546
0.147070	1.639674
0.147168	1.633193
0.147266	1.618776
0.147363	1.622710
0.147461	1.596436
0.147559	1.562832
0.147656	1.573438
0.147754	1.570691
0.147852	1.578149
0.147949	1.573198
0.148047	1.572623
0.148145	1.564999
0.148242	1.556017
0.148340	1.554229
0.148437	1.539743
0.148535	1.517367
0.148633	1.510732
0.148730	1.504557
0.148828	1.489868
0.148926	1.489696
0.149023	1.498167
0.149121	1.532840
0.149219	1.572089
0.149316	1.582481
0.149414	1.565072
0.149512	1.569942
0.149609	1.556238
0.149707	1.542777
0.149805	1.592103
0.149902	1.600511
0.150000	1.601481
0.150098	1.602136
0.150195	1.606064
0.150293	1.610159
0.150391	1.614914
0.150488	1.619835
0.150586	1.624153
0.150684	1.628440
0.150781	1.631777
0.150879	1.636737
0.150977	1.638188
0.151074	1.645696
0.151172	1.650783
0.151270	1.632873
0.151367	1.614842
0.151465	1.594454
0.151562	1.596304
0.151660	1.595007
0.151758	1.617879
0.151855	1.623811
0.151953	1.635107
0.152051	1.624152
0.152148	1.603282
0.152246	1.615037
0.152344	1.623258
0.152441	1.622625
0.152539	1.626188
0.152637	1.610198
0.152734	1.606480
0.152832	1.590894
0.152930	1.567518
0.153027	1.556257
0.153125	1.586503
0.153223	1.587818
0.153320	1.557332
0.153418	1.502442
0.153516	1.532385
0.153613	1.568852
0.153711	1.557590
0.153809	1.528670
0.153906	1.493847
0.154004	1.497138
0.154102	1.550096
0.154199	1.556063
0.154297	1.566722
0.154395	1.623380
0.154492	1.642331
0.154590	1.637771
0.154687	1.642723
0.154785	1.659403
0.154883	1.649253
0.154980	1.634450
0.155078	1.630322
0.155176	1.631574
0.155273	1.633190
0.155371	1.635385
0.155469	1.637728
0.155566	1.641221
0.155664	1.645774
0.155762	1.651738
0.155859	1.662441
0.155957	1.662067
0.156055	1.656707
0.156152	1.661010
0.156250	1.661612
0.156348	1.662464
0.156445	1.663100
0.156543	1.665105
0.156641	1.667932
0.156738	1.672848
0.156836	1.680566
0.156934	1.685968
0.157031	1.683198
0.157129	1.685804
0.157227	1.677048
0.157324	1.652921
0.157422	1.643494
0.157520	1.643044
0.157617	1.638164
0.157715	1.627921
0.157812	1.634457
0.157910	1.625828
0.158008	1.598790
0.158105	1.603097
0.158203	1.604729
0.158301	1.603473
0.158398	1.576863
0.158496	1.618414
0.158594	1.632517
0.158691	1.605322
0.158789	1.603937
0.158887	1.631984
0.158984	1.637601
0.159082	1.621778
0.159180	1.620324
0.159277	1.628054
0.159375	1.658971
0.159473	1.638164
0.159570	1.661395
0.159668	1.666741
0.159766	1.666027
0.159863	1.679265
0.159961	1.686132
0.160059	1.685817
0.160156	1.689251
0.160254	1.690927
0.160352	1.690831
0.160449	1.704703
0.160547	1.707612
0.160645	1.709638
0.160742	1.718385
0.160840	1.724019
0.160937	1.718556
0.161035	1.701509
0.161133	1.704660
0.161230	1.705128
0.161328	1.696601
0.161426	1.696543
0.161523	1.688585
0.161621	1.676709
0.161719	1.679522
0.161816	1.671729
0.161914	1.685240
0.162012	1.688327
0.162109	1.674180
0.162207	1.653110
0.162305	1.656360
0.162402	1.659275
0.162500	1.653313
0.162598	1.659868
0.162695	1.662734
0.162793	1.630960
0.162891	1.609396
0.162988	1.610881
0.163086	1.623591
0.163184	1.643390
0.163281	1.653145
0.163379	1.663312
0.163477	1.626893
0.163574	1.622732
0.163672	1.618909
0.163770	1.607449
0.163867	1.591466
0.163965	1.574718
0.164062	1.561702
0.164160	1.533204
0.164258	1.542427
0.164355	1.586980
0.164453	1.587780
0.164551	1.597941
0.164648	1.666664
0.164746	1.678515
0.164844	1.656957
0.164941	1.665780
0.165039	1.645497
0.165137	1.645823
0.165234	1.649354
0.165332	1.643607
0.165430	1.658342
0.165527	1.662919
0.165625	1.665139
0.165723	1.662212
0.165820	1.668490
0.165918	1.660670
0.166016	1.644786
0.166113	1.635669
0.166211	1.623421
0.166309	1.621756
0.166406	1.580374
0.166504	1.554399
0.166602	1.586693
0.166699	1.631086
0.166797	1.641870
0.166895	1.645347
0.166992	1.647992
0.167090	1.652485
0.167187	1.659360
0.167285	1.656949
0.167383	1.649542
0.167480	1.656102
0.167578	1.657319
0.167676	1.650743
0.167773	1.652250
0.167871	1.651902
0.167969	1.651689
0.168066	1.647755
0.168164	1.650531
0.168262	1.650623
0.168359	1.648978
0.168457	1.646802
0.168555	1.645740
0.168652	1.645285
0.168750	1.646641
0.168848	1.650205
0.168945	1.655004
0.169043	1.655888
0.169141	1.656572
0.169238	1.656324
0.169336	1.656556
0.169434	1.655211
0.169531	1.654203
0.169629	1.656173
0.169727	1.652099
0.169824	1.646690
0.169922	1.643950
0.170020	1.646536
0.170117	1.647675
0.170215	1.647570
0.170312	1.647661
0.170410	1.647670
0.170508	1.647703
0.170605	1.647713
0.170703	1.647780
0.170801	1.647819
0.170898	1.648066
0.170996	1.648374
0.171094	1.648769
0.171191	1.649221
0.171289	1.649903
0.171387	1.650686
0.171484	1.651565
0.171582	1.652647
0.171680	1.653798
0.171777	1.655137
0.171875	1.656429
0.171973	1.657860
0.172070	1.659183
0.172168	1.660496
0.172266	1.661932
0.172363	1.663397
0.172461	1.664779
0.172559	1.666123
0.172656	1.667483
0.172754	1.668822
0.172852	1.670367
0.172949	1.672118
0.173047	1.673956
0.173145	1.676076
0.173242	1.678561
0.173340	1.681148
0.173437	1.683464
0.173535	1.683736
0.173633	1.682260
0.173730	1.682872
0.173828	1.683067
0.173926	1.684023
0.174023	1.684783
0.174121	1.685898
0.174219	1.686479
0.174316	1.686646
0.174414	1.687552
0.174512	1.690299
0.174609	1.691781
0.174707	1.692467
0.174805	1.691833
0.174902	1.695571
0.175000	1.698023
0.175098	1.688472
0.175195	1.674961
0.175293	1.676322
0.175391	1.676018
0.175488	1.675262
0.175586	1.688457
0.175684	1.670710
0.175781	1.661608
0.175879	1.654693
0.175977	1.649329
0.176074	1.632734
0.176172	1.619334
0.176270	1.632474
0.176367	1.638033
0.176465	1.642985
0.176562	1.627293
0.176660	1.621546
0.176758	1.609293
0.176855	1.591553
0.176953	1.598329
0.177051	1.582008
0.177148	1.579444
0.177246	1.598874
0.177344	1.593577
0.177441	1.574286
0.177539	1.600958
0.177637	1.609017
0.177734	1.593639
0.177832	1.577980
0.177930	1.578025
0.178027	1.582276
0.178125	1.610270
0.178223	1.649030
0.178320	1.635647
0.178418	1.626567
0.178516	1.626144
0.178613	1.612892
0.178711	1.614223
0.178809	1.617676
0.178906	1.614178
0.179004	1.591225
0.179102	1.594107
0.179199	1.596614
0.179297	1.565920
0.179395	1.564614
0.179492	1.582346
0.179590	1.577525
0.179687	1.551959
0.179785	1.534582
0.179883	1.525063
0.179980	1.519949
0.180078	1.536846
0.180176	1.546351
0.180273	1.536446
0.180371	1.521616
0.180469	1.525123
0.180566	1.530512
0.180664	1.524220
0.180762	1.526488
0.180859	1.529804
0.180957	1.541971
0.181055	1.556561
0.181152	1.570782
0.181250	1.575229
0.181348	1.580058
0.181445	1.606222
0.181543	1.626282
0.181641	1.615426
0.181738	1.610507
0.181836	1.608832
0.181934	1.611522
0.182031	1.613445
0.182129	1.616181
0.182227	1.617576
0.182324	1.619416
0.182422	1.620671
0.182520	1.622301
0.182617	1.623500
0.182715	1.625056
0.182812	1.626573
0.182910	1.628181
0.183008	1.629372
0.183105	1.628883
0.183203	1.630169
0.183301	1.629801
0.183398	1.633021
0.183496	1.635655
0.183594	1.636862
0.183691	1.638203
0.183789	1.639221
0.183887	1.640448
0.183984	1.641239
0.184082	1.641900
0.184180	1.642504
0.184277	1.642847
0.184375	1.642934
0.184473	1.643388
0.184570	1.643508
0.184668	1.643882
0.184766	1.644344
0.184863	1.644920
0.184961	1.645499
0.185059	1.646245
0.185156	1.646970
0.185254	1.647852
0.185352	1.648797
0.185449	1.649798
0.185547	1.650886
0.185645	1.651953
0.185742	1.653083
0.185840	1.654232
0.185937	1.655443
0.186035	1.656706
0.186133	1.658088
0.186230	1.659378
0.186328	1.660860
0.186426	1.662415
0.186523	1.663773
0.186621	1.665056
0.186719	1.666220
0.186816	1.667503
0.186914	1.668754
0.187012	1.669621
0.187109	1.670341
0.187207	1.671555
0.187305	1.673560
0.187402	1.675624
0.187500	1.676091
0.187598	1.674823
0.187695	1.674268
0.187793	1.675612
0.187891	1.678471
0.187988	1.683214
0.188086	1.689102
0.188184	1.690419
0.188281	1.686399
0.188379	1.685517
0.188477	1.684183
0.188574	1.687736
0.188672	1.692056
0.188770	1.708542
0.188867	1.697994
0.188965	1.700343
0.189062	1.693860
0.189160	1.677870
0.189258	1.677847
0.189355	1.699646
0.189453	1.663068
0.189551	1.677767
0.189648	1.652302
0.189746	1.625289
0.189844	1.638133
0.189941	1.644518
0.190039	1.641685
0.190137	1.663779
0.190234	1.664568
0.190332	1.662561
0.190430	1.670704
0.190527	1.652143
0.190625	1.626915
0.190723	1.627439
0.190820	1.599799
0.190918	1.578268
0.191016	1.559479
0.191113	1.599414
0.191211	1.627551
0.191309	1.655108
0.191406	1.642597
0.191504	1.578855
0.191602	1.592268
0.191699	1.578732
0.191797	1.581425
0.191895	1.555149
0.191992	1.545401
0.192090	1.528632
0.192187	1.524721
0.192285	1.505081
0.192383	1.485982
0.192480	1.505941
0.192578	1.511866
0.192676	1.498441
0.192773	1.521527
0.192871	1.576549
0.192969	1.602144
0.193066	1.603446
0.193164	1.601144
0.193262	1.596059
0.193359	1.607405
0.193457	1.615842
0.193555	1.599074
0.193652	1.568494
0.193750	1.555005
0.193848	1.563794
0.193945	1.554639
0.194043	1.557867
0.194141	1.594934
0.194238	1.600567
0.194336	1.601678
0.194434	1.595114
0.194531	1.582448
0.194629	1.571335
0.194727	1.580366
0.194824	1.602181
0.194922	1.603836
0.195020	1.594479
0.195117	1.586277
0.195215	1.567875
0.195312	1.517450
0.195410	1.536498
0.195508	1.552986
0.195605	1.518469
0.195703	1.494704
0.195801	1.508978
0.195898	1.537672
0.195996	1.538420
0.196094	1.519139
0.196191	1.524229
0.196289	1.521790
0.196387	1.537539
0.196484	1.566124
0.196582	1.576614
0.196680	1.596561
0.196777	1.603334
0.196875	1.605463
0.196973	1.607207
0.197070	1.610930
0.197168	1.611905
0.197266	1.613162
0.197363	1.613021
0.197461	1.614345
0.197559	1.615521
0.197656	1.617850
0.197754	1.620026
0.197852	1.622883
0.197949	1.625466
0.198047	1.628439
0.198145	1.631156
0.198242	1.633951
0.198340	1.636574
0.198437	1.639135
0.198535	1.641366
0.198633	1.642920
0.198730	1.644398
0.198828	1.645831
0.198926	1.647207
0.199023	1.648223
0.199121	1.648542
0.199219	1.648498
0.199316	1.648544
0.199414	1.648592
0.199512	1.648438
0.199609	1.648112
0.199707	1.647708
0.199805	1.647093
0.199902	1.646355
0.200000	1.645733
0.200098	1.645188
0.200195	1.644722
0.200293	1.644450
0.200391	1.644361
0.200488	1.644619
0.200586	1.644953
0.200684	1.645614
0.200781	1.646430
0.200879	1.647385
0.200977	1.648617
0.201074	1.650004
0.201172	1.651559
0.201270	1.653144
0.201367	1.654986
0.201465	1.656900
0.201562	1.658769
0.201660	1.660748
0.201758	1.662832
0.201855	1.664721
0.201953	1.666571
0.202051	1.668361
0.202148	1.670068
0.202246	1.671924
0.202344	1.673944
0.202441	1.676233
0.202539	1.678711
0.202637	1.681356
0.202734	1.683940
0.202832	1.686400
0.202930	1.688651
0.203027	1.690760
0.203125	1.692392
0.203223	1.694150
0.203320	1.695642
0.203418	1.696828
0.203516	1.697786
0.203613	1.698986
0.203711	1.700456
0.203809	1.701536
0.203906	1.700480
0.204004	1.700556
0.204102	1.700350
0.204199	1.702780
0.204297	1.703843
0.204395	1.705850
0.204492	1.703768
0.204590	1.699950
0.204687	1.696056
0.204785	1.696849
0.204883	1.693567
0.204980	1.701235
0.205078	1.694940
0.205176	1.683381
0.205273	1.684539
0.205371	1.679403
0.205469	1.658286
0.205566	1.639948
0.205664	1.632999
0.205762	1.651088
0.205859	1.666117
0.205957	1.670886
0.206055	1.679249
0.206152	1.673366
0.206250	1.677630
0.206348	1.675548
0.206445	1.667567
0.206543	1.656171
0.206641	1.651523
0.206738	1.637884
0.206836	1.626272
0.206934	1.619677
0.207031	1.613476
0.207129	1.603083
0.207227	1.587843
0.207324	1.572441
0.207422	1.558583
0.207520	1.571394
0.207617	1.579645
0.207715	1.580535
0.207812	1.579840
0.207910	1.568839
0.208008	1.560528
0.208105	1.524748
0.208203	1.544027
0.208301	1.540230
0.208398	1.531419
0.208496	1.521684
0.208594	1.493890
0.208691	1.489146
0.208789	1.498526
0.208887	1.538304
0.208984	1.528975
0.209082	1.566252
0.209180	1.561063
0.209277	1.554823
0.209375	1.540318
0.209473	1.541293
0.209570	1.537149
0.209668	1.532100
0.209766	1.525383
0.209863	1.506533
0.209961	1.495450
0.210059	1.520331
0.210156	1.553937
0.210254	1.591991
0.210352	1.609509
0.210449	1.612262
0.210547	1.614765
0.210645	1.613022
0.210742	1.611551
0.210840	1.596881
0.210937	1.580576
0.211035	1.582258
0.211133	1.592074
0.211230	1.613355
0.211328	1.616587
0.211426	1.601106
0.211523	1.613037
0.211621	1.630582
0.211719	1.630570
0.211816	1.622569
0.211914	1.637340
0.212012	1.645471
0.212109	1.645965
0.212207	1.648340
0.212305	1.648415
0.212402	1.650071
0.212500	1.650646
0.212598	1.653848
0.212695	1.653930
0.212793	1.654491
0.212891	1.655277
0.212988	1.656312
0.213086	1.657609
0.213184	1.659288
0.213281	1.660493
0.213379	1.661318
0.213477	1.661858
0.213574	1.662594
0.213672	1.662697
0.213770	1.661715
0.213867	1.660016
0.213965	1.659149
0.214062	1.659064
0.214160	1.659449
0.214258	1.660157
0.214355	1.661034
0.214453	1.662502
0.214551	1.664250
0.214648	1.665993
0.214746	1.667257
0.214844	1.667897
0.214941	1.667608
0.215039	1.666783
0.215137	1.665338
0.215234	1.663878
0.215332	1.662436
0.215430	1.661315
0.215527	1.660507
0.215625	1.659784
0.215723	1.659432
0.215820	1.659168
0.215918	1.659089
0.216016	1.659238
0.216113	1.659540
0.216211	1.660023
0.216309	1.660656
0.216406	1.661413
0.216504	1.662075
0.216602	1.662915
0.216699	1.663517
0.216797	1.664288
0.216895	1.664969
0.216992	1.665632
0.217090	1.666375
0.217187	1.667117
0.217285	1.668070
0.217383	1.669099
0.217480	1.669839
0.217578	1.670462
0.217676	1.672175
0.217773	1.676281
0.217871	1.679681
0.217969	1.683488
0.218066	1.686440
0.218164	1.688162
0.218262	1.688749
0.218359	1.689556
0.218457	1.690760
0.218555	1.686564
0.218652	1.686371
0.218750	1.688303
0.218848	1.689273
0.218945	1.688524
0.219043	1.686875
0.219141	1.685282
0.219238	1.684682
0.219336	1.684259
0.219434	1.684217
0.219531	1.683201
0.219629	1.683229
0.219727	1.683277
0.219824	1.685094
0.219922	1.686577
0.220020	1.689216
0.220117	1.689341
0.220215	1.690451
0.220312	1.689186
0.220410	1.690000
0.220508	1.688161
0.220605	1.687888
0.220703	1.677133
0.220801	1.674102
0.220898	1.646429
0.220996	1.637018
0.221094	1.614605
0.221191	1.599161
0.221289	1.633583
0.221387	1.644882
0.221484	1.657066
0.221582	1.653553
0.221680	1.643699
0.221777	1.639041
0.221875	1.649145
0.221973	1.666362
0.222070	1.690032
0.222168	1.666367
0.222266	1.679882
0.222363	1.672831
0.222461	1.666487
0.222559	1.661642
0.222656	1.660484
0.222754	1.659662
0.222852	1.660903
0.222949	1.660578
0.223047	1.662088
0.223145	1.663345
0.223242	1.664940
0.223340	1.659554
0.223437	1.663562
0.223535	1.664357
0.223633	1.668805
0.223730	1.656963
0.223828	1.656161
0.223926	1.652184
0.224023	1.655825
0.224121	1.660408
0.224219	1.652036
0.224316	1.655100
0.224414	1.655934
0.224512	1.657401
0.224609	1.655121
0.224707	1.653202
0.224805	1.653740
0.224902	1.658588
0.225000	1.646513
0.225098	1.651707
0.225195	1.658759
0.225293	1.650740
0.225391	1.636375
0.225488	1.627425
0.225586	1.628270
0.225684	1.630420
0.225781	1.630079
0.225879	1.629692
0.225977	1.638152
0.226074	1.651942
0.226172	1.667425
0.226270	1.659159
0.226367	1.643024
0.226465	1.601895
0.226562	1.588077
0.226660	1.595436
0.226758	1.615644
0.226855	1.653207
0.226953	1.652473
0.227051	1.645232
0.227148	1.653713
0.227246	1.657761
0.227344	1.647454
0.227441	1.650313
0.227539	1.655665
0.227637	1.660219
0.227734	1.665463
0.227832	1.663871
0.227930	1.663140
0.228027	1.659707
0.228125	1.657879
0.228223	1.655404
0.228320	1.654523
0.228418	1.653146
0.228516	1.652631
0.228613	1.651735
0.228711	1.651474
0.228809	1.650876
0.228906	1.650860
0.229004	1.650500
0.229102	1.650719
0.229199	1.650753
0.229297	1.650956
0.229395	1.651245
0.229492	1.651739
0.229590	1.651958
0.229687	1.652558
0.229785	1.652892
0.229883	1.653539
0.229980	1.653498
0.230078	1.653984
0.230176	1.655107
0.230273	1.657154
0.230371	1.658027
0.230469	1.658851
0.230566	1.659111
0.230664	1.674398
0.230762	1.675755
0.230859	1.673651
0.230957	1.669540
0.231055	1.673868
0.231152	1.677889
0.231250	1.674611
0.231348	1.677641
0.231445	1.688822
0.231543	1.655265
0.231641	1.646076
0.231738	1.664853
0.231836	1.658596
0.231934	1.652845
0.232031	1.667087
0.232129	1.688769
0.232227	1.681008
0.232324	1.664717
0.232422	1.662742
0.232520	1.646172
0.232617	1.639449
0.232715	1.678983
0.232812	1.677501
0.232910	1.698528
0.233008	1.703228
0.233105	1.692561
0.233203	1.689520
0.233301	1.664235
0.233398	1.648538
0.233496	1.658717
0.233594	1.659629
0.233691	1.644917
0.233789	1.625237
0.233887	1.613227
0.233984	1.620646
0.234082	1.654788
0.234180	1.678461
0.234277	1.681066
0.234375	1.682366
0.234473	1.688229
0.234570	1.664752
0.234668	1.661800
0.234766	1.659782
0.234863	1.638127
0.234961	1.626144
0.235059	1.653546
0.235156	1.674757
0.235254	1.675800
0.235352	1.669720
0.235449	1.673356
0.235547	1.676459
0.235645	1.679314
0.235742	1.680021
0.235840	1.679908
0.235937	1.679854
0.236035	1.679263
0.236133	1.678662
0.236230	1.678002
0.236328	1.678016
0.236426	1.678346
0.236523	1.679160
0.236621	1.679354
0.236719	1.677892
0.236816	1.676617
0.236914	1.675087
0.237012	1.673998
0.237109	1.672752
0.237207	1.672406
0.237305	1.671924
0.237402	1.672482
0.237500	1.672107
0.237598	1.673735
0.237695	1.673159
0.237793	1.673677
0.237891	1.674153
0.237988	1.680931
0.238086	1.673133
0.238184	1.666091
0.238281	1.630868
0.238379	1.636802
0.238477	1.660178
0.238574	1.636934
0.238672	1.656986
0.238770	1.662274
0.238867	1.665989
0.238965	1.665637
0.239062	1.664642
0.239160	1.666004
0.239258	1.667057
0.239355	1.668109
0.239453	1.669405
0.239551	1.670259
0.239648	1.673513
0.239746	1.672561
0.239844	1.674195
0.239941	1.675744
0.240039	1.677244
0.240137	1.679741
0.240234	1.685321
0.240332	1.693789
0.240430	1.698914
0.240527	1.703341
0.240625	1.690877
0.240723	1.682940
0.240820	1.675326
0.240918	1.674783
0.241016	1.674476
0.241113	1.674652
0.241211	1.673064
0.241309	1.672739
0.241406	1.674708
0.241504	1.675609
0.241602	1.672108
0.241699	1.668060
0.241797	1.666810
0.241895	1.655825
0.241992	1.637834
0.242090	1.631454
0.242187	1.621744
0.242285	1.630208
0.242383	1.608569
0.242480	1.633804
0.242578	1.654226
0.242676	1.634075
0.242773	1.626124
0.242871	1.616697
0.242969	1.603153
0.243066	1.611314
0.243164	1.633894
0.243262	1.641095
0.243359	1.631588
0.243457	1.647075
0.243555	1.639618
0.243652	1.657033
0.243750	1.697503
0.243848	1.704415
0.243945	1.700883
0.244043	1.698053
0.244141	1.693612
0.244238	1.689127
0.244336	1.690169
0.244434	1.683504
0.244531	1.680648
0.244629	1.680700
0.244727	1.683588
0.244824	1.685215
0.244922	1.685060
0.245020	1.686003
0.245117	1.687353
0.245215	1.689901
0.245312	1.671111
0.245410	1.666097
0.245508	1.672591
0.245605	1.686277
0.245703	1.701968
0.245801	1.701401
0.245898	1.704157
0.245996	1.711520
0.246094	1.706453
0.246191	1.715318
0.246289	1.678704
0.246387	1.661393
0.246484	1.696811
0.246582	1.684556
0.246680	1.694629
0.246777	1.697958
0.246875	1.694002
0.246973	1.684630
0.247070	1.689331
0.247168	1.689171
0.247266	1.692002
0.247363	1.692094
0.247461	1.694928
0.247559	1.694918
0.247656	1.696077
0.247754	1.694519
0.247852	1.693411
0.247949	1.691300
0.248047	1.690533
0.248145	1.688783
0.248242	1.686494
0.248340	1.683356
0.248437	1.681544
0.248535	1.680062
0.248633	1.679083
0.248730	1.677964
0.248828	1.676968
0.248926	1.676242
0.249023	1.675557
0.249121	1.675326
0.249219	1.675074
0.249316	1.675029
0.249414	1.674482
0.249512	1.674230
0.249609	1.672328
0.249707	1.674996
0.249805	1.678205
0.249902	1.677715
0.250000	1.677115
0.250098	1.679160
0.250195	1.683327
0.250293	1.682327
0.250391	1.680882
0.250488	1.680625
0.250586	1.682333
0.250684	1.685760
0.250781	1.685750
0.250879	1.680429
0.250977	1.664148
0.251074	1.689981
0.251172	1.687966
0.251270	1.683577
0.251367	1.670044
0.251465	1.661620
0.251562	1.672104
0.251660	1.659209
0.251758	1.643161
0.251855	1.662813
0.251953	1.693160
0.252051	1.672852
0.252148	1.674463
0.252246	1.674240
0.252344	1.674903
0.252441	1.674571
0.252539	1.677843
0.252637	1.680126
0.252734	1.683330
0.252832	1.685855
0.252930	1.691481
0.253027	1.693508
0.253125	1.690158
0.253223	1.681754
0.253320	1.685669
0.253418	1.698098
0.253516	1.697743
0.253613	1.694514
0.253711	1.692900
0.253809	1.690242
0.253906	1.689965
0.254004	1.691102
0.254102	1.691687
0.254199	1.692197
0.254297	1.691313
0.254395	1.688980
0.254492	1.686280
0.254590	1.683976
0.254687	1.682154
0.254785	1.682479
0.254883	1.683056
0.254980	1.685348
0.255078	1.686292
0.255176	1.691819
0.255273	1.695595
0.255371	1.690343
0.255469	1.688754
0.255566	1.685909
0.255664	1.688390
0.255762	1.688785
0.255859	1.690174
0.255957	1.690991
0.256055	1.692428
0.256152	1.692963
0.256250	1.693055
0.256348	1.692756
0.256445	1.694813
0.256543	1.689269
0.256641	1.683834
0.256738	1.675350
0.256836	1.664796
0.256934	1.675257
0.257031	1.676150
0.257129	1.672670
0.257227	1.683342
0.257324	1.698175
0.257422	1.700630
0.257520	1.689762
0.257617	1.683392
0.257715	1.682200
0.257812	1.683944
0.257910	1.676485
0.258008	1.672749
0.258105	1.675720
0.258203	1.674356
0.258301	1.658884
0.258398	1.665742
0.258496	1.655983
0.258594	1.659062
0.258691	1.661443
0.258789	1.642273
0.258887	1.652635
0.258984	1.650749
0.259082	1.644917
0.259180	1.646512
0.259277	1.652852
0.259375	1.661743
0.259473	1.669084
0.259570	1.662246
0.259668	1.650690
0.259766	1.656786
0.259863	1.670738
0.259961	1.694699
0.260059	1.715882
0.260156	1.707812
0.260254	1.697644
0.260352	1.701380
0.260449	1.721711
0.260547	1.696438
0.260645	1.659925
0.260742	1.645305
0.260840	1.639858
0.260937	1.702197
0.261035	1.702888
0.261133	1.708478
0.261230	1.703361
0.261328	1.694119
0.261426	1.690387
0.261523	1.684218
0.261621	1.686904
0.261719	1.687142
0.261816	1.687105
0.261914	1.671619
0.262012	1.669556
0.262109	1.688650
0.262207	1.687506
0.262305	1.686420
0.262402	1.685843
0.262500	1.677069
0.262598	1.677793
0.262695	1.686555
0.262793	1.686317
0.262891	1.682729
0.262988	1.675580
0.263086	1.666453
0.263184	1.665594
0.263281	1.662012
0.263379	1.668657
0.263477	1.672108
0.263574	1.671071
0.263672	1.674665
0.263770	1.680660
0.263867	1.678159
0.263965	1.674582
0.264062	1.677405
0.264160	1.682166
0.264258	1.679398
0.264355	1.675235
0.264453	1.669963
0.264551	1.670121
0.264648	1.670664
0.264746	1.668220
0.264844	1.657160
0.264941	1.653416
0.265039	1.653999
0.265137	1.652815
0.265234	1.635267
0.265332	1.637468
0.265430	1.628580
0.265527	1.605746
0.265625	1.611653
0.265723	1.616747
0.265820	1.613038
0.265918	1.614014
0.266016	1.591418
0.266113	1.568182
0.266211	1.578676
0.266309	1.599844
0.266406	1.621490
0.266504	1.635753
0.266602	1.641082
0.266699	1.645500
0.266797	1.647331
0.266895	1.657035
0.266992	1.658264
0.267090	1.657236
0.267187	1.661990
0.267285	1.662425
0.267383	1.662151
0.267480	1.661597
0.267578	1.663270
0.267676	1.663889
0.267773	1.660885
0.267871	1.656910
0.267969	1.654987
0.268066	1.654359
0.268164	1.654568
0.268262	1.654555
0.268359	1.654876
0.268457	1.655119
0.268555	1.655595
0.268652	1.655921
0.268750	1.656286
0.268848	1.656656
0.268945	1.657302
0.269043	1.657895
0.269141	1.658752
0.269238	1.656279
0.269336	1.670946
0.269434	1.671370
0.269531	1.672345
0.269629	1.671015
0.269727	1.667126
0.269824	1.664451
0.269922	1.669642
0.270020	1.668199
0.270117	1.678611
0.270215	1.682329
0.270312	1.681630
0.270410	1.683166
0.270508	1.685042
0.270605	1.692289
0.270703	1.689315
0.270801	1.674054
0.270898	1.677300
0.270996	1.689416
0.271094	1.688457
0.271191	1.691590
0.271289	1.685924
0.271387	1.657860
0.271484	1.658231
0.271582	1.640814
0.271680	1.622245
0.271777	1.579814
0.271875	1.596269
0.271973	1.629233
0.272070	1.634828
0.272168	1.628195
0.272266	1.628267
0.272363	1.611609
0.272461	1.572749
0.272559	1.611732
0.272656	1.663037
0.272754	1.658940
0.272852	1.666120
0.272949	1.691552
0.273047	1.697069
0.273145	1.689671
0.273242	1.694716
0.273340	1.698530
0.273437	1.697943
0.273535	1.676785
0.273633	1.654829
0.273730	1.692245
0.273828	1.702377
0.273926	1.679229
0.274023	1.665712
0.274121	1.668675
0.274219	1.677695
0.274316	1.676972
0.274414	1.671511
0.274512	1.660480
0.274609	1.658246
0.274707	1.646115
0.274805	1.652398
0.274902	1.654315
0.275000	1.632718
0.275098	1.624045
0.275195	1.625824
0.275293	1.630475
0.275391	1.616330
0.275488	1.602423
0.275586	1.628286
0.275684	1.613413
0.275781	1.605378
0.275879	1.588092
0.275977	1.588272
0.276074	1.588442
0.276172	1.588014
0.276270	1.573484
0.276367	1.604733
0.276465	1.625798
0.276562	1.621612
0.276660	1.642247
0.276758	1.634570
0.276855	1.639780
0.276953	1.637514
0.277051	1.641883
0.277148	1.640847
0.277246	1.644168
0.277344	1.643932
0.277441	1.647202
0.277539	1.648209
0.277637	1.651661
0.277734	1.653575
0.277832	1.655042
0.277930	1.653800
0.278027	1.651213
0.278125	1.645515
0.278223	1.658140
0.278320	1.649855
0.278418	1.635616
0.278516	1.629649
0.278613	1.626231
0.278711	1.619852
0.278809	1.619225
0.278906	1.646302
0.279004	1.655663
0.279102	1.671235
0.279199	1.667656
0.279297	1.669646
0.279395	1.664845
0.279492	1.657315
0.279590	1.648932
0.279687	1.639321
0.279785	1.629609
0.279883	1.626903
0.279980	1.630261
0.280078	1.633451
0.280176	1.635619
0.280273	1.638164
0.280371	1.640636
0.280469	1.644799
0.280566	1.646811
0.280664	1.651268
0.280762	1.657904
0.280859	1.632241
0.280957	1.610902
0.281055	1.636807
0.281152	1.643727
0.281250	1.647876
0.281348	1.659294
0.281445	1.666665
0.281543	1.664561
0.281641	1.648262
0.281738	1.648043
0.281836	1.634479
0.281934	1.635317
0.282031	1.614215
0.282129	1.622593
0.282227	1.638897
0.282324	1.655487
0.282422	1.665746
0.282520	1.637292
0.282617	1.616522
0.282715	1.591093
0.282812	1.596338
0.282910	1.575306
0.283008	1.560061
0.283105	1.579539
0.283203	1.597145
0.283301	1.619145
0.283398	1.626223
0.283496	1.618793
0.283594	1.621471
0.283691	1.645248
0.283789	1.659582
0.283887	1.663557
0.283984	1.666465
0.284082	1.667032
0.284180	1.668064
0.284277	1.668942
0.284375	1.669720
0.284473	1.670234
0.284570	1.670589
0.284668	1.670885
0.284766	1.671170
0.284863	1.671670
0.284961	1.672635
0.285059	1.674321
0.285156	1.675962
0.285254	1.681341
0.285352	1.683581
0.285449	1.687628
0.285547	1.699702
0.285645	1.692926
0.285742	1.690749
0.285840	1.675014
0.285937	1.672137
0.286035	1.670054
0.286133	1.654061
0.286230	1.644406
0.286328	1.625916
0.286426	1.618840
0.286523	1.612548
0.286621	1.602425
0.286719	1.596398
0.286816	1.604268
0.286914	1.613656
0.287012	1.631037
0.287109	1.645536
0.287207	1.649720
0.287305	1.678695
0.287402	1.677460
0.287500	1.684567
0.287598	1.705675
0.287695	1.706709
0.287793	1.707490
0.287891	1.705807
0.287988	1.704197
0.288086	1.696317
0.288184	1.685831
0.288281	1.678015
0.288379	1.658887
0.288477	1.653455
0.288574	1.644301
0.288672	1.636865
0.288770	1.630742
0.288867	1.619742
0.288965	1.624404
0.289062	1.644464
0.289160	1.638830
0.289258	1.666618
0.289355	1.703298
0.289453	1.667458
0.289551	1.660413
0.289648	1.637446
0.289746	1.621861
0.289844	1.640683
0.289941	1.654937
0.290039	1.657105
0.290137	1.656262
0.290234	1.663179
0.290332	1.678446
0.290430	1.690139
0.290527	1.697844
0.290625	1.706584
0.290723	1.709030
0.290820	1.716412
0.290918	1.734742
0.291016	1.690151
0.291113	1.655865
0.291211	1.656061
0.291309	1.661075
0.291406	1.667693
0.291504	1.670315
0.291602	1.670194
0.291699	1.667441
0.291797	1.665147
0.291895	1.660492
0.291992	1.660317
0.292090	1.661708
0.292187	1.663535
0.292285	1.664217
0.292383	1.663987
0.292480	1.663512
0.292578	1.663002
0.292676	1.662777
0.292773	1.662730
0.292871	1.663141
0.292969	1.663564
0.293066	1.665443
0.293164	1.666742
0.293262	1.667802
0.293359	1.665288
0.293457	1.663772
0.293555	1.662883
0.293652	1.664953
0.293750	1.665819
0.293848	1.676791
0.293945	1.677848
0.294043	1.666381
0.294141	1.668458
0.294238	1.672771
0.294336	1.670427
0.294434	1.668953
0.294531	1.669419
0.294629	1.667900
0.294727	1.667774
0.294824	1.666339
0.294922	1.664765
0.295020	1.663508
0.295117	1.662951
0.295215	1.662415
0.295312	1.661625
0.295410	1.661076
0.295508	1.660169
0.295605	1.660219
0.295703	1.659377
0.295801	1.659814
0.295898	1.658979
0.295996	1.660163
0.296094	1.659900
0.296191	1.663223
0.296289	1.663865
0.296387	1.670739
0.296484	1.670591
0.296582	1.674326
0.296680	1.673236
0.296777	1.691377
0.296875	1.677115
0.296973	1.659321
0.297070	1.652374
0.297168	1.658821
0.297266	1.678699
0.297363	1.672770
0.297461	1.672929
0.297559	1.671351
0.297656	1.678116
0.297754	1.679985
0.297852	1.687687
0.297949	1.685718
0.298047	1.691896
0.298145	1.690790
0.298242	1.681707
0.298340	1.684719
0.298437	1.664996
0.298535	1.650910
0.298633	1.639763
0.298730	1.622096
0.298828	1.607618
0.298926	1.626245
0.299023	1.666214
0.299121	1.683738
0.299219	1.662983
0.299316	1.665559
0.299414	1.685379
0.299512	1.687130
0.299609	1.683155
0.299707	1.677604
0.299805	1.677613
0.299902	1.680947
0.300000	1.681140
0.300098	1.684647
0.300195	1.691773
0.300293	1.696578
0.300391	1.698631
0.300488	1.697600
0.300586	1.696175
0.300684	1.689976
0.300781	1.688612
0.300879	1.686022
0.300977	1.682037
0.301074	1.681318
0.301172	1.677848
0.301270	1.661252
0.301367	1.681230
0.301465	1.686726
0.301562	1.674056
0.301660	1.678969
0.301758	1.682016
0.301855	1.673922
0.301953	1.671879
0.302051	1.672189
0.302148	1.671828
0.302246	1.672036
0.302344	1.672292
0.302441	1.673778
0.302539	1.675551
0.302637	1.676931
0.302734	1.676018
0.302832	1.675652
0.302930	1.676070
0.303027	1.677687
0.303125	1.679982
0.303223	1.683722
0.303320	1.688198
0.303418	1.694137
0.303516	1.697841
0.303613	1.699662
0.303711	1.701021
0.303809	1.696044
0.303906	1.686010
0.304004	1.686080
0.304102	1.694555
0.304199	1.685898
0.304297	1.683354
0.304395	1.687405
0.304492	1.690344
0.304590	1.698148
0.304687	1.697271
0.304785	1.687147
0.304883	1.687850
0.304980	1.686447
0.305078	1.660909
0.305176	1.646744
0.305273	1.627612
0.305371	1.651280
0.305469	1.665881
0.305566	1.673258
0.305664	1.674636
0.305762	1.676008
0.305859	1.675602
0.305957	1.673460
0.306055	1.669487
0.306152	1.664028
0.306250	1.672843
0.306348	1.677987
0.306445	1.680876
0.306543	1.678196
0.306641	1.672684
0.306738	1.653149
0.306836	1.632807
0.306934	1.655006
0.307031	1.659742
0.307129	1.656661
0.307227	1.662271
0.307324	1.665803
0.307422	1.666473
0.307520	1.666810
0.307617	1.667372
0.307715	1.667163
0.307812	1.667735
0.307910	1.667265
0.308008	1.671530
0.308105	1.671549
0.308203	1.666852
0.308301	1.669178
0.308398	1.673458
0.308496	1.674535
0.308594	1.673912
0.308691	1.672538
0.308789	1.669705
0.308887	1.666013
0.308984	1.676804
0.309082	1.630733
0.309180	1.635073
0.309277	1.661177
0.309375	1.641129
0.309473	1.663981
0.309570	1.669916
0.309668	1.657569
0.309766	1.660662
0.309863	1.659561
0.309961	1.657944
0.310059	1.657859
0.310156	1.658289
0.310254	1.658257
0.310352	1.658519
0.310449	1.658883
0.310547	1.659525
0.310645	1.660102
0.310742	1.660964
0.310840	1.661980
0.310937	1.663151
0.311035	1.664530
0.311133	1.666077
0.311230	1.667633
0.311328	1.669128
0.311426	1.670526
0.311523	1.671589
0.311621	1.672441
0.311719	1.673013
0.311816	1.673508
0.311914	1.674310
0.312012	1.675237
0.312109	1.676241
0.312207	1.677120
0.312305	1.678053
0.312402	1.679014
0.312500	1.680015
0.312598	1.680848
0.312695	1.681178
0.312793	1.681667
0.312891	1.682189
0.312988	1.682641
0.313086	1.683107
0.313184	1.683517
0.313281	1.684345
0.313379	1.685046
0.313477	1.685957
0.313574	1.686975
0.313672	1.687879
0.313770	1.688758
0.313867	1.689267
0.313965	1.689420
0.314062	1.689159
0.314160	1.688442
0.314258	1.687439
0.314355	1.686125
0.314453	1.685009
0.314551	1.683833
0.314648	1.682778
0.314746	1.681924
0.314844	1.681172
0.314941	1.680631
0.315039	1.680151
0.315137	1.679802
0.315234	1.679407
0.315332	1.679074
0.315430	1.678733
0.315527	1.678440
0.315625	1.678217
0.315723	1.678199
0.315820	1.678128
0.315918	1.678073
0.316016	1.678134
0.316113	1.677827
0.316211	1.677524
0.316309	1.676945
0.316406	1.676503
0.316504	1.676002
0.316602	1.675728
0.316699	1.675551
0.316797	1.675904
0.316895	1.675985
0.316992	1.676623
0.317090	1.676645
0.317187	1.677694
0.317285	1.677739
0.317383	1.679147
0.317480	1.678831
0.317578	1.680610
0.317676	1.680250
0.317773	1.683595
0.317871	1.684932
0.317969	1.690649
0.318066	1.687046
0.318164	1.686782
0.318262	1.656551
0.318359	1.642144
0.318457	1.647745
0.318555	1.646870
0.318652	1.656962
0.318750	1.666638
0.318848	1.686426
0.318945	1.685552
0.319043	1.688633
0.319141	1.683647
0.319238	1.685655
0.319336	1.685777
0.319434	1.687610
0.319531	1.686129
0.319629	1.684438
0.319727	1.681286
0.319824	1.680220
0.319922	1.678545
0.320020	1.677372
0.320117	1.675752
0.320215	1.674352
0.320312	1.671904
0.320410	1.667922
0.320508	1.663775
0.320605	1.660302
0.320703	1.658389
0.320801	1.656928
0.320898	1.657132
0.320996	1.657938
0.321094	1.661867
0.321191	1.664761
0.321289	1.664366
0.321387	1.662309
0.321484	1.667800
0.321582	1.672631
0.321680	1.667401
0.321777	1.670481
0.321875	1.670660
0.321973	1.671456
0.322070	1.671211
0.322168	1.671920
0.322266	1.668346
0.322363	1.661165
0.322461	1.676586
0.322559	1.677334
0.322656	1.677994
0.322754	1.689666
0.322852	1.693939
0.322949	1.700465
0.323047	1.698935
0.323145	1.693427
0.323242	1.682252
0.323340	1.694023
0.323437	1.673425
0.323535	1.666446
0.323633	1.668303
0.323730	1.654601
0.323828	1.621269
0.323926	1.621738
0.324023	1.643666
0.324121	1.681666
0.324219	1.665983
0.324316	1.683332
0.324414	1.676334
0.324512	1.679409
0.324609	1.681986
0.324707	1.679583
0.324805	1.652321
0.324902	1.626449
0.325000	1.597141
0.325098	1.586917
0.325195	1.585276
0.325293	1.562479
0.325391	1.607219
0.325488	1.597139
0.325586	1.609156
0.325684	1.606352
0.325781	1.626282
0.325879	1.657990
0.325977	1.683606
0.326074	1.695483
0.326172	1.693249
0.326270	1.693639
0.326367	1.690725
0.326465	1.690859
0.326562	1.691981
0.326660	1.693182
0.326758	1.693824
0.326855	1.694957
0.326953	1.696570
0.327051	1.696222
0.327148	1.695419
0.327246	1.693716
0.327344	1.692229
0.327441	1.689201
0.327539	1.687717
0.327637	1.686425
0.327734	1.690767
0.327832	1.692359
0.327930	1.689818
0.328027	1.690593
0.328125	1.689746
0.328223	1.690467
0.328320	1.691164
0.328418	1.693622
0.328516	1.692774
0.328613	1.689978
0.328711	1.684572
0.328809	1.681316
0.328906	1.678255
0.329004	1.677212
0.329102	1.673957
0.329199	1.678074
0.329297	1.679611
0.329395	1.673709
0.329492	1.671993
0.329590	1.666222
0.329687	1.652420
0.329785	1.622672
0.329883	1.625321
0.329980	1.629692
0.330078	1.627289
0.330176	1.631979
0.330273	1.585859
0.330371	1.575638
0.330469	1.584114
0.330566	1.583481
0.330664	1.616308
0.330762	1.598634
0.330859	1.623707
0.330957	1.618408
0.331055	1.624006
0.331152	1.628446
0.331250	1.652672
0.331348	1.647221
0.331445	1.653038
0.331543	1.620748
0.331641	1.616065
0.331738	1.630207
0.331836	1.653746
0.331934	1.641034
0.332031	1.618056
0.332129	1.605082
0.332227	1.602192
0.332324	1.631082
0.332422	1.641458
0.332520	1.645663
0.332617	1.643967
0.332715	1.664543
0.332812	1.637578
0.332910	1.622976
0.333008	1.599990
0.333105	1.578405
0.333203	1.572744
0.333301	1.566819
0.333398	1.552959
0.333496	1.543427
0.333594	1.558806
0.333691	1.560948
0.333789	1.549156
0.333887	1.538140
0.333984	1.533513
0.334082	1.532961
0.334180	1.540276
0.334277	1.545731
0.334375	1.596492
0.334473	1.588052
0.334570	1.596907
0.334668	1.619623
0.334766	1.626598
0.334863	1.628944
0.334961	1.627791
0.335059	1.619931
0.335156	1.624239
0.335254	1.640427
0.335352	1.644065
0.335449	1.648588
0.335547	1.647112
0.335645	1.653459
0.335742	1.643708
0.335840	1.610900
0.335937	1.594161
0.336035	1.619424
0.336133	1.640556
0.336230	1.639530
0.336328	1.626605
0.336426	1.610957
0.336523	1.593992
0.336621	1.614799
0.336719	1.637179
0.336816	1.650546
0.336914	1.623284
0.337012	1.589837
0.337109	1.581758
0.337207	1.595095
0.337305	1.600274
0.337402	1.594446
0.337500	1.632942
0.337598	1.629147
0.337695	1.627272
0.337793	1.626930
0.337891	1.609864
0.337988	1.606613
0.338086	1.635757
0.338184	1.634079
0.338281	1.631113
0.338379	1.629707
0.338477	1.630950
0.338574	1.631177
0.338672	1.632013
0.338770	1.630905
0.338867	1.631231
0.338965	1.630092
0.339062	1.633903
0.339160	1.632281
0.339258	1.623133
0.339355	1.626343
0.339453	1.628011
0.339551	1.634330
0.339648	1.631843
0.339746	1.634288
0.339844	1.624867
0.339941	1.626609
0.340039	1.613619
0.340137	1.622330
0.340234	1.640417
0.340332	1.662934
0.340430	1.658326
0.340527	1.660838
0.340625	1.661240
0.340723	1.663331
0.340820	1.660106
0.340918	1.662497
0.341016	1.650754
0.341113	1.642088
0.341211	1.635561
0.341309	1.653890
0.341406	1.665514
0.341504	1.640988
0.341602	1.626813
0.341699	1.629586
0.341797	1.639141
0.341895	1.628598
0.341992	1.608492
0.342090	1.594709
0.342187	1.621520
0.342285	1.635316
0.342383	1.634273
0.342480	1.620279
0.342578	1.625094
0.342676	1.624748
0.342773	1.644634
0.342871	1.618458
0.342969	1.598570
0.343066	1.595686
0.343164	1.609367
0.343262	1.602358
0.343359	1.592149
0.343457	1.591661
0.343555	1.577398
0.343652	1.578462
0.343750	1.578741
0.343848	1.579550
0.343945	1.583038
0.344043	1.587273
0.344141	1.583201
0.344238	1.583897
0.344336	1.591442
0.344434	1.597868
0.344531	1.609265
0.344629	1.605369
0.344727	1.611485
0.344824	1.599047
0.344922	1.595075
0.345020	1.603656
0.345117	1.604385
0.345215	1.614474
0.345312	1.617237
0.345410	1.618598
0.345508	1.620692
0.345605	1.621586
0.345703	1.629601
0.345801	1.635736
0.345898	1.644234
0.345996	1.656525
0.346094	1.686632
0.346191	1.688773
0.346289	1.681277
0.346387	1.669623
0.346484	1.627266
0.346582	1.649135
0.346680	1.616896
0.346777	1.580771
0.346875	1.564880
0.346973	1.602473
0.347070	1.627930
0.347168	1.631435
0.347266	1.648632
0.347363	1.647199
0.347461	1.647322
0.347559	1.646235
0.347656	1.644808
0.347754	1.644659
0.347852	1.645970
0.347949	1.646040
0.348047	1.646446
0.348145	1.646232
0.348242	1.646482
0.348340	1.646366
0.348437	1.646491
0.348535	1.646534
0.348633	1.646925
0.348730	1.647377
0.348828	1.648107
0.348926	1.649031
0.349023	1.650156
0.349121	1.651490
0.349219	1.652803
0.349316	1.654563
0.349414	1.655941
0.349512	1.657445
0.349609	1.658148
0.349707	1.659242
0.349805	1.659803
0.349902	1.662365
0.350000	1.662860
0.350098	1.670252
0.350195	1.672978
0.350293	1.672854
0.350391	1.676132
0.350488	1.686284
0.350586	1.685574
0.350684	1.690927
0.350781	1.685547
0.350879	1.678618
0.350977	1.655829
0.351074	1.641560
0.351172	1.661966
0.351270	1.663143
0.351367	1.657777
0.351465	1.655482
0.351562	1.648182
0.351660	1.623444
0.351758	1.632054
0.351855	1.638720
0.351953	1.623142
0.352051	1.627726
0.352148	1.637443
0.352246	1.597153
0.352344	1.566970
0.352441	1.577390
0.352539	1.612494
0.352637	1.588192
0.352734	1.590557
0.352832	1.586802
0.352930	1.640192
0.353027	1.644771
0.353125	1.645308
0.353223	1.670909
0.353320	1.669070
0.353418	1.674170
0.353516	1.668439
0.353613	1.653550
0.353711	1.636245
0.353809	1.636839
0.353906	1.643311
0.354004	1.654616
0.354102	1.664819
0.354199	1.675316
0.354297	1.679332
0.354395	1.674861
0.354492	1.671743
0.354590	1.684655
0.354687	1.700847
0.354785	1.673054
0.354883	1.640285
0.354980	1.657212
0.355078	1.656209
0.355176	1.656591
0.355273	1.650879
0.355371	1.640815
0.355469	1.627270
0.355566	1.618411
0.355664	1.618212
0.355762	1.617858
0.355859	1.604218
0.355957	1.622901
0.356055	1.634481
0.356152	1.648158
0.356250	1.659016
0.356348	1.665715
0.356445	1.672749
0.356543	1.678726
0.356641	1.683227
0.356738	1.686609
0.356836	1.689634
0.356934	1.690890
0.357031	1.694674
0.357129	1.706833
0.357227	1.711528
0.357324	1.697137
0.357422	1.667009
0.357520	1.698511
0.357617	1.713411
0.357715	1.694861
0.357812	1.706710
0.357910	1.712792
0.358008	1.689849
0.358105	1.695243
0.358203	1.697652
0.358301	1.693539
0.358398	1.697585
0.358496	1.691284
0.358594	1.675375
0.358691	1.657697
0.358789	1.653669
0.358887	1.644436
0.358984	1.661647
0.359082	1.663400
0.359180	1.678467
0.359277	1.684230
0.359375	1.686270
0.359473	1.685707
0.359570	1.663315
0.359668	1.642135
0.359766	1.631710
0.359863	1.635655
0.359961	1.633318
0.360059	1.669789
0.360156	1.664277
0.360254	1.644198
0.360352	1.643349
0.360449	1.626717
0.360547	1.620732
0.360645	1.632588
0.360742	1.642003
0.360840	1.643484
0.360937	1.639217
0.361035	1.647237
0.361133	1.630020
0.361230	1.632795
0.361328	1.630149
0.361426	1.647211
0.361523	1.683730
0.361621	1.673508
0.361719	1.670276
0.361816	1.658503
0.361914	1.662719
0.362012	1.669942
0.362109	1.669949
0.362207	1.664735
0.362305	1.663464
0.362402	1.679158
0.362500	1.657855
0.362598	1.654857
0.362695	1.662237
0.362793	1.655425
0.362891	1.641656
0.362988	1.634105
0.363086	1.630787
0.363184	1.627817
0.363281	1.628662
0.363379	1.629800
0.363477	1.631466
0.363574	1.632263
0.363672	1.634021
0.363770	1.634110
0.363867	1.631254
0.363965	1.630299
0.364062	1.631536
0.364160	1.632480
0.364258	1.633335
0.364355	1.634041
0.364453	1.634616
0.364551	1.634833
0.364648	1.634978
0.364746	1.634873
0.364844	1.634530
0.364941	1.634205
0.365039	1.633634
0.365137	1.633012
0.365234	1.632484
0.365332	1.631904
0.365430	1.631379
0.365527	1.630886
0.365625	1.630498
0.365723	1.630155
0.365820	1.629889
0.365918	1.629815
0.366016	1.629678
0.366113	1.629748
0.366211	1.629857
0.366309	1.630014
0.366406	1.630196
0.366504	1.630342
0.366602	1.630571
0.366699	1.630764
0.366797	1.630937
0.366895	1.631113
0.366992	1.631278
0.367090	1.631469
0.367187	1.631696
0.367285	1.632111
0.367383	1.632446
0.367480	1.632721
0.367578	1.633079
0.367676	1.633471
0.367773	1.633878
0.367871	1.634410
0.367969	1.634996
0.368066	1.635603
0.368164	1.636269
0.368262	1.637009
0.368359	1.637866
0.368457	1.638941
0.368555	1.640001
0.368652	1.641328
0.368750	1.642755
0.368848	1.644523
0.368945	1.646375
0.369043	1.648579
0.369141	1.650776
0.369238	1.653616
0.369336	1.655995
0.369434	1.658970
0.369531	1.660880
0.369629	1.663277
0.369727	1.664193
0.369824	1.666221
0.369922	1.666582
0.370020	1.668588
0.370117	1.668493
0.370215	1.671340
0.370312	1.671401
0.370410	1.676641
0.370508	1.680165
0.370605	1.694792
0.370703	1.677868
0.370801	1.676610
0.370898	1.698007
0.370996	1.686856
0.371094	1.696134
0.371191	1.696827
0.371289	1.699240
0.371387	1.696452
0.371484	1.695947
0.371582	1.696234
0.371680	1.697714
0.371777	1.702289
0.371875	1.706948
0.371973	1.721087
0.372070	1.721432
0.372168	1.729338
0.372266	1.730162
0.372363	1.709354
0.372461	1.710616
0.372559	1.695657
0.372656	1.683417
0.372754	1.666282
0.372852	1.668333
0.372949	1.683383
0.373047	1.671410
0.373145	1.664883
0.373242	1.680182
0.373340	1.693711
0.373437	1.694134
0.373535	1.676107
0.373633	1.629254
0.373730	1.626742
0.373828	1.639641
0.373926	1.641533
0.374023	1.646407
0.374121	1.649732
0.374219	1.669693
0.374316	1.664338
0.374414	1.622932
0.374512	1.657806
0.374609	1.678875
0.374707	1.665125
0.374805	1.661091
0.374902	1.638828
0.375000	1.660826
0.375098	1.672749
0.375195	1.671486
0.375293	1.665133
0.375391	1.663067
0.375488	1.664254
0.375586	1.657430
0.375684	1.652612
0.375781	1.648173
0.375879	1.635553
0.375977	1.597119
0.376074	1.574092
0.376172	1.611221
0.376270	1.617320
0.376367	1.606735
0.376465	1.626874
0.376562	1.642980
0.376660	1.636575
0.376758	1.600586
0.376855	1.597607
0.376953	1.614643
0.377051	1.630038
0.377148	1.635639
0.377246	1.656796
0.377344	1.657540
0.377441	1.640673
0.377539	1.639381
0.377637	1.629581
0.377734	1.633926
0.377832	1.651903
0.377930	1.663417
0.378027	1.661272
0.378125	1.653807
0.378223	1.645055
0.378320	1.650953
0.378418	1.652650
0.378516	1.643438
0.378613	1.646385
0.378711	1.652628
0.378809	1.650050
0.378906	1.647429
0.379004	1.651778
0.379102	1.656750
0.379199	1.653108
0.379297	1.641430
0.379395	1.631272
0.379492	1.639223
0.379590	1.622597
0.379687	1.612797
0.379785	1.613254
0.379883	1.616889
0.379980	1.619696
0.380078	1.606022
0.380176	1.600075
0.380273	1.599824
0.380371	1.607052
0.380469	1.595331
0.380566	1.600866
0.380664	1.596141
0.380762	1.614103
0.380859	1.636151
0.380957	1.635972
0.381055	1.623098
0.381152	1.613685
0.381250	1.600289
0.381348	1.594359
0.381445	1.598415
0.381543	1.579331
0.381641	1.562184
0.381738	1.531659
0.381836	1.504998
0.381934	1.491241
0.382031	1.519764
0.382129	1.533609
0.382227	1.527964
0.382324	1.518257
0.382422	1.509774
0.382520	1.509722
0.382617	1.524972
0.382715	1.539845
0.382812	1.560179
0.382910	1.580382
0.383008	1.600427
0.383105	1.617565
0.383203	1.628365
0.383301	1.631113
0.383398	1.630393
0.383496	1.628829
0.383594	1.628553
0.383691	1.629536
0.383789	1.632865
0.383887	1.637031
0.383984	1.639470
0.384082	1.636482
0.384180	1.632261
0.384277	1.632521
0.384375	1.634604
0.384473	1.636459
0.384570	1.638541
0.384668	1.640492
0.384766	1.643067
0.384863	1.645483
0.384961	1.648700
0.385059	1.651156
0.385156	1.654789
0.385254	1.656419
0.385352	1.668072
0.385449	1.667036
0.385547	1.669857
0.385645	1.674908
0.385742	1.684026
0.385840	1.694527
0.385937	1.700778
0.386035	1.687012
0.386133	1.670742
0.386230	1.665339
0.386328	1.646836
0.386426	1.660928
0.386523	1.655790
0.386621	1.635523
0.386719	1.651238
0.386816	1.671973
0.386914	1.681011
0.387012	1.690232
0.387109	1.699520
0.387207	1.711871
0.387305	1.701316
0.387402	1.695711
0.387500	1.685456
0.387598	1.662929
0.387695	1.663787
0.387793	1.669956
0.387891	1.654442
0.387988	1.649122
0.388086	1.635518
0.388184	1.634442
0.388281	1.611671
0.388379	1.603702
0.388477	1.614868
0.388574	1.580181
0.388672	1.606047
0.388770	1.624964
0.388867	1.630634
0.388965	1.634067
0.389062	1.633669
0.389160	1.644458
0.389258	1.662182
0.389355	1.655154
0.389453	1.649796
0.389551	1.647745
0.389648	1.644642
0.389746	1.658055
0.389844	1.647878
0.389941	1.647972
0.390039	1.647182
0.390137	1.654292
0.390234	1.657851
0.390332	1.671689
0.390430	1.682570
0.390527	1.701633
0.390625	1.666955
0.390723	1.673596
0.390820	1.696899
0.390918	1.696854
0.391016	1.694642
0.391113	1.683579
0.391211	1.684312
0.391309	1.674071
0.391406	1.667638
0.391504	1.665863
0.391602	1.667929
0.391699	1.662764
0.391797	1.657791
0.391895	1.654076
0.391992	1.654524
0.392090	1.653565
0.392187	1.654297
0.392285	1.653955
0.392383	1.654295
0.392480	1.653841
0.392578	1.654582
0.392676	1.654636
0.392773	1.656131
0.392871	1.655257
0.392969	1.652320
0.393066	1.651061
0.393164	1.653577
0.393262	1.654516
0.393359	1.658174
0.393457	1.657389
0.393555	1.655319
0.393652	1.661312
0.393750	1.658092
0.393848	1.657222
0.393945	1.657941
0.394043	1.659309
0.394141	1.657284
0.394238	1.656147
0.394336	1.655521
0.394434	1.655488
0.394531	1.655178
0.394629	1.655870
0.394727	1.656664
0.394824	1.657718
0.394922	1.651872
0.395020	1.645407
0.395117	1.662655
0.395215	1.660294
0.395312	1.651324
0.395410	1.643288
0.395508	1.633115
0.395605	1.633912
0.395703	1.643872
0.395801	1.655507
0.395898	1.637338
0.395996	1.623120
0.396094	1.603497
0.396191	1.604530
0.396289	1.603715
0.396387	1.603545
0.396484	1.572130
0.396582	1.553710
0.396680	1.575575
0.396777	1.588453
0.396875	1.587076
0.396973	1.585167
0.397070	1.582178
0.397168	1.576086
0.397266	1.576031
0.397363	1.586991
0.397461	1.596472
0.397559	1.592463
0.397656	1.608006
0.397754	1.634398
0.397852	1.645328
0.397949	1.650251
0.398047	1.645940
0.398145	1.626588
0.398242	1.608747
0.398340	1.626416
0.398437	1.624225
0.398535	1.641166
0.398633	1.663965
0.398730	1.648812
0.398828	1.647809
0.398926	1.645331
0.399023	1.639939
0.399121	1.638431
0.399219	1.639554
0.399316	1.641287
0.399414	1.643856
0.399512	1.651470
0.399609	1.661650
0.399707	1.656684
0.399805	1.651019
0.399902	1.649038
0.400000	1.651831
0.400098	1.651521
0.400195	1.650900
0.400293	1.646264
0.400391	1.639905
0.400488	1.635192
0.400586	1.644184
0.400684	1.649077
0.400781	1.648886
0.400879	1.650255
0.400977	1.650663
0.401074	1.651522
0.401172	1.651922
0.401270	1.652779
0.401367	1.653332
0.401465	1.654360
0.401562	1.655352
0.401660	1.656815
0.401758	1.658340
0.401855	1.660526
0.401953	1.662696
0.402051	1.665248
0.402148	1.667917
0.402246	1.671270
0.402344	1.674430
0.402441	1.677779
0.402539	1.679330
0.402637	1.680733
0.402734	1.682396
0.402832	1.688064
0.402930	1.685782
0.403027	1.677182
0.403125	1.671954
0.403223	1.675239
0.403320	1.673839
0.403418	1.670990
0.403516	1.669687
0.403613	1.683136
0.403711	1.677745
0.403809	1.681535
0.403906	1.688058
0.404004	1.692617
0.404102	1.697036
0.404199	1.705158
0.404297	1.698296
0.404395	1.673878
0.404492	1.681787
0.404590	1.681498
0.404687	1.676369
0.404785	1.659233
0.404883	1.628086
0.404980	1.619813
0.405078	1.608512
0.405176	1.590885
0.405273	1.586875
0.405371	1.592612
0.405469	1.594767
0.405566	1.608858
0.405664	1.635889
0.405762	1.633906
0.405859	1.626220
0.405957	1.598634
0.406055	1.586969
0.406152	1.595991
0.406250	1.593269
0.406348	1.576383
0.406445	1.584510
0.406543	1.604077
0.406641	1.601702
0.406738	1.625659
0.406836	1.649383
0.406934	1.655551
0.407031	1.652892
0.407129	1.660604
0.407227	1.665788
0.407324	1.671168
0.407422	1.674357
0.407520	1.677578
0.407617	1.679393
0.407715	1.678664
0.407812	1.680926
0.407910	1.690045
0.408008	1.678814
0.408105	1.680157
0.408203	1.678234
0.408301	1.667101
0.408398	1.664918
0.408496	1.667982
0.408594	1.668248
0.408691	1.669868
0.408789	1.668026
0.408887	1.677839
0.408984	1.686391
0.409082	1.687283
0.409180	1.680693
0.409277	1.673351
0.409375	1.649444
0.409473	1.636749
0.409570	1.646306
0.409668	1.652402
0.409766	1.668667
0.409863	1.665277
0.409961	1.668405
0.410059	1.663555
0.410156	1.660886
0.410254	1.643465
0.410352	1.661230
0.410449	1.674997
0.410547	1.677886
0.410645	1.683153
0.410742	1.699144
0.410840	1.704604
0.410937	1.692455
0.411035	1.694503
0.411133	1.691361
0.411230	1.698488
0.411328	1.694259
0.411426	1.701868
0.411523	1.700943
0.411621	1.703604
0.411719	1.701165
0.411816	1.687479
0.411914	1.696817
0.412012	1.685030
0.412109	1.686706
0.412207	1.681414
0.412305	1.685084
0.412402	1.690313
0.412500	1.694324
0.412598	1.689221
0.412695	1.696805
0.412793	1.698397
0.412891	1.682751
0.412988	1.679437
0.413086	1.673148
0.413184	1.665329
0.413281	1.659020
0.413379	1.656771
0.413477	1.657057
0.413574	1.656723
0.413672	1.656030
0.413770	1.655508
0.413867	1.655798
0.413965	1.655692
0.414062	1.655913
0.414160	1.655731
0.414258	1.656830
0.414355	1.655853
0.414453	1.652166
0.414551	1.652089
0.414648	1.652281
0.414746	1.652431
0.414844	1.652786
0.414941	1.653605
0.415039	1.654877
0.415137	1.656537
0.415234	1.658021
0.415332	1.659090
0.415430	1.659346
0.415527	1.659092
0.415625	1.658517
0.415723	1.657756
0.415820	1.657080
0.415918	1.656493
0.416016	1.656034
0.416113	1.655825
0.416211	1.655696
0.416309	1.655530
0.416406	1.655446
0.416504	1.655549
0.416602	1.655738
0.416699	1.656000
0.416797	1.656504
0.416895	1.657000
0.416992	1.657744
0.417090	1.658538
0.417187	1.659759
0.417285	1.661313
0.417383	1.663084
0.417480	1.665175
0.417578	1.667396
0.417676	1.669621
0.417773	1.671401
0.417871	1.673380
0.417969	1.675509
0.418066	1.677590
0.418164	1.679478
0.418262	1.681184
0.418359	1.682798
0.418457	1.684419
0.418555	1.685760
0.418652	1.687220
0.418750	1.688360
0.418848	1.689405
0.418945	1.690421
0.419043	1.691521
0.419141	1.693602
0.419238	1.695718
0.419336	1.692153
0.419434	1.690320
0.419531	1.691806
0.419629	1.690699
0.419727	1.702296
0.419824	1.695669
0.419922	1.690753
0.420020	1.703189
0.420117	1.696773
0.420215	1.691604
0.420312	1.689902
0.420410	1.690334
0.420508	1.691069
0.420605	1.692093
0.420703	1.692114
0.420801	1.691548
0.420898	1.690922
0.420996	1.690644
0.421094	1.690212
0.421191	1.688838
0.421289	1.686771
0.421387	1.685990
0.421484	1.687383
0.421582	1.689951
0.421680	1.692889
0.421777	1.699713
0.421875	1.702907
0.421973	1.698847
0.422070	1.698022
0.422168	1.680323
0.422266	1.683155
0.422363	1.690677
0.422461	1.688265
0.422559	1.695598
0.422656	1.695585
0.422754	1.705781
0.422852	1.684770
0.422949	1.691135
0.423047	1.702857
0.423145	1.698181
0.423242	1.709934
0.423340	1.698650
0.423437	1.698325
0.423535	1.696291
0.423633	1.697899
0.423730	1.711910
0.423828	1.692795
0.423926	1.691314
0.424023	1.676017
0.424121	1.672935
0.424219	1.682917
0.424316	1.671677
0.424414	1.685112
0.424512	1.690046
0.424609	1.695590
0.424707	1.704457
0.424805	1.706724
0.424902	1.704621
0.425000	1.708378
0.425098	1.712546
0.425195	1.716542
0.425293	1.709267
0.425391	1.703566
0.425488	1.701214
0.425586	1.693647
0.425684	1.686716
0.425781	1.684174
0.425879	1.682810
0.425977	1.682064
0.426074	1.679655
0.426172	1.679520
0.426270	1.679025
0.426367	1.683570
0.426465	1.690533
0.426562	1.687734
0.426660	1.679187
0.426758	1.680376
0.426855	1.662766
0.426953	1.672283
0.427051	1.661407
0.427148	1.651331
0.427246	1.642660
0.427344	1.646228
0.427441	1.656996
0.427539	1.652948
0.427637	1.636695
0.427734	1.631379
0.427832	1.639589
0.427930	1.659402
0.428027	1.652824
0.428125	1.642858
0.428223	1.655869
0.428320	1.646181
0.428418	1.648392
0.428516	1.644391
0.428613	1.634583
0.428711	1.628323
0.428809	1.617713
0.428906	1.608784
0.429004	1.577933
0.429102	1.566330
0.429199	1.602449
0.429297	1.594001
0.429395	1.591005
0.429492	1.586512
0.429590	1.577066
0.429687	1.564248
0.429785	1.558493
0.429883	1.542019
0.429980	1.563426
0.430078	1.573076
0.430176	1.594738
0.430273	1.559100
0.430371	1.546278
0.430469	1.603774
0.430566	1.587370
0.430664	1.603592
0.430762	1.621277
0.430859	1.623686
0.430957	1.626923
0.431055	1.638631
0.431152	1.645843
0.431250	1.659577
0.431348	1.672439
0.431445	1.678996
0.431543	1.670525
0.431641	1.673632
0.431738	1.674625
0.431836	1.684556
0.431934	1.678947
0.432031	1.666129
0.432129	1.665398
0.432227	1.662444
0.432324	1.676572
0.432422	1.682659
0.432520	1.687698
0.432617	1.692460
0.432715	1.696679
0.432812	1.703025
0.432910	1.694032
0.433008	1.678593
0.433105	1.705088
0.433203	1.695043
0.433301	1.664002
0.433398	1.689721
0.433496	1.708519
0.433594	1.708197
0.433691	1.708315
0.433789	1.703857
0.433887	1.694053
0.433984	1.684728
0.434082	1.677191
0.434180	1.678715
0.434277	1.682133
0.434375	1.685161
0.434473	1.686784
0.434570	1.685455
0.434668	1.686180
0.434766	1.690320
0.434863	1.688557
0.434961	1.677771
0.435059	1.668023
0.435156	1.667097
0.435254	1.667458
0.435352	1.667189
0.435449	1.666706
0.435547	1.666467
0.435645	1.666706
0.435742	1.667740
0.435840	1.669465
0.435937	1.671697
0.436035	1.674208
0.436133	1.676754
0.436230	1.678773
0.436328	1.680213
0.436426	1.681128
0.436523	1.681685
0.436621	1.682170
0.436719	1.682213
0.436816	1.681887
0.436914	1.681620
0.437012	1.681012
0.437109	1.680123
0.437207	1.679298
0.437305	1.678643
0.437402	1.677999
0.437500	1.677412
0.437598	1.677378
0.437695	1.677363
0.437793	1.678200
0.437891	1.679256
0.437988	1.681231
0.438086	1.682270
0.438184	1.685596
0.438281	1.688947
0.438379	1.691166
0.438477	1.689394
0.438574	1.689875
0.438672	1.690228
0.438770	1.691687
0.438867	1.691450
0.438965	1.693953
0.439062	1.692227
0.439160	1.690789
0.439258	1.695234
0.439355	1.698836
0.439453	1.701514
0.439551	1.713004
0.439648	1.711597
0.439746	1.703644
0.439844	1.705610
0.439941	1.706000
0.440039	1.697212
0.440137	1.703719
0.440234	1.708780
0.440332	1.701684
0.440430	1.703820
0.440527	1.701154
0.440625	1.704154
0.440723	1.695885
0.440820	1.693973
0.440918	1.681047
0.441016	1.680081
0.441113	1.712887
0.441211	1.693816
0.441309	1.676201
0.441406	1.657278
0.441504	1.665584
0.441602	1.639886
0.441699	1.617108
0.441797	1.650206
0.441895	1.650914
0.441992	1.643822
0.442090	1.632215
0.442187	1.621988
0.442285	1.612574
0.442383	1.644080
0.442480	1.668078
0.442578	1.672518
0.442676	1.658106
0.442773	1.641234
0.442871	1.631258
0.442969	1.617152
0.443066	1.617048
0.443164	1.617772
0.443262	1.589355
0.443359	1.558703
0.443457	1.560110
0.443555	1.570319
0.443652	1.563283
0.443750	1.576222
0.443848	1.587552
0.443945	1.565860
0.444043	1.561251
0.444141	1.555569
0.444238	1.570820
0.444336	1.577987
0.444434	1.579752
0.444531	1.563917
0.444629	1.550199
0.444727	1.562775
0.444824	1.567794
0.444922	1.563297
0.445020	1.581255
0.445117	1.561337
0.445215	1.535714
0.445312	1.555684
0.445410	1.557920
0.445508	1.566663
0.445605	1.571238
0.445703	1.606155
0.445801	1.627889
0.445898	1.644031
0.445996	1.649682
0.446094	1.647135
0.446191	1.648558
0.446289	1.655234
0.446387	1.657754
0.446484	1.663307
0.446582	1.667112
0.446680	1.668165
0.446777	1.669269
0.446875	1.669244
0.446973	1.669921
0.447070	1.669535
0.447168	1.672180
0.447266	1.673731
0.447363	1.678805
0.447461	1.666827
0.447559	1.668172
0.447656	1.667174
0.447754	1.673360
0.447852	1.696339
0.447949	1.683952
0.448047	1.696773
0.448145	1.695254
0.448242	1.683750
0.448340	1.677134
0.448437	1.681285
0.448535	1.681898
0.448633	1.675913
0.448730	1.672502
0.448828	1.670655
0.448926	1.670212
0.449023	1.671091
0.449121	1.673624
0.449219	1.673249
0.449316	1.670125
0.449414	1.665551
0.449512	1.669906
0.449609	1.671890
0.449707	1.672052
0.449805	1.672991
0.449902	1.673557
0.450000	1.675022
0.450098	1.676577
0.450195	1.680848
0.450293	1.681821
0.450391	1.683327
0.450488	1.686923
0.450586	1.689027
0.450684	1.691515
0.450781	1.691072
0.450879	1.690357
0.450977	1.684290
0.451074	1.683221
0.451172	1.683006
0.451270	1.682764
0.451367	1.680384
0.451465	1.693254
0.451562	1.698870
0.451660	1.696637
0.451758	1.696295
0.451855	1.695104
0.451953	1.695328
0.452051	1.697185
0.452148	1.697173
0.452246	1.694290
0.452344	1.694529
0.452441	1.695483
0.452539	1.697512
0.452637	1.700451
0.452734	1.704361
0.452832	1.710853
0.452930	1.710977
0.453027	1.703171
0.453125	1.699929
0.453223	1.695115
0.453320	1.691249
0.453418	1.685746
0.453516	1.682877
0.453613	1.681970
0.453711	1.680708
0.453809	1.679817
0.453906	1.678322
0.454004	1.677649
0.454102	1.679241
0.454199	1.689205
0.454297	1.688459
0.454395	1.680156
0.454492	1.685639
0.454590	1.687204
0.454687	1.691105
0.454785	1.690865
0.454883	1.689290
0.454980	1.685034
0.455078	1.677579
0.455176	1.675929
0.455273	1.678117
0.455371	1.681507
0.455469	1.686189
0.455566	1.691079
0.455664	1.694506
0.455762	1.689185
0.455859	1.682908
0.455957	1.684174
0.456055	1.688124
0.456152	1.680199
0.456250	1.666598
0.456348	1.645856
0.456445	1.639854
0.456543	1.639162
0.456641	1.629074
0.456738	1.634869
0.456836	1.660321
0.456934	1.670333
0.457031	1.685609
0.457129	1.681978
0.457227	1.670655
0.457324	1.647969
0.457422	1.657257
0.457520	1.656747
0.457617	1.653216
0.457715	1.660524
0.457812	1.647771
0.457910	1.626919
0.458008	1.635519
0.458105	1.613943
0.458203	1.612056
0.458301	1.628517
0.458398	1.637736
0.458496	1.649554
0.458594	1.647463
0.458691	1.647074
0.458789	1.635368
0.458887	1.632633
0.458984	1.644672
0.459082	1.637648
0.459180	1.634203
0.459277	1.619424
0.459375	1.638266
0.459473	1.666584
0.459570	1.673753
0.459668	1.674504
0.459766	1.680453
0.459863	1.693691
0.459961	1.694879
0.460059	1.683124
0.460156	1.678930
0.460254	1.677499
0.460352	1.675378
0.460449	1.673827
0.460547	1.672709
0.460645	1.672340
0.460742	1.672352
0.460840	1.672808
0.460937	1.673070
0.461035	1.673306
0.461133	1.673048
0.461230	1.672380
0.461328	1.671300
0.461426	1.669973
0.461523	1.668828
0.461621	1.667509
0.461719	1.667175
0.461816	1.666626
0.461914	1.667086
0.462012	1.667180
0.462109	1.668614
0.462207	1.669391
0.462305	1.672698
0.462402	1.674459
0.462500	1.682655
0.462598	1.682028
0.462695	1.678157
0.462793	1.684695
0.462891	1.684821
0.462988	1.686755
0.463086	1.684206
0.463184	1.682784
0.463281	1.680603
0.463379	1.680108
0.463477	1.677045
0.463574	1.673818
0.463672	1.669335
0.463770	1.664490
0.463867	1.645033
0.463965	1.625133
0.464062	1.604760
0.464160	1.584023
0.464258	1.583057
0.464355	1.609470
0.464453	1.631524
0.464551	1.642762
0.464648	1.647420
0.464746	1.658996
0.464844	1.670612
0.464941	1.679566
0.465039	1.687291
0.465137	1.693811
0.465234	1.698367
0.465332	1.698529
0.465430	1.695116
0.465527	1.692863
0.465625	1.691820
0.465723	1.691222
0.465820	1.691225
0.465918	1.691913
0.466016	1.692774
0.466113	1.693894
0.466211	1.694444
0.466309	1.694865
0.466406	1.694681
0.466504	1.694097
0.466602	1.692194
0.466699	1.691002
0.466797	1.689402
0.466895	1.691566
0.466992	1.693476
0.467090	1.689971
0.467187	1.686983
0.467285	1.692717
0.467383	1.690711
0.467480	1.669827
0.467578	1.672251
0.467676	1.681914
0.467773	1.687767
0.467871	1.687340
0.467969	1.683330
0.468066	1.677112
0.468164	1.669826
0.468262	1.664111
0.468359	1.656855
0.468457	1.649136
0.468555	1.633379
0.468652	1.622923
0.468750	1.616967
0.468848	1.631536
0.468945	1.647349
0.469043	1.639069
0.469141	1.652003
0.469238	1.649706
0.469336	1.618691
0.469434	1.608008
0.469531	1.562756
0.469629	1.591204
0.469727	1.614992
0.469824	1.630390
0.469922	1.625238
0.470020	1.602305
0.470117	1.577971
0.470215	1.560661
0.470312	1.566150
0.470410	1.598579
0.470508	1.628294
0.470605	1.635669
0.470703	1.661825
0.470801	1.698730
0.470898	1.703066
0.470996	1.669545
0.471094	1.698193
0.471191	1.668412
0.471289	1.649481
0.471387	1.641865
0.471484	1.634174
0.471582	1.644218
0.471680	1.654877
0.471777	1.668566
0.471875	1.662348
0.471973	1.655310
0.472070	1.647661
0.472168	1.640995
0.472266	1.648254
0.472363	1.637840
0.472461	1.626176
0.472559	1.655941
0.472656	1.653274
0.472754	1.625668
0.472852	1.645824
0.472949	1.663749
0.473047	1.648434
0.473145	1.661772
0.473242	1.624770
0.473340	1.636181
0.473437	1.647632
0.473535	1.632358
0.473633	1.622201
0.473730	1.622606
0.473828	1.624813
0.473926	1.626866
0.474023	1.636002
0.474121	1.656286
0.474219	1.650245
0.474316	1.655608
0.474414	1.645089
0.474512	1.625303
0.474609	1.600357
0.474707	1.568949
0.474805	1.582576
0.474902	1.615456
0.475000	1.610895
0.475098	1.622115
0.475195	1.646255
0.475293	1.665143
0.475391	1.680376
0.475488	1.685551
0.475586	1.682679
0.475684	1.668610
0.475781	1.666386
0.475879	1.665133
0.475977	1.668767
0.476074	1.670281
0.476172	1.673218
0.476270	1.674460
0.476367	1.675799
0.476465	1.677284
0.476562	1.678983
0.476660	1.676267
0.476758	1.673577
0.476855	1.671674
0.476953	1.669357
0.477051	1.666541
0.477148	1.663363
0.477246	1.661130
0.477344	1.657782
0.477441	1.655541
0.477539	1.654644
0.477637	1.654738
0.477734	1.654879
0.477832	1.656578
0.477930	1.657949
0.478027	1.658447
0.478125	1.660846
0.478223	1.662342
0.478320	1.661965
0.478418	1.663229
0.478516	1.662870
0.478613	1.664899
0.478711	1.664004
0.478809	1.668424
0.478906	1.663654
0.479004	1.668130
0.479102	1.671747
0.479199	1.665952
0.479297	1.676014
0.479395	1.670349
0.479492	1.676047
0.479590	1.683051
0.479687	1.674560
0.479785	1.637674
0.479883	1.621583
0.479980	1.637073
0.480078	1.647739
0.480176	1.633897
0.480273	1.632702
0.480371	1.655233
0.480469	1.650373
0.480566	1.654423
0.480664	1.658043
0.480762	1.664098
0.480859	1.676730
0.480957	1.681138
0.481055	1.670985
0.481152	1.667202
0.481250	1.668687
0.481348	1.640622
0.481445	1.611457
0.481543	1.587538
0.481641	1.587005
0.481738	1.612098
0.481836	1.607634
0.481934	1.659130
0.482031	1.692796
0.482129	1.669125
0.482227	1.668641
0.482324	1.669820
0.482422	1.665990
0.482520	1.655045
0.482617	1.654571
0.482715	1.654120
0.482812	1.655513
0.482910	1.659305
0.483008	1.670598
0.483105	1.658035
0.483203	1.630480
0.483301	1.603589
0.483398	1.590698
0.483496	1.590558
0.483594	1.583247
0.483691	1.589641
0.483789	1.583038
0.483887	1.602440
0.483984	1.602083
0.484082	1.618590
0.484180	1.627508
0.484277	1.615443
0.484375	1.617510
0.484473	1.630976
0.484570	1.636259
0.484668	1.620736
0.484766	1.618441
0.484863	1.574576
0.484961	1.584969
0.485059	1.610244
0.485156	1.630952
0.485254	1.615180
0.485352	1.598863
0.485449	1.592572
0.485547	1.616929
0.485645	1.628956
0.485742	1.625678
0.485840	1.591177
0.485937	1.556047
0.486035	1.579380
0.486133	1.606343
0.486230	1.631279
0.486328	1.625634
0.486426	1.613489
0.486523	1.599632
0.486621	1.588134
0.486719	1.573924
0.486816	1.586237
0.486914	1.629773
0.487012	1.649990
0.487109	1.654762
0.487207	1.654766
0.487305	1.660463
0.487402	1.663959
0.487500	1.659658
0.487598	1.657476
0.487695	1.655215
0.487793	1.654788
0.487891	1.653826
0.487988	1.656041
0.488086	1.656958
0.488184	1.659652
0.488281	1.661449
0.488379	1.662051
0.488477	1.661770
0.488574	1.664948
0.488672	1.669440
0.488770	1.672317
0.488867	1.672680
0.488965	1.675082
0.489062	1.669919
0.489160	1.663494
0.489258	1.668089
0.489355	1.669291
0.489453	1.668870
0.489551	1.668924
0.489648	1.669056
0.489746	1.669743
0.489844	1.670613
0.489941	1.671614
0.490039	1.672859
0.490137	1.673509
0.490234	1.674440
0.490332	1.674864
0.490430	1.675329
0.490527	1.674592
0.490625	1.671968
0.490723	1.670634
0.490820	1.670511
0.490918	1.670279
0.491016	1.671307
0.491113	1.671523
0.491211	1.669607
0.491309	1.668417
0.491406	1.669161
0.491504	1.669155
0.491602	1.670611
0.491699	1.672515
0.491797	1.669696
0.491895	1.670083
0.491992	1.670972
0.492090	1.672796
0.492187	1.674388
0.492285	1.668158
0.492383	1.659196
0.492480	1.651299
0.492578	1.660894
0.492676	1.641448
0.492773	1.622451
0.492871	1.633669
0.492969	1.662118
0.493066	1.672400
0.493164	1.686368
0.493262	1.689553
0.493359	1.688598
0.493457	1.689491
0.493555	1.689826
0.493652	1.691187
0.493750	1.687700
0.493848	1.684319
0.493945	1.681425
0.494043	1.682891
0.494141	1.678415
0.494238	1.672302
0.494336	1.679159
0.494434	1.679660
0.494531	1.683732
0.494629	1.669780
0.494727	1.630942
0.494824	1.642541
0.494922	1.668773
0.495020	1.671610
0.495117	1.682053
0.495215	1.692211
0.495312	1.681851
0.495410	1.674168
0.495508	1.672788
0.495605	1.687210
0.495703	1.692942
0.495801	1.683775
0.495898	1.689882
0.495996	1.693116
0.496094	1.690623
0.496191	1.680955
0.496289	1.675429
0.496387	1.678863
0.496484	1.678532
0.496582	1.680586
0.496680	1.680619
0.496777	1.682772
0.496875	1.683537
0.496973	1.685376
0.497070	1.687657
0.497168	1.677951
0.497266	1.667913
0.497363	1.667907
0.497461	1.667580
0.497559	1.669511
0.497656	1.674218
0.497754	1.675080
0.497852	1.678233
0.497949	1.680334
0.498047	1.678158
0.498145	1.677683
0.498242	1.672931
0.498340	1.675212
0.498437	1.687647
0.498535	1.682762
0.498633	1.681160
0.498730	1.682130
0.498828	1.698657
0.498926	1.704474
0.499023	1.700676
0.499121	1.684217
0.499219	1.678338
0.499316	1.672741
0.499414	1.656319
0.499512	1.656374
0.499609	1.666869
0.499707	1.644274
0.499805	1.609588
0.499902	1.604933
0.500000	1.565942
0.500098	1.575831
0.500195	1.574981
0.500293	1.570228
0.500391	1.607039
0.500488	1.617292
0.500586	1.632893
0.500684	1.641151
0.500781	1.593046
0.500879	1.597602
0.500977	1.631626
0.501074	1.644287
0.501172	1.632164
0.501270	1.610214
0.501367	1.631005
0.501465	1.652711
0.501562	1.638506
0.501660	1.634193
0.501758	1.643327
0.501855	1.633832
0.501953	1.632181
0.502051	1.642435
0.502148	1.643795
0.502246	1.645639
0.502344	1.647659
0.502441	1.646981
0.502539	1.643435
0.502637	1.642230
0.502734	1.640557
0.502832	1.640603
0.502930	1.640682
0.503027	1.641879
0.503125	1.644249
0.503223	1.647454
0.503320	1.650732
0.503418	1.653642
0.503516	1.656897
0.503613	1.658893
0.503711	1.654654
0.503809	1.661059
0.503906	1.665492
0.504004	1.668630
0.504102	1.671685
0.504199	1.674222
0.504297	1.675664
0.504395	1.676561
0.504492	1.675799
0.504590	1.675238
0.504687	1.674585
0.504785	1.672762
0.504883	1.671528
0.504980	1.672084
0.505078	1.674522
0.505176	1.678692
0.505273	1.679542
0.505371	1.680047
0.505469	1.681674
0.505566	1.683516
0.505664	1.684801
0.505762	1.683448
0.505859	1.682566
0.505957	1.681167
0.506055	1.679561
0.506152	1.678015
0.506250	1.678349
0.506348	1.679871
0.506445	1.685640
0.506543	1.687435
0.506641	1.681108
0.506738	1.680294
0.506836	1.680028
0.506934	1.680699
0.507031	1.681573
0.507129	1.682621
0.507227	1.684334
0.507324	1.684232
0.507422	1.683633
0.507520	1.678102
0.507617	1.664610
0.507715	1.675212
0.507812	1.679739
0.507910	1.672111
0.508008	1.695372
0.508105	1.701556
0.508203	1.682535
0.508301	1.663405
0.508398	1.670416
0.508496	1.674054
0.508594	1.672738
0.508691	1.681695
0.508789	1.679518
0.508887	1.668842
0.508984	1.640179
0.509082	1.661322
0.509180	1.673675
0.509277	1.669346
0.509375	1.672718
0.509473	1.647099
0.509570	1.621100
0.509668	1.633948
0.509766	1.664552
0.509863	1.671752
0.509961	1.661136
0.510059	1.660947
0.510156	1.658556
0.510254	1.658973
0.510352	1.667064
0.510449	1.681151
0.510547	1.686892
0.510645	1.691621
0.510742	1.689930
0.510840	1.685987
0.510937	1.680214
0.511035	1.676631
0.511133	1.674337
0.511230	1.677883
0.511328	1.675947
0.511426	1.683052
0.511523	1.685541
0.511621	1.681270
0.511719	1.689588
0.511816	1.692723
0.511914	1.688266
0.512012	1.681579
0.512109	1.681723
0.512207	1.685580
0.512305	1.674412
0.512402	1.658467
0.512500	1.649120
0.512598	1.650202
0.512695	1.665686
0.512793	1.671055
0.512891	1.657122
0.512988	1.661485
0.513086	1.670933
0.513184	1.675461
0.513281	1.679893
0.513379	1.680178
0.513477	1.682701
0.513574	1.685934
0.513672	1.685200
0.513770	1.683171
0.513867	1.682283
0.513965	1.680335
0.514062	1.680449
0.514160	1.677719
0.514258	1.676672
0.514355	1.676821
0.514453	1.677227
0.514551	1.678042
0.514648	1.680362
0.514746	1.683619
0.514844	1.685842
0.514941	1.687437
0.515039	1.688468
0.515137	1.689625
0.515234	1.691048
0.515332	1.693071
0.515430	1.695239
0.515527	1.695871
0.515625	1.692935
0.515723	1.691209
0.515820	1.691706
0.515918	1.692902
0.516016	1.694494
0.516113	1.696986
0.516211	1.697337
0.516309	1.696265
0.516406	1.696101
0.516504	1.691805
0.516602	1.695577
0.516699	1.687881
0.516797	1.673322
0.516895	1.687138
0.516992	1.685486
0.517090	1.658170
0.517187	1.664851
0.517285	1.676261
0.517383	1.664728
0.517480	1.650583
0.517578	1.640531
0.517676	1.659648
0.517773	1.650707
0.517871	1.654164
0.517969	1.670585
0.518066	1.679755
0.518164	1.696741
0.518262	1.688708
0.518359	1.670947
0.518457	1.655726
0.518555	1.663926
0.518652	1.674334
0.518750	1.672791
0.518848	1.674599
0.518945	1.675976
0.519043	1.679908
0.519141	1.682557
0.519238	1.686239
0.519336	1.683497
0.519434	1.684572
0.519531	1.677184
0.519629	1.676545
0.519727	1.678200
0.519824	1.678015
0.519922	1.678308
0.520020	1.677962
0.520117	1.678057
0.520215	1.677622
0.520312	1.677518
0.520410	1.677206
0.520508	1.677028
0.520605	1.676744
0.520703	1.676170
0.520801	1.675773
0.520898	1.675256
0.520996	1.675175
0.521094	1.674951
0.521191	1.675422
0.521289	1.675947
0.521387	1.677235
0.521484	1.678446
0.521582	1.682476
0.521680	1.692883
0.521777	1.694293
0.521875	1.699296
0.521973	1.689302
0.522070	1.681845
0.522168	1.677900
0.522266	1.675398
0.522363	1.674515
0.522461	1.675774
0.522559	1.678676
0.522656	1.688681
0.522754	1.705586
0.522852	1.699134
0.522949	1.691321
0.523047	1.689242
0.523145	1.686877
0.523242	1.688563
0.523340	1.687388
0.523437	1.685426
0.523535	1.682653
0.523633	1.683310
0.523730	1.686366
0.523828	1.690878
0.523926	1.697147
0.524023	1.700188
0.524121	1.702450
0.524219	1.701176
0.524316	1.697716
0.524414	1.695957
0.524512	1.699100
0.524609	1.696647
0.524707	1.697354
0.524805	1.696797
0.524902	1.700189
0.525000	1.689057
0.525098	1.674871
0.525195	1.681272
0.525293	1.676120
0.525391	1.668177
0.525488	1.635815
0.525586	1.608038
0.525684	1.619264
0.525781	1.627051
0.525879	1.660277
0.525977	1.679058
0.526074	1.684192
0.526172	1.689373
0.526270	1.692999
0.526367	1.696016
0.526465	1.702086
0.526562	1.703896
0.526660	1.690630
0.526758	1.689291
0.526855	1.690939
0.526953	1.692180
0.527051	1.691754
0.527148	1.691784
0.527246	1.691616
0.527344	1.692265
0.527441	1.692063
0.527539	1.688279
0.527637	1.702125
0.527734	1.702899
0.527832	1.701849
0.527930	1.686375
0.528027	1.672874
0.528125	1.679177
0.528223	1.682857
0.528320	1.685880
0.528418	1.689366
0.528516	1.691480
0.528613	1.693115
0.528711	1.696387
0.528809	1.697113
0.528906	1.697796
0.529004	1.698522
0.529102	1.700352
0.529199	1.713922
0.529297	1.697991
0.529395	1.694586
0.529492	1.693333
0.529590	1.687009
0.529687	1.689080
0.529785	1.676094
0.529883	1.654934
0.529980	1.644910
0.530078	1.642211
0.530176	1.665433
0.530273	1.671904
0.530371	1.662179
0.530469	1.656006
0.530566	1.641900
0.530664	1.611649
0.530762	1.582616
0.530859	1.591099
0.530957	1.606043
0.531055	1.540241
0.531152	1.559668
0.531250	1.577694
0.531348	1.579600
0.531445	1.545908
0.531543	1.539584
0.531641	1.580147
0.531738	1.597488
0.531836	1.611430
0.531934	1.594462
0.532031	1.603152
0.532129	1.599304
0.532227	1.591931
0.532324	1.573117
0.532422	1.554510
0.532520	1.536465
0.532617	1.507735
0.532715	1.514535
0.532812	1.521836
0.532910	1.496682
0.533008	1.467091
0.533105	1.451100
0.533203	1.465444
0.533301	1.468277
0.533398	1.450802
0.533496	1.421440
0.533594	1.446702
0.533691	1.477594
0.533789	1.470737
0.533887	1.478624
0.533984	1.489025
0.534082	1.500820
0.534180	1.518639
0.534277	1.524627
0.534375	1.519129
0.534473	1.526571
0.534570	1.532797
0.534668	1.530602
0.534766	1.513883
0.534863	1.494768
0.534961	1.485078
0.535059	1.490000
0.535156	1.511224
0.535254	1.517442
0.535352	1.504746
0.535449	1.485638
0.535547	1.470506
0.535645	1.465287
0.535742	1.471469
0.535840	1.478634
0.535937	1.473115
0.536035	1.457573
0.536133	1.438158
0.536230	1.420729
0.536328	1.406076
0.536426	1.392983
0.536523	1.392272
0.536621	1.409258
0.536719	1.425873
0.536816	1.440995
0.536914	1.455616
0.537012	1.450287
0.537109	1.445457
0.537207	1.439372
0.537305	1.432482
0.537402	1.433247
0.537500	1.432188
0.537598	1.418835
0.537695	1.419816
0.537793	1.434292
0.537891	1.456513
0.537988	1.503535
0.538086	1.506752
0.538184	1.507603
0.538281	1.534380
0.538379	1.537611
0.538477	1.535720
0.538574	1.542553
0.538672	1.551458
0.538770	1.544663
0.538867	1.541701
0.538965	1.524820
0.539062	1.503323
0.539160	1.500333
0.539258	1.501541
0.539355	1.516063
0.539453	1.508771
0.539551	1.501462
0.539648	1.551690
0.539746	1.588896
0.539844	1.587103
0.539941	1.588395
0.540039	1.596690
0.540137	1.602285
0.540234	1.614325
0.540332	1.611876
0.540430	1.635684
0.540527	1.647205
0.540625	1.655269
0.540723	1.662771
0.540820	1.645284
0.540918	1.626656
0.541016	1.637171
0.541113	1.654848
0.541211	1.644913
0.541309	1.644755
0.541406	1.637529
0.541504	1.634684
0.541602	1.630190
0.541699	1.648193
0.541797	1.664648
0.541895	1.660117
0.541992	1.672544
0.542090	1.674424
0.542187	1.693392
0.542285	1.699801
0.542383	1.709257
0.542480	1.709054
0.542578	1.700651
0.542676	1.697006
0.542773	1.695864
0.542871	1.692986
0.542969	1.690586
0.543066	1.688091
0.543164	1.686436
0.543262	1.685190
0.543359	1.681824
0.543457	1.680181
0.543555	1.679057
0.543652	1.680902
0.543750	1.688106
0.543848	1.692208
0.543945	1.691488
0.544043	1.681029
0.544141	1.665357
0.544238	1.661359
0.544336	1.650424
0.544434	1.644781
0.544531	1.626731
0.544629	1.610602
0.544727	1.614120
0.544824	1.598572
0.544922	1.597912
0.545020	1.576961
0.545117	1.593983
0.545215	1.613570
0.545312	1.601095
0.545410	1.586624
0.545508	1.567950
0.545605	1.575461
0.545703	1.565012
0.545801	1.583717
0.545898	1.611264
0.545996	1.624265
0.546094	1.642894
0.546191	1.654679
0.546289	1.667462
0.546387	1.671702
0.546484	1.669250
0.546582	1.667719
0.546680	1.665134
0.546777	1.661222
0.546875	1.661276
0.546973	1.663071
0.547070	1.664463
0.547168	1.666258
0.547266	1.669066
0.547363	1.672859
0.547461	1.674805
0.547559	1.686353
0.547656	1.694989
0.547754	1.693328
0.547852	1.689943
0.547949	1.688586
0.548047	1.690017
0.548145	1.679620
0.548242	1.671790
0.548340	1.654264
0.548437	1.673712
0.548535	1.669463
0.548633	1.666984
0.548730	1.679281
0.548828	1.670078
0.548926	1.653914
0.549023	1.658237
0.549121	1.656250
0.549219	1.655355
0.549316	1.653797
0.549414	1.653037
0.549512	1.651626
0.549609	1.650793
0.549707	1.649596
0.549805	1.648766
0.549902	1.647770
0.550000	1.646990
0.550098	1.646250
0.550195	1.645679
0.550293	1.645135
0.550391	1.644762
0.550488	1.644394
0.550586	1.644176
0.550684	1.644151
0.550781	1.644070
0.550879	1.644116
0.550977	1.644287
0.551074	1.644433
0.551172	1.644755
0.551270	1.645151
0.551367	1.645502
0.551465	1.646082
0.551562	1.646678
0.551660	1.647301
0.551758	1.647983
0.551855	1.648813
0.551953	1.649640
0.552051	1.650489
0.552148	1.651455
0.552246	1.652588
0.552344	1.653753
0.552441	1.654973
0.552539	1.656411
0.552637	1.657840
0.552734	1.659557
0.552832	1.661601
0.552930	1.664093
0.553027	1.667064
0.553125	1.670632
0.553223	1.674687
0.553320	1.678528
0.553418	1.680755
0.553516	1.681012
0.553613	1.680242
0.553711	1.678451
0.553809	1.676380
0.553906	1.675287
0.554004	1.674903
0.554102	1.673976
0.554199	1.672987
0.554297	1.672122
0.554395	1.671312
0.554492	1.670574
0.554590	1.670169
0.554687	1.669939
0.554785	1.669923
0.554883	1.669871
0.554980	1.669825
0.555078	1.670004
0.555176	1.670043
0.555273	1.670498
0.555371	1.671066
0.555469	1.671800
0.555566	1.672721
0.555664	1.673956
0.555762	1.675299
0.555859	1.677011
0.555957	1.678744
0.556055	1.680598
0.556152	1.682166
0.556250	1.684007
0.556348	1.685713
0.556445	1.687867
0.556543	1.689242
0.556641	1.690485
0.556738	1.691291
0.556836	1.693390
0.556934	1.695415
0.557031	1.699682
0.557129	1.703105
0.557227	1.706655
0.557324	1.695630
0.557422	1.693729
0.557520	1.697547
0.557617	1.695272
0.557715	1.693099
0.557812	1.690572
0.557910	1.689180
0.558008	1.686474
0.558105	1.686528
0.558203	1.685347
0.558301	1.685931
0.558398	1.680776
0.558496	1.683177
0.558594	1.704322
0.558691	1.689732
0.558789	1.679403
0.558887	1.687379
0.558984	1.702232
0.559082	1.702470
0.559180	1.687695
0.559277	1.707279
0.559375	1.727576
0.559473	1.710124
0.559570	1.704521
0.559668	1.692851
0.559766	1.696799
0.559863	1.690111
0.559961	1.692623
0.560059	1.692520
0.560156	1.692947
0.560254	1.692570
0.560352	1.695798
0.560449	1.698527
0.560547	1.702321
0.560645	1.703996
0.560742	1.704867
0.560840	1.703464
0.560937	1.698756
0.561035	1.693011
0.561133	1.689573
0.561230	1.686653
0.561328	1.682636
0.561426	1.681010
0.561523	1.681513
0.561621	1.684195
0.561719	1.688650
0.561816	1.695660
0.561914	1.698195
0.562012	1.697670
0.562109	1.694665
0.562207	1.687340
0.562305	1.682340
0.562402	1.682174
0.562500	1.682940
0.562598	1.676485
0.562695	1.675818
0.562793	1.679075
0.562891	1.663178
0.562988	1.653573
0.563086	1.657553
0.563184	1.651022
0.563281	1.654142
0.563379	1.653666
0.563477	1.652039
0.563574	1.645544
0.563672	1.641731
0.563770	1.639135
0.563867	1.638601
0.563965	1.638839
0.564062	1.640764
0.564160	1.642715
0.564258	1.645133
0.564355	1.647008
0.564453	1.648610
0.564551	1.649276
0.564648	1.649193
0.564746	1.648473
0.564844	1.647517
0.564941	1.647242
0.565039	1.647059
0.565137	1.648299
0.565234	1.650322
0.565332	1.666767
0.565430	1.662524
0.565527	1.651124
0.565625	1.655202
0.565723	1.642973
0.565820	1.626946
0.565918	1.631163
0.566016	1.635406
0.566113	1.622931
0.566211	1.612725
0.566309	1.632307
0.566406	1.607976
0.566504	1.618993
0.566602	1.638645
0.566699	1.639946
0.566797	1.637987
0.566895	1.638575
0.566992	1.667963
0.567090	1.652285
0.567187	1.620429
0.567285	1.603618
0.567383	1.607933
0.567480	1.616785
0.567578	1.612972
0.567676	1.626096
0.567773	1.618346
0.567871	1.606136
0.567969	1.601635
0.568066	1.581088
0.568164	1.576077
0.568262	1.586646
0.568359	1.584429
0.568457	1.581799
0.568555	1.590247
0.568652	1.594258
0.568750	1.601624
0.568848	1.605040
0.568945	1.589287
0.569043	1.598624
0.569141	1.623706
0.569238	1.588597
0.569336	1.558282
0.569434	1.574808
0.569531	1.597543
0.569629	1.591722
0.569727	1.583236
0.569824	1.580278
0.569922	1.597688
0.570020	1.628737
0.570117	1.624179
0.570215	1.626539
0.570312	1.634287
0.570410	1.640613
0.570508	1.646318
0.570605	1.649357
0.570703	1.650643
0.570801	1.653600
0.570898	1.656352
0.570996	1.657071
0.571094	1.660481
0.571191	1.658580
0.571289	1.658466
0.571387	1.658226
0.571484	1.659330
0.571582	1.657591
0.571680	1.657103
0.571777	1.651343
0.571875	1.650451
0.571973	1.652755
0.572070	1.646288
0.572168	1.639833
0.572266	1.636818
0.572363	1.613462
0.572461	1.562429
0.572559	1.535146
0.572656	1.536105
0.572754	1.541679
0.572852	1.583550
0.572949	1.571827
0.573047	1.606550
0.573145	1.651748
0.573242	1.649941
0.573340	1.640590
0.573437	1.659823
0.573535	1.671838
0.573633	1.673013
0.573730	1.677985
0.573828	1.673574
0.573926	1.671495
0.574023	1.669327
0.574121	1.669798
0.574219	1.669200
0.574316	1.659339
0.574414	1.673271
0.574512	1.684384
0.574609	1.640426
0.574707	1.624756
0.574805	1.608415
0.574902	1.627528
0.575000	1.628364
0.575098	1.604832
0.575195	1.590951
0.575293	1.627439
0.575391	1.670441
0.575488	1.662044
0.575586	1.678095
0.575684	1.670409
0.575781	1.676706
0.575879	1.679345
0.575977	1.681214
0.576074	1.681079
0.576172	1.679091
0.576270	1.676121
0.576367	1.671080
0.576465	1.660003
0.576562	1.650641
0.576660	1.639735
0.576758	1.627757
0.576855	1.627076
0.576953	1.649159
0.577051	1.670791
0.577148	1.666919
0.577246	1.664883
0.577344	1.658475
0.577441	1.655710
0.577539	1.655373
0.577637	1.657968
0.577734	1.659953
0.577832	1.662489
0.577930	1.664411
0.578027	1.666771
0.578125	1.668921
0.578223	1.670778
0.578320	1.671256
0.578418	1.671484
0.578516	1.671178
0.578613	1.667770
0.578711	1.664349
0.578809	1.664150
0.578906	1.665589
0.579004	1.667862
0.579102	1.669642
0.579199	1.671134
0.579297	1.681732
0.579395	1.692027
0.579492	1.683258
0.579590	1.663270
0.579687	1.662344
0.579785	1.633764
0.579883	1.578080
0.579980	1.577293
0.580078	1.550152
0.580176	1.534744
0.580273	1.563330
0.580371	1.595540
0.580469	1.622837
0.580566	1.623211
0.580664	1.606350
0.580762	1.612312
0.580859	1.619015
0.580957	1.625104
0.581055	1.625037
0.581152	1.615386
0.581250	1.609387
0.581348	1.599706
0.581445	1.586628
0.581543	1.561680
0.581641	1.560283
0.581738	1.558038
0.581836	1.569009
0.581934	1.565451
0.582031	1.553144
0.582129	1.567537
0.582227	1.579993
0.582324	1.584694
0.582422	1.629319
0.582520	1.649076
0.582617	1.623391
0.582715	1.612567
0.582812	1.650996
0.582910	1.689490
0.583008	1.720927
0.583105	1.667084
0.583203	1.615079
0.583301	1.631049
0.583398	1.622233
0.583496	1.617776
0.583594	1.612758
0.583691	1.628219
0.583789	1.637166
0.583887	1.626675
0.583984	1.585016
0.584082	1.572152
0.584180	1.607814
0.584277	1.648693
0.584375	1.652816
0.584473	1.644654
0.584570	1.654753
0.584668	1.662609
0.584766	1.668286
0.584863	1.665076
0.584961	1.662276
0.585059	1.659239
0.585156	1.660909
0.585254	1.661719
0.585352	1.664495
0.585449	1.666522
0.585547	1.669362
0.585645	1.670919
0.585742	1.672381
0.585840	1.672465
0.585937	1.672920
0.586035	1.673149
0.586133	1.673712
0.586230	1.674101
0.586328	1.674850
0.586426	1.675504
0.586523	1.676312
0.586621	1.677220
0.586719	1.679187
0.586816	1.682433
0.586914	1.687153
0.587012	1.688733
0.587109	1.688568
0.587207	1.687503
0.587305	1.686784
0.587402	1.685906
0.587500	1.685649
0.587598	1.684955
0.587695	1.683801
0.587793	1.683017
0.587891	1.683153
0.587988	1.677926
0.588086	1.680680
0.588184	1.687859
0.588281	1.679925
0.588379	1.685964
0.588477	1.673067
0.588574	1.656385
0.588672	1.653232
0.588770	1.651158
0.588867	1.661273
0.588965	1.645350
0.589062	1.621370
0.589160	1.594698
0.589258	1.570403
0.589355	1.577196
0.589453	1.577143
0.589551	1.580228
0.589648	1.599518
0.589746	1.597059
0.589844	1.573290
0.589941	1.568734
0.590039	1.552358
0.590137	1.562718
0.590234	1.574082
0.590332	1.573905
0.590430	1.590680
0.590527	1.605169
0.590625	1.625452
0.590723	1.644576
0.590820	1.656904
0.590918	1.675743
0.591016	1.660270
0.591113	1.626268
0.591211	1.630399
0.591309	1.635733
0.591406	1.658840
0.591504	1.670027
0.591602	1.677544
0.591699	1.685234
0.591797	1.688832
0.591895	1.689413
0.591992	1.689815
0.592090	1.691291
0.592187	1.697656
0.592285	1.698604
0.592383	1.697006
0.592480	1.697944
0.592578	1.706792
0.592676	1.705427
0.592773	1.695485
0.592871	1.691214
0.592969	1.669744
0.593066	1.687670
0.593164	1.699916
0.593262	1.692026
0.593359	1.694791
0.593457	1.682788
0.593555	1.687996
0.593652	1.693434
0.593750	1.698770
0.593848	1.695844
0.593945	1.683772
0.594043	1.670664
0.594141	1.650239
0.594238	1.663158
0.594336	1.670906
0.594434	1.674022
0.594531	1.675570
0.594629	1.676251
0.594727	1.676106
0.594824	1.676490
0.594922	1.676588
0.595020	1.678050
0.595117	1.678128
0.595215	1.678092
0.595312	1.674851
0.595410	1.672992
0.595508	1.668367
0.595605	1.676686
0.595703	1.690040
0.595801	1.685544
0.595898	1.683186
0.595996	1.685519
0.596094	1.681322
0.596191	1.685491
0.596289	1.686191
0.596387	1.672291
0.596484	1.668183
0.596582	1.659704
0.596680	1.664626
0.596777	1.649375
0.596875	1.638979
0.596973	1.612489
0.597070	1.586555
0.597168	1.599283
0.597266	1.601669
0.597363	1.607263
0.597461	1.597140
0.597559	1.600880
0.597656	1.613468
0.597754	1.615688
0.597852	1.603951
0.597949	1.551905
0.598047	1.532922
0.598145	1.549827
0.598242	1.549372
0.598340	1.552415
0.598437	1.561045
0.598535	1.567882
0.598633	1.589831
0.598730	1.578892
0.598828	1.581445
0.598926	1.592026
0.599023	1.589701
0.599121	1.556168
0.599219	1.520201
0.599316	1.462470
0.599414	1.495153
0.599512	1.512921
0.599609	1.556222
0.599707	1.587775
0.599805	1.610930
0.599902	1.653455
0.600000	1.620479
0.600098	1.620389
0.600195	1.626464
0.600293	1.639976
0.600391	1.640310
0.600488	1.642127
0.600586	1.638373
0.600684	1.637930
0.600781	1.635470
0.600879	1.637228
0.600977	1.637294
0.601074	1.638089
0.601172	1.636855
0.601270	1.636985
0.601367	1.638406
0.601465	1.639124
0.601562	1.636741
0.601660	1.638118
0.601758	1.640419
0.601855	1.641863
0.601953	1.641895
0.602051	1.643514
0.602148	1.644218
0.602246	1.646663
0.602344	1.648108
0.602441	1.651520
0.602539	1.650776
0.602637	1.657375
0.602734	1.651318
0.602832	1.643648
0.602930	1.663359
0.603027	1.662630
0.603125	1.642530
0.603223	1.618671
0.603320	1.602783
0.603418	1.634086
0.603516	1.657944
0.603613	1.661620
0.603711	1.666577
0.603809	1.668664
0.603906	1.670415
0.604004	1.671785
0.604102	1.673678
0.604199	1.674637
0.604297	1.675927
0.604395	1.676816
0.604492	1.677901
0.604590	1.678263
0.604687	1.678330
0.604785	1.677777
0.604883	1.677494
0.604980	1.677378
0.605078	1.678186
0.605176	1.679750
0.605273	1.681021
0.605371	1.679493
0.605469	1.680531
0.605566	1.682375
0.605664	1.684793
0.605762	1.686058
0.605859	1.686919
0.605957	1.688124
0.606055	1.691294
0.606152	1.692495
0.606250	1.689596
0.606348	1.663347
0.606445	1.676210
0.606543	1.684690
0.606641	1.673879
0.606738	1.691302
0.606836	1.686842
0.606934	1.674762
0.607031	1.678961
0.607129	1.675942
0.607227	1.687092
0.607324	1.692875
0.607422	1.682390
0.607520	1.680101
0.607617	1.677842
0.607715	1.666340
0.607812	1.639431
0.607910	1.651610
0.608008	1.668942
0.608105	1.683589
0.608203	1.685013
0.608301	1.665921
0.608398	1.634208
0.608496	1.649885
0.608594	1.649650
0.608691	1.643077
0.608789	1.637064
0.608887	1.646793
0.608984	1.638543
0.609082	1.618464
0.609180	1.609988
0.609277	1.623895
0.609375	1.662161
0.609473	1.615490
0.609570	1.599589
0.609668	1.685427
0.609766	1.682416
0.609863	1.674382
0.609961	1.689467
0.610059	1.689102
0.610156	1.685616
0.610254	1.681889
0.610352	1.680585
0.610449	1.680714
0.610547	1.675147
0.610645	1.667937
0.610742	1.663544
0.610840	1.659692
0.610937	1.655961
0.611035	1.649531
0.611133	1.641954
0.611230	1.630534
0.611328	1.622394
0.611426	1.616383
0.611523	1.637283
0.611621	1.644279
0.611719	1.635160
0.611816	1.647977
0.611914	1.666963
0.612012	1.654900
0.612109	1.650980
0.612207	1.659452
0.612305	1.660066
0.612402	1.665127
0.612500	1.673098
0.612598	1.670204
0.612695	1.672513
0.612793	1.656070
0.612891	1.648687
0.612988	1.662629
0.613086	1.668253
0.613184	1.666584
0.613281	1.667170
0.613379	1.665319
0.613477	1.666842
0.613574	1.665148
0.613672	1.658007
0.613770	1.644279
0.613867	1.633100
0.613965	1.632586
0.614062	1.641222
0.614160	1.642702
0.614258	1.646061
0.614355	1.642130
0.614453	1.617854
0.614551	1.618204
0.614648	1.614564
0.614746	1.600846
0.614844	1.598261
0.614941	1.600801
0.615039	1.609266
0.615137	1.620568
0.615234	1.604894
0.615332	1.583021
0.615430	1.596390
0.615527	1.605215
0.615625	1.598130
0.615723	1.589557
0.615820	1.580768
0.615918	1.577237
0.616016	1.548638
0.616113	1.557078
0.616211	1.590271
0.616309	1.604872
0.616406	1.580283
0.616504	1.540723
0.616602	1.530206
0.616699	1.520395
0.616797	1.514952
0.616895	1.494543
0.616992	1.501132
0.617090	1.494580
0.617187	1.501176
0.617285	1.472934
0.617383	1.474520
0.617480	1.509170
0.617578	1.515553
0.617676	1.544798
0.617773	1.558790
0.617871	1.581772
0.617969	1.588256
0.618066	1.605430
0.618164	1.610050
0.618262	1.633842
0.618359	1.644766
0.618457	1.628763
0.618555	1.642998
0.618652	1.658735
0.618750	1.627771
0.618848	1.626320
0.618945	1.668535
0.619043	1.636871
0.619141	1.638091
0.619238	1.617684
0.619336	1.613068
0.619434	1.628626
0.619531	1.634952
0.619629	1.645070
0.619727	1.640707
0.619824	1.656830
0.619922	1.654273
0.620020	1.654766
0.620117	1.649201
0.620215	1.674065
0.620312	1.689544
0.620410	1.672952
0.620508	1.667342
0.620605	1.659003
0.620703	1.640217
0.620801	1.647122
0.620898	1.665078
0.620996	1.668623
0.621094	1.670439
0.621191	1.673653
0.621289	1.673456
0.621387	1.674512
0.621484	1.674179
0.621582	1.678116
0.621680	1.681839
0.621777	1.697250
0.621875	1.715907
0.621973	1.712413
0.622070	1.689669
0.622168	1.663212
0.622266	1.647119
0.622363	1.637976
0.622461	1.636118
0.622559	1.629692
0.622656	1.623915
0.622754	1.615702
0.622852	1.607640
0.622949	1.593902
0.623047	1.577941
0.623145	1.560430
0.623242	1.548940
0.623340	1.538610
0.623437	1.550430
0.623535	1.553923
0.623633	1.554936
0.623730	1.554509
0.623828	1.563965
0.623926	1.584869
0.624023	1.568836
0.624121	1.558372
0.624219	1.566892
0.624316	1.582141
0.624414	1.614759
0.624512	1.611151
0.624609	1.601237
0.624707	1.601110
0.624805	1.614971
0.624902	1.596856
0.625000	1.598434
0.625098	1.620939
0.625195	1.643300
0.625293	1.653966
0.625391	1.660416
0.625488	1.654599
0.625586	1.670158
0.625684	1.662078
0.625781	1.628773
0.625879	1.609599
0.625977	1.602695
0.626074	1.608810
0.626172	1.624559
0.626270	1.613629
0.626367	1.611870
0.626465	1.650393
0.626562	1.652196
0.626660	1.663511
0.626758	1.667103
0.626855	1.661532
0.626953	1.662071
0.627051	1.662844
0.627148	1.665349
0.627246	1.667744
0.627344	1.666117
0.627441	1.670499
0.627539	1.678348
0.627637	1.693831
0.627734	1.667688
0.627832	1.619342
0.627930	1.593631
0.628027	1.601917
0.628125	1.589020
0.628223	1.607661
0.628320	1.648198
0.628418	1.640375
0.628516	1.628592
0.628613	1.639700
0.628711	1.649383
0.628809	1.653651
0.628906	1.661767
0.629004	1.662412
0.629102	1.662505
0.629199	1.662616
0.629297	1.663666
0.629395	1.663993
0.629492	1.662065
0.629590	1.656817
0.629687	1.650468
0.629785	1.645648
0.629883	1.642449
0.629980	1.625921
0.630078	1.630248
0.630176	1.620536
0.630273	1.587815
0.630371	1.576468
0.630469	1.608223
0.630566	1.616157
0.630664	1.592233
0.630762	1.572722
0.630859	1.567632
0.630957	1.563365
0.631055	1.571181
0.631152	1.566659
0.631250	1.527161
0.631348	1.513264
0.631445	1.512944
0.631543	1.535130
0.631641	1.563360
0.631738	1.551052
0.631836	1.564814
0.631934	1.606531
0.632031	1.609226
0.632129	1.622558
0.632227	1.615424
0.632324	1.603146
0.632422	1.612849
0.632520	1.609519
0.632617	1.577252
0.632715	1.595504
0.632812	1.621889
0.632910	1.640481
0.633008	1.633643
0.633105	1.634435
0.633203	1.639843
0.633301	1.620253
0.633398	1.623916
0.633496	1.628588
0.633594	1.625063
0.633691	1.607225
0.633789	1.591734
0.633887	1.623903
0.633984	1.643242
0.634082	1.649387
0.634180	1.678472
0.634277	1.676005
0.634375	1.669023
0.634473	1.659506
0.634570	1.656272
0.634668	1.671820
0.634766	1.665961
0.634863	1.668477
0.634961	1.668860
0.635059	1.672051
0.635156	1.674434
0.635254	1.675638
0.635352	1.675381
0.635449	1.678932
0.635547	1.681323
0.635645	1.683697
0.635742	1.683348
0.635840	1.681405
0.635937	1.677348
0.636035	1.674166
0.636133	1.670929
0.636230	1.664228
0.636328	1.651661
0.636426	1.647602
0.636523	1.650895
0.636621	1.657821
0.636719	1.648935
0.636816	1.633091
0.636914	1.648040
0.637012	1.637335
0.637109	1.641733
0.637207	1.636801
0.637305	1.623892
0.637402	1.633394
0.637500	1.655796
0.637598	1.668708
0.637695	1.684523
0.637793	1.681338
0.637891	1.671202
0.637988	1.653931
0.638086	1.632669
0.638184	1.626539
0.638281	1.597733
0.638379	1.607268
0.638477	1.636034
0.638574	1.635356
0.638672	1.618416
0.638770	1.656828
0.638867	1.672757
0.638965	1.673700
0.639062	1.682826
0.639160	1.692056
0.639258	1.707044
0.639355	1.706998
0.639453	1.705271
0.639551	1.703189
0.639648	1.684932
0.639746	1.699061
0.639844	1.680738
0.639941	1.645259
0.640039	1.640851
0.640137	1.641588
0.640234	1.652326
0.640332	1.635873
0.640430	1.624692
0.640527	1.627130
0.640625	1.628422
0.640723	1.622953
0.640820	1.621587
0.640918	1.610214
0.641016	1.599063
0.641113	1.598429
0.641211	1.582544
0.641309	1.559008
0.641406	1.555582
0.641504	1.539743
0.641602	1.536398
0.641699	1.550078
0.641797	1.558712
0.641895	1.561662
0.641992	1.545384
0.642090	1.512826
0.642187	1.511399
0.642285	1.543512
0.642383	1.554665
0.642480	1.557536
0.642578	1.557600
0.642676	1.526823
0.642773	1.525445
0.642871	1.535356
0.642969	1.518509
0.643066	1.517270
0.643164	1.505407
0.643262	1.480952
0.643359	1.451873
0.643457	1.473182
0.643555	1.487161
0.643652	1.481870
0.643750	1.477621
0.643848	1.521883
0.643945	1.547679
0.644043	1.522858
0.644141	1.534790
0.644238	1.564539
0.644336	1.588258
0.644434	1.565372
0.644531	1.547391
0.644629	1.571791
0.644727	1.529447
0.644824	1.495687
0.644922	1.471880
0.645020	1.495061
0.645117	1.525448
0.645215	1.529742
0.645312	1.527283
0.645410	1.521247
0.645508	1.514952
0.645605	1.507721
0.645703	1.516931
0.645801	1.555284
0.645898	1.582419
0.645996	1.603253
0.646094	1.606701
0.646191	1.590977
0.646289	1.590432
0.646387	1.605957
0.646484	1.611393
0.646582	1.592580
0.646680	1.572271
0.646777	1.595522
0.646875	1.656099
0.646973	1.673951
0.647070	1.663748
0.647168	1.661559
0.647266	1.659746
0.647363	1.660128
0.647461	1.660410
0.647559	1.663598
0.647656	1.666382
0.647754	1.670238
0.647852	1.673634
0.647949	1.677115
0.648047	1.679582
0.648145	1.681783
0.648242	1.684227
0.648340	1.687312
0.648437	1.689710
0.648535	1.690801
0.648633	1.692548
0.648730	1.692202
0.648828	1.692647
0.648926	1.690889
0.649023	1.691295
0.649121	1.690231
0.649219	1.692235
0.649316	1.690861
0.649414	1.693329
0.649512	1.692827
0.649609	1.703148
0.649707	1.693808
0.649805	1.711572
0.649902	1.719466
0.650000	1.701740
0.650098	1.707788
0.650195	1.704552
0.650293	1.706151
0.650391	1.711389
0.650488	1.712595
0.650586	1.702772
0.650684	1.686183
0.650781	1.694828
0.650879	1.709639
0.650977	1.691478
0.651074	1.694921
0.651172	1.685458
0.651270	1.676643
0.651367	1.678131
0.651465	1.676314
0.651562	1.680838
0.651660	1.675259
0.651758	1.645241
0.651855	1.633670
0.651953	1.634254
0.652051	1.604509
0.652148	1.535456
0.652246	1.539931
0.652344	1.545855
0.652441	1.568778
0.652539	1.592848
0.652637	1.606158
0.652734	1.629825
0.652832	1.629336
0.652930	1.630897
0.653027	1.631763
0.653125	1.620925
0.653223	1.601287
0.653320	1.594114
0.653418	1.580488
0.653516	1.573918
0.653613	1.574029
0.653711	1.567224
0.653809	1.557363
0.653906	1.573019
0.654004	1.606000
0.654102	1.599908
0.654199	1.587118
0.654297	1.564464
0.654395	1.564363
0.654492	1.542302
0.654590	1.520121
0.654687	1.513183
0.654785	1.518164
0.654883	1.496315
0.654980	1.474317
0.655078	1.489295
0.655176	1.506054
0.655273	1.520209
0.655371	1.528766
0.655469	1.536706
0.655566	1.558961
0.655664	1.574530
0.655762	1.580274
0.655859	1.573954
0.655957	1.559806
0.656055	1.546204
0.656152	1.523708
0.656250	1.522376
0.656348	1.504920
0.656445	1.534371
0.656543	1.563197
0.656641	1.543538
0.656738	1.593976
0.656836	1.636741
0.656934	1.643409
0.657031	1.655305
0.657129	1.647393
0.657227	1.632368
0.657324	1.646976
0.657422	1.636139
0.657520	1.625737
0.657617	1.582592
0.657715	1.630308
0.657812	1.608683
0.657910	1.572483
0.658008	1.588796
0.658105	1.619613
0.658203	1.642139
0.658301	1.646605
0.658398	1.644217
0.658496	1.609595
0.658594	1.571168
0.658691	1.588693
0.658789	1.626285
0.658887	1.647618
0.658984	1.653300
0.659082	1.652205
0.659180	1.661470
0.659277	1.683644
0.659375	1.678124
0.659473	1.673374
0.659570	1.670459
0.659668	1.674730
0.659766	1.675204
0.659863	1.659953
0.659961	1.660344
0.660059	1.661418
0.660156	1.662071
0.660254	1.663643
0.660352	1.664901
0.660449	1.661352
0.660547	1.663623
0.660645	1.658193
0.660742	1.644547
0.660840	1.632505
0.660937	1.609246
0.661035	1.578643
0.661133	1.561910
0.661230	1.538563
0.661328	1.521901
0.661426	1.517236
0.661523	1.512757
0.661621	1.520797
0.661719	1.509433
0.661816	1.507735
0.661914	1.517098
0.662012	1.545504
0.662109	1.546611
0.662207	1.607867
0.662305	1.597693
0.662402	1.602297
0.662500	1.636074
0.662598	1.641396
0.662695	1.659955
0.662793	1.648728
0.662891	1.653436
0.662988	1.629895
0.663086	1.619137
0.663184	1.594106
0.663281	1.558338
0.663379	1.555448
0.663477	1.571351
0.663574	1.598169
0.663672	1.616111
0.663770	1.619835
0.663867	1.625527
0.663965	1.626064
0.664062	1.628309
0.664160	1.627915
0.664258	1.628491
0.664355	1.627471
0.664453	1.627677
0.664551	1.627153
0.664648	1.627450
0.664746	1.627371
0.664844	1.627701
0.664941	1.627805
0.665039	1.628294
0.665137	1.628607
0.665234	1.629193
0.665332	1.629879
0.665430	1.630679
0.665527	1.631730
0.665625	1.632808
0.665723	1.634478
0.665820	1.635866
0.665918	1.638171
0.666016	1.640434
0.666113	1.643943
0.666211	1.645547
0.666309	1.648008
0.666406	1.650348
0.666504	1.650114
0.666602	1.651566
0.666699	1.654655
0.666797	1.655544
0.666895	1.658608
0.666992	1.659218
0.667090	1.661687
0.667187	1.658992
0.667285	1.663065
0.667383	1.657527
0.667480	1.656674
0.667578	1.652724
0.667676	1.678027
0.667773	1.693885
0.667871	1.667514
0.667969	1.667426
0.668066	1.676212
0.668164	1.678088
0.668262	1.676600
0.668359	1.678828
0.668457	1.675429
0.668555	1.680157
0.668652	1.684109
0.668750	1.692152
0.668848	1.690958
0.668945	1.693105
0.669043	1.691732
0.669141	1.680747
0.669238	1.678504
0.669336	1.666163
0.669434	1.642554
0.669531	1.608030
0.669629	1.598668
0.669727	1.585755
0.669824	1.596015
0.669922	1.605824
0.670020	1.609447
0.670117	1.620134
0.670215	1.609890
0.670312	1.626397
0.670410	1.637045
0.670508	1.632525
0.670605	1.613776
0.670703	1.606024
0.670801	1.598758
0.670898	1.606173
0.670996	1.574779
0.671094	1.562987
0.671191	1.585061
0.671289	1.571386
0.671387	1.549578
0.671484	1.576603
0.671582	1.570217
0.671680	1.549774
0.671777	1.547610
0.671875	1.537183
0.671973	1.536048
0.672070	1.521503
0.672168	1.498865
0.672266	1.509087
0.672363	1.524737
0.672461	1.534763
0.672559	1.534712
0.672656	1.525027
0.672754	1.528636
0.672852	1.543522
0.672949	1.536203
0.673047	1.537378
0.673145	1.536903
0.673242	1.548940
0.673340	1.582259
0.673437	1.588736
0.673535	1.563956
0.673633	1.554872
0.673730	1.561814
0.673828	1.538833
0.673926	1.507925
0.674023	1.549307
0.674121	1.586529
0.674219	1.599633
0.674316	1.617593
0.674414	1.625783
0.674512	1.622855
0.674609	1.623316
0.674707	1.627386
0.674805	1.629205
0.674902	1.628681
0.675000	1.622520
0.675098	1.617744
0.675195	1.614710
0.675293	1.612723
0.675391	1.610289
0.675488	1.608048
0.675586	1.607104
0.675684	1.610189
0.675781	1.615715
0.675879	1.615878
0.675977	1.615739
0.676074	1.609351
0.676172	1.613426
0.676270	1.616358
0.676367	1.623392
0.676465	1.612747
0.676562	1.588515
0.676660	1.610406
0.676758	1.604343
0.676855	1.625098
0.676953	1.630662
0.677051	1.624829
0.677148	1.624217
0.677246	1.615327
0.677344	1.609242
0.677441	1.592642
0.677539	1.593697
0.677637	1.617372
0.677734	1.640987
0.677832	1.649624
0.677930	1.637213
0.678027	1.633637
0.678125	1.645023
0.678223	1.648382
0.678320	1.651105
0.678418	1.651228
0.678516	1.652362
0.678613	1.651862
0.678711	1.652814
0.678809	1.652753
0.678906	1.654076
0.679004	1.654427
0.679102	1.656095
0.679199	1.656814
0.679297	1.659014
0.679395	1.659586
0.679492	1.660737
0.679590	1.656739
0.679687	1.668724
0.679785	1.676793
0.679883	1.656779
0.679980	1.625712
0.680078	1.624415
0.680176	1.646118
0.680273	1.663948
0.680371	1.665759
0.680469	1.631035
0.680566	1.623114
0.680664	1.630799
0.680762	1.652880
0.680859	1.675547
0.680957	1.662659
0.681055	1.660698
0.681152	1.661995
0.681250	1.665088
0.681348	1.654566
0.681445	1.641860
0.681543	1.646065
0.681641	1.663896
0.681738	1.649695
0.681836	1.646577
0.681934	1.647231
0.682031	1.660459
0.682129	1.655813
0.682227	1.663120
0.682324	1.666387
0.682422	1.680896
0.682520	1.669327
0.682617	1.672372
0.682715	1.684971
0.682812	1.675802
0.682910	1.665841
0.683008	1.644779
0.683105	1.648573
0.683203	1.626257
0.683301	1.597860
0.683398	1.615569
0.683496	1.628896
0.683594	1.631069
0.683691	1.622859
0.683789	1.607504
0.683887	1.599920
0.683984	1.595448
0.684082	1.591231
0.684180	1.550186
0.684277	1.518000
0.684375	1.522792
0.684473	1.529086
0.684570	1.564036
0.684668	1.598599
0.684766	1.611313
0.684863	1.623282
0.684961	1.611974
0.685059	1.624655
0.685156	1.602289
0.685254	1.565472
0.685352	1.554615
0.685449	1.565381
0.685547	1.547358
0.685645	1.548496
0.685742	1.549172
0.685840	1.552222
0.685937	1.539385
0.686035	1.584730
0.686133	1.593289
0.686230	1.568417
0.686328	1.539887
0.686426	1.568123
0.686523	1.605579
0.686621	1.600516
0.686719	1.595858
0.686816	1.588729
0.686914	1.605018
0.687012	1.618034
0.687109	1.631522
0.687207	1.639348
0.687305	1.642200
0.687402	1.631652
0.687500	1.617550
0.687598	1.604696
0.687695	1.586319
0.687793	1.562931
0.687891	1.581495
0.687988	1.574608
0.688086	1.577086
0.688184	1.607874
0.688281	1.593709
0.688379	1.575771
0.688477	1.550208
0.688574	1.526940
0.688672	1.494077
0.688770	1.542553
0.688867	1.573602
0.688965	1.582035
0.689062	1.600852
0.689160	1.603831
0.689258	1.602272
0.689355	1.571429
0.689453	1.558442
0.689551	1.565275
0.689648	1.584130
0.689746	1.595599
0.689844	1.611845
0.689941	1.603328
0.690039	1.573442
0.690137	1.567717
0.690234	1.605109
0.690332	1.629805
0.690430	1.648634
0.690527	1.660206
0.690625	1.666568
0.690723	1.670313
0.690820	1.671878
0.690918	1.671298
0.691016	1.669382
0.691113	1.664377
0.691211	1.659433
0.691309	1.655278
0.691406	1.652224
0.691504	1.649846
0.691602	1.648481
0.691699	1.647515
0.691797	1.647254
0.691895	1.647141
0.691992	1.647482
0.692090	1.647924
0.692187	1.648686
0.692285	1.649508
0.692383	1.650553
0.692480	1.651585
0.692578	1.652866
0.692676	1.654172
0.692773	1.655545
0.692871	1.657013
0.692969	1.658417
0.693066	1.659754
0.693164	1.660909
0.693262	1.661935
0.693359	1.662532
0.693457	1.663094
0.693555	1.663663
0.693652	1.662429
0.693750	1.663580
0.693848	1.664915
0.693945	1.665966
0.694043	1.667716
0.694141	1.669861
0.694238	1.672217
0.694336	1.673891
0.694434	1.675434
0.694531	1.677355
0.694629	1.681941
0.694727	1.680989
0.694824	1.681312
0.694922	1.681914
0.695020	1.685248
0.695117	1.660355
0.695215	1.676133
0.695312	1.683085
0.695410	1.679075
0.695508	1.681031
0.695605	1.684088
0.695703	1.688111
0.695801	1.692710
0.695898	1.694895
0.695996	1.698550
0.696094	1.699959
0.696191	1.703478
0.696289	1.699091
0.696387	1.687379
0.696484	1.670348
0.696582	1.669731
0.696680	1.648054
0.696777	1.613732
0.696875	1.617157
0.696973	1.666088
0.697070	1.667134
0.697168	1.643310
0.697266	1.636201
0.697363	1.625005
0.697461	1.610771
0.697559	1.594646
0.697656	1.585589
0.697754	1.580942
0.697852	1.573361
0.697949	1.555343
0.698047	1.552058
0.698145	1.543266
0.698242	1.535148
0.698340	1.542315
0.698437	1.556389
0.698535	1.566468
0.698633	1.555794
0.698730	1.540296
0.698828	1.528950
0.698926	1.555960
0.699023	1.575710
0.699121	1.551251
0.699219	1.537174
0.699316	1.539262
0.699414	1.539843
0.699512	1.522100
0.699609	1.516307
0.699707	1.512705
0.699805	1.521378
0.699902	1.513704
0.700000	1.522315
0.700098	1.537531
0.700195	1.522205
0.700293	1.544806
0.700391	1.545352
0.700488	1.515689
0.700586	1.464166
0.700684	1.453727
0.700781	1.474979
0.700879	1.474618
0.700977	1.479357
0.701074	1.495207
0.701172	1.495452
0.701270	1.503975
0.701367	1.487258
0.701465	1.477110
0.701562	1.506135
0.701660	1.506675
0.701758	1.479772
0.701855	1.444129
0.701953	1.437806
0.702051	1.485713
0.702148	1.538560
0.702246	1.537778
0.702344	1.534653
0.702441	1.550470
0.702539	1.595913
0.702637	1.588837
0.702734	1.597878
0.702832	1.533846
0.702930	1.546104
0.703027	1.613570
0.703125	1.606112
0.703223	1.623090
0.703320	1.609959
0.703418	1.611717
0.703516	1.608587
0.703613	1.615811
0.703711	1.615997
0.703809	1.622137
0.703906	1.621681
0.704004	1.625779
0.704102	1.623411
0.704199	1.620922
0.704297	1.600209
0.704395	1.594917
0.704492	1.603282
0.704590	1.599235
0.704687	1.582129
0.704785	1.596076
0.704883	1.632166
0.704980	1.635833
0.705078	1.637120
0.705176	1.633221
0.705273	1.634542
0.705371	1.637629
0.705469	1.643102
0.705566	1.645265
0.705664	1.642386
0.705762	1.646596
0.705859	1.649359
0.705957	1.652249
0.706055	1.653586
0.706152	1.656792
0.706250	1.658922
0.706348	1.671998
0.706445	1.664312
0.706543	1.678482
0.706641	1.678496
0.706738	1.671242
0.706836	1.662693
0.706934	1.666395
0.707031	1.655063
0.707129	1.664502
0.707227	1.670907
0.707324	1.658254
0.707422	1.668342
0.707520	1.659062
0.707617	1.670794
0.707715	1.670335
0.707812	1.672626
0.707910	1.678525
0.708008	1.671220
0.708105	1.675637
0.708203	1.691050
0.708301	1.682658
0.708398	1.671118
0.708496	1.673161
0.708594	1.675020
0.708691	1.677075
0.708789	1.678547
0.708887	1.679626
0.708984	1.679369
0.709082	1.680114
0.709180	1.674789
0.709277	1.676777
0.709375	1.681407
0.709473	1.682163
0.709570	1.684364
0.709668	1.684613
0.709766	1.684338
0.709863	1.682336
0.709961	1.680812
0.710059	1.678196
0.710156	1.675921
0.710254	1.673593
0.710352	1.673130
0.710449	1.672307
0.710547	1.672638
0.710645	1.673926
0.710742	1.674282
0.710840	1.675966
0.710937	1.676021
0.711035	1.674464
0.711133	1.676771
0.711230	1.678261
0.711328	1.680261
0.711426	1.680718
0.711523	1.681116
0.711621	1.680426
0.711719	1.680359
0.711816	1.676040
0.711914	1.663725
0.712012	1.671664
0.712109	1.682271
0.712207	1.654777
0.712305	1.674290
0.712402	1.683563
0.712500	1.678295
0.712598	1.682769
0.712695	1.699615
0.712793	1.704310
0.712891	1.700051
0.712988	1.690206
0.713086	1.681530
0.713184	1.671549
0.713281	1.683259
0.713379	1.695247
0.713477	1.687368
0.713574	1.668356
0.713672	1.683437
0.713770	1.702209
0.713867	1.700228
0.713965	1.704195
0.714062	1.679499
0.714160	1.679285
0.714258	1.663902
0.714355	1.668962
0.714453	1.669279
0.714551	1.646199
0.714648	1.634576
0.714746	1.647985
0.714844	1.654463
0.714941	1.667820
0.715039	1.666210
0.715137	1.664687
0.715234	1.658712
0.715332	1.656258
0.715430	1.647649
0.715527	1.643172
0.715625	1.621381
0.715723	1.623807
0.715820	1.616216
0.715918	1.607920
0.716016	1.583906
0.716113	1.604393
0.716211	1.647290
0.716309	1.624238
0.716406	1.614647
0.716504	1.620299
0.716602	1.633877
0.716699	1.643229
0.716797	1.670424
0.716895	1.641688
0.716992	1.626344
0.717090	1.605341
0.717187	1.595436
0.717285	1.604590
0.717383	1.622440
0.717480	1.643656
0.717578	1.649868
0.717676	1.666149
0.717773	1.648663
0.717871	1.621606
0.717969	1.614556
0.718066	1.628433
0.718164	1.641009
0.718262	1.643413
0.718359	1.645114
0.718457	1.645590
0.718555	1.646126
0.718652	1.646332
0.718750	1.646867
0.718848	1.647312
0.718945	1.647992
0.719043	1.648988
0.719141	1.650053
0.719238	1.651812
0.719336	1.653370
0.719434	1.655678
0.719531	1.656980
0.719629	1.659659
0.719727	1.661296
0.719824	1.665061
0.719922	1.662992
0.720020	1.665937
0.720117	1.666233
0.720215	1.664904
0.720312	1.652930
0.720410	1.657074
0.720508	1.663538
0.720605	1.670329
0.720703	1.673058
0.720801	1.683600
0.720898	1.657559
0.720996	1.661155
0.721094	1.687181
0.721191	1.661980
0.721289	1.664434
0.721387	1.653139
0.721484	1.648621
0.721582	1.617327
0.721680	1.602050
0.721777	1.590169
0.721875	1.579605
0.721973	1.550377
0.722070	1.561020
0.722168	1.562031
0.722266	1.560196
0.722363	1.580039
0.722461	1.580399
0.722559	1.595082
0.722656	1.578500
0.722754	1.605014
0.722852	1.606162
0.722949	1.597710
0.723047	1.637563
0.723145	1.661689
0.723242	1.659111
0.723340	1.661426
0.723437	1.633579
0.723535	1.635217
0.723633	1.643331
0.723730	1.653691
0.723828	1.657346
0.723926	1.652265
0.724023	1.652578
0.724121	1.653556
0.724219	1.656188
0.724316	1.658575
0.724414	1.661671
0.724512	1.664195
0.724609	1.667067
0.724707	1.669362
0.724805	1.671945
0.724902	1.673782
0.725000	1.676318
0.725098	1.679079
0.725195	1.682263
0.725293	1.685473
0.725391	1.690458
0.725488	1.695590
0.725586	1.701163
0.725684	1.707174
0.725781	1.714644
0.725879	1.704144
0.725977	1.705037
0.726074	1.701125
0.726172	1.702810
0.726270	1.703511
0.726367	1.707042
0.726465	1.706891
0.726562	1.714783
0.726660	1.716399
0.726758	1.715521
0.726855	1.708497
0.726953	1.709089
0.727051	1.715839
0.727148	1.696231
0.727246	1.681992
0.727344	1.684249
0.727441	1.690027
0.727539	1.684679
0.727637	1.680564
0.727734	1.683882
0.727832	1.687268
0.727930	1.674888
0.728027	1.654059
0.728125	1.668211
0.728223	1.675112
0.728320	1.668281
0.728418	1.650601
0.728516	1.661324
0.728613	1.669158
0.728711	1.638156
0.728809	1.638073
0.728906	1.637789
0.729004	1.627294
0.729102	1.653785
0.729199	1.671642
0.729297	1.676748
0.729395	1.666185
0.729492	1.669556
0.729590	1.676278
0.729687	1.662198
0.729785	1.669920
0.729883	1.677607
0.729980	1.677537
0.730078	1.680585
0.730176	1.678615
0.730273	1.676363
0.730371	1.678798
0.730469	1.680051
0.730566	1.681737
0.730664	1.683303
0.730762	1.678707
0.730859	1.680755
0.730957	1.686590
0.731055	1.689079
0.731152	1.675076
0.731250	1.679477
0.731348	1.685192
0.731445	1.687437
0.731543	1.690546
0.731641	1.684426
0.731738	1.679028
0.731836	1.678722
0.731934	1.677151
0.732031	1.676810
0.732129	1.677366
0.732227	1.678300
0.732324	1.679864
0.732422	1.682587
0.732520	1.685245
0.732617	1.687458
0.732715	1.688176
0.732812	1.689254
0.732910	1.692154
0.733008	1.693718
0.733105	1.694843
0.733203	1.686487
0.733301	1.688772
0.733398	1.680471
0.733496	1.659247
0.733594	1.650109
0.733691	1.649735
0.733789	1.652901
0.733887	1.666979
0.733984	1.682772
0.734082	1.681905
0.734180	1.682488
0.734277	1.666346
0.734375	1.656442
0.734473	1.647294
0.734570	1.657219
0.734668	1.671671
0.734766	1.669669
0.734863	1.673640
0.734961	1.678792
0.735059	1.677881
0.735156	1.673230
0.735254	1.666699
0.735352	1.662751
0.735449	1.646349
0.735547	1.648069
0.735645	1.642180
0.735742	1.637464
0.735840	1.656137
0.735937	1.638374
0.736035	1.650264
0.736133	1.667045
0.736230	1.668381
0.736328	1.669728
0.736426	1.672478
0.736523	1.674893
0.736621	1.675209
0.736719	1.675514
0.736816	1.678891
0.736914	1.679905
0.737012	1.669321
0.737109	1.662770
0.737207	1.647260
0.737305	1.643106
0.737402	1.650823
0.737500	1.677402
0.737598	1.666757
0.737695	1.675046
0.737793	1.663804
0.737891	1.666881
0.737988	1.700016
0.738086	1.684051
0.738184	1.683180
0.738281	1.670030
0.738379	1.677842
0.738477	1.690375
0.738574	1.701062
0.738672	1.682044
0.738770	1.693896
0.738867	1.699582
0.738965	1.699810
0.739062	1.688987
0.739160	1.689528
0.739258	1.686584
0.739355	1.695668
0.739453	1.684575
0.739551	1.669320
0.739648	1.661670
0.739746	1.666752
0.739844	1.655432
0.739941	1.634140
0.740039	1.621329
0.740137	1.606903
0.740234	1.610612
0.740332	1.637507
0.740430	1.643406
0.740527	1.612750
0.740625	1.619593
0.740723	1.652262
0.740820	1.651496
0.740918	1.641188
0.741016	1.639997
0.741113	1.641047
0.741211	1.630481
0.741309	1.608128
0.741406	1.579782
0.741504	1.562267
0.741602	1.573035
0.741699	1.597688
0.741797	1.606189
0.741895	1.620864
0.741992	1.604833
0.742090	1.606345
0.742187	1.603879
0.742285	1.603365
0.742383	1.560187
0.742480	1.560038
0.742578	1.586357
0.742676	1.606156
0.742773	1.644824
0.742871	1.656462
0.742969	1.635835
0.743066	1.622924
0.743164	1.638075
0.743262	1.635717
0.743359	1.636109
0.743457	1.619405
0.743555	1.605909
0.743652	1.609544
0.743750	1.628812
0.743848	1.626957
0.743945	1.615155
0.744043	1.586593
0.744141	1.559392
0.744238	1.552252
0.744336	1.568942
0.744434	1.570458
0.744531	1.554647
0.744629	1.501675
0.744727	1.547070
0.744824	1.571068
0.744922	1.583348
0.745020	1.628151
0.745117	1.660220
0.745215	1.667746
0.745312	1.672760
0.745410	1.669455
0.745508	1.654337
0.745605	1.631863
0.745703	1.640099
0.745801	1.639432
0.745898	1.606953
0.745996	1.636027
0.746094	1.659364
0.746191	1.637434
0.746289	1.661554
0.746387	1.667790
0.746484	1.653103
0.746582	1.641896
0.746680	1.623539
0.746777	1.609757
0.746875	1.606070
0.746973	1.622063
0.747070	1.620152
0.747168	1.611817
0.747266	1.585401
0.747363	1.569246
0.747461	1.597539
0.747559	1.589139
0.747656	1.568951
0.747754	1.599606
0.747852	1.620879
0.747949	1.622724
0.748047	1.626083
0.748145	1.626886
0.748242	1.630136
0.748340	1.633421
0.748437	1.642084
0.748535	1.638429
0.748633	1.638906
0.748730	1.642589
0.748828	1.642451
0.748926	1.643813
0.749023	1.643039
0.749121	1.643923
0.749219	1.644726
0.749316	1.646665
0.749414	1.647717
0.749512	1.648418
0.749609	1.648216
0.749707	1.648148
0.749805	1.647483
0.749902	1.647162
0.750000	1.646842
0.750098	1.646913
0.750195	1.647139
0.750293	1.647684
0.750391	1.648262
0.750488	1.649304
0.750586	1.650870
0.750684	1.652593
0.750781	1.653789
0.750879	1.655211
0.750977	1.656912
0.751074	1.658910
0.751172	1.661287
0.751270	1.663902
0.751367	1.666569
0.751465	1.669095
0.751562	1.671379
0.751660	1.673983
0.751758	1.676858
0.751855	1.679234
0.751953	1.680971
0.752051	1.680449
0.752148	1.680585
0.752246	1.681319
0.752344	1.682430
0.752441	1.682775
0.752539	1.683691
0.752637	1.683526
0.752734	1.686039
0.752832	1.686752
0.752930	1.697581
0.753027	1.695904
0.753125	1.695394
0.753223	1.694774
0.753320	1.696308
0.753418	1.684484
0.753516	1.678225
0.753613	1.686618
0.753711	1.686086
0.753809	1.688705
0.753906	1.688991
0.754004	1.691726
0.754102	1.693580
0.754199	1.698034
0.754297	1.700687
0.754395	1.704532
0.754492	1.703006
0.754590	1.692398
0.754687	1.690802
0.754785	1.691943
0.754883	1.698488
0.754980	1.692858
0.755078	1.687493
0.755176	1.690649
0.755273	1.689134
0.755371	1.689550
0.755469	1.688410
0.755566	1.689007
0.755664	1.689581
0.755762	1.692911
0.755859	1.692462
0.755957	1.696958
0.756055	1.691753
0.756152	1.687711
0.756250	1.696935
0.756348	1.693328
0.756445	1.682469
0.756543	1.681703
0.756641	1.687303
0.756738	1.686648
0.756836	1.675015
0.756934	1.670297
0.757031	1.668006
0.757129	1.666893
0.757227	1.666268
0.757324	1.666279
0.757422	1.666341
0.757520	1.666335
0.757617	1.666498
0.757715	1.667297
0.757812	1.668269
0.757910	1.669298
0.758008	1.669938
0.758105	1.670331
0.758203	1.670168
0.758301	1.668760
0.758398	1.673351
0.758496	1.675173
0.758594	1.674473
0.758691	1.674925
0.758789	1.675326
0.758887	1.676495
0.758984	1.677190
0.759082	1.678146
0.759180	1.678334
0.759277	1.678499
0.759375	1.682459
0.759473	1.683075
0.759570	1.682776
0.759668	1.676476
0.759766	1.656457
0.759863	1.683089
0.759961	1.697749
0.760059	1.689787
0.760156	1.678445
0.760254	1.674224
0.760352	1.678764
0.760449	1.681349
0.760547	1.676164
0.760645	1.665869
0.760742	1.670521
0.760840	1.668250
0.760937	1.661063
0.761035	1.641137
0.761133	1.641583
0.761230	1.665364
0.761328	1.670605
0.761426	1.661484
0.761523	1.655305
0.761621	1.625358
0.761719	1.598483
0.761816	1.585034
0.761914	1.579911
0.762012	1.586926
0.762109	1.592137
0.762207	1.598388
0.762305	1.594121
0.762402	1.582364
0.762500	1.567561
0.762598	1.548577
0.762695	1.530152
0.762793	1.554410
0.762891	1.550365
0.762988	1.584113
0.763086	1.613771
0.763184	1.612578
0.763281	1.612696
0.763379	1.607501
0.763477	1.602129
0.763574	1.627151
0.763672	1.629836
0.763770	1.618308
0.763867	1.605285
0.763965	1.615234
0.764062	1.600666
0.764160	1.581832
0.764258	1.606538
0.764355	1.623685
0.764453	1.628232
0.764551	1.622197
0.764648	1.614220
0.764746	1.604456
0.764844	1.572079
0.764941	1.564124
0.765039	1.579577
0.765137	1.577000
0.765234	1.559848
0.765332	1.552497
0.765430	1.542940
0.765527	1.539415
0.765625	1.535859
0.765723	1.520516
0.765820	1.522427
0.765918	1.531554
0.766016	1.543257
0.766113	1.563562
0.766211	1.614502
0.766309	1.645515
0.766406	1.649373
0.766504	1.649202
0.766602	1.652791
0.766699	1.654809
0.766797	1.658536
0.766895	1.660109
0.766992	1.660324
0.767090	1.660023
0.767187	1.660009
0.767285	1.660017
0.767383	1.659799
0.767480	1.659269
0.767578	1.658901
0.767676	1.658873
0.767773	1.659297
0.767871	1.659546
0.767969	1.660312
0.768066	1.661013
0.768164	1.662194
0.768262	1.663026
0.768359	1.664617
0.768457	1.665862
0.768555	1.668032
0.768652	1.669560
0.768750	1.671414
0.768848	1.671824
0.768945	1.673412
0.769043	1.673868
0.769141	1.680174
0.769238	1.677683
0.769336	1.675025
0.769434	1.683768
0.769531	1.691107
0.769629	1.697218
0.769727	1.689636
0.769824	1.691428
0.769922	1.681724
0.770020	1.671195
0.770117	1.676721
0.770215	1.678034
0.770312	1.629471
0.770410	1.625401
0.770508	1.660813
0.770605	1.667221
0.770703	1.671506
0.770801	1.677425
0.770898	1.683262
0.770996	1.689544
0.771094	1.684761
0.771191	1.683418
0.771289	1.683318
0.771387	1.681552
0.771484	1.678808
0.771582	1.673734
0.771680	1.661330
0.771777	1.661865
0.771875	1.649478
0.771973	1.667114
0.772070	1.683030
0.772168	1.675541
0.772266	1.668212
0.772363	1.652950
0.772461	1.641610
0.772559	1.663532
0.772656	1.674660
0.772754	1.654298
0.772852	1.658428
0.772949	1.685286
0.773047	1.658277
0.773145	1.631134
0.773242	1.633146
0.773340	1.659461
0.773437	1.651503
0.773535	1.649063
0.773633	1.660266
0.773730	1.656936
0.773828	1.663414
0.773926	1.679911
0.774023	1.678561
0.774121	1.665645
0.774219	1.663192
0.774316	1.664221
0.774414	1.668007
0.774512	1.670789
0.774609	1.650130
0.774707	1.615826
0.774805	1.608075
0.774902	1.576831
0.775000	1.572267
0.775098	1.585021
0.775195	1.596699
0.775293	1.608389
0.775391	1.606981
0.775488	1.600542
0.775586	1.612456
0.775684	1.610895
0.775781	1.592668
0.775879	1.598388
0.775977	1.574538
0.776074	1.554217
0.776172	1.582512
0.776270	1.590591
0.776367	1.592809
0.776465	1.589014
0.776562	1.580866
0.776660	1.578916
0.776758	1.557241
0.776855	1.529204
0.776953	1.529512
0.777051	1.535960
0.777148	1.557685
0.777246	1.584139
0.777344	1.566856
0.777441	1.541464
0.777539	1.555341
0.777637	1.551880
0.777734	1.541582
0.777832	1.564991
0.777930	1.586913
0.778027	1.601129
0.778125	1.598608
0.778223	1.616161
0.778320	1.638646
0.778418	1.628324
0.778516	1.642906
0.778613	1.647147
0.778711	1.639450
0.778809	1.655134
0.778906	1.655240
0.779004	1.663440
0.779102	1.668047
0.779199	1.668779
0.779297	1.641973
0.779395	1.621899
0.779492	1.623145
0.779590	1.636752
0.779687	1.647241
0.779785	1.613185
0.779883	1.604523
0.779980	1.621505
0.780078	1.642341
0.780176	1.610159
0.780273	1.566723
0.780371	1.609461
0.780469	1.654848
0.780566	1.661695
0.780664	1.656811
0.780762	1.643941
0.780859	1.627090
0.780957	1.600570
0.781055	1.596812
0.781152	1.561719
0.781250	1.534391
0.781348	1.529372
0.781445	1.507984
0.781543	1.517062
0.781641	1.573703
0.781738	1.592286
0.781836	1.587261
0.781934	1.597383
0.782031	1.600304
0.782129	1.574367
0.782227	1.565698
0.782324	1.590592
0.782422	1.614872
0.782520	1.634870
0.782617	1.651759
0.782715	1.663669
0.782812	1.650361
0.782910	1.672042
0.783008	1.669871
0.783105	1.665540
0.783203	1.668604
0.783301	1.667178
0.783398	1.674065
0.783496	1.699117
0.783594	1.697008
0.783691	1.670709
0.783789	1.665520
0.783887	1.650148
0.783984	1.657115
0.784082	1.655384
0.784180	1.637377
0.784277	1.631439
0.784375	1.632017
0.784473	1.650187
0.784570	1.642505
0.784668	1.651379
0.784766	1.643506
0.784863	1.635578
0.784961	1.662473
0.785059	1.651168
0.785156	1.661620
0.785254	1.670954
0.785352	1.668811
0.785449	1.669131
0.785547	1.673256
0.785645	1.667605
0.785742	1.664081
0.785840	1.665827
0.785937	1.669346
0.786035	1.675195
0.786133	1.671618
0.786230	1.661707
0.786328	1.658791
0.786426	1.659386
0.786523	1.661124
0.786621	1.662091
0.786719	1.663335
0.786816	1.664261
0.786914	1.664039
0.787012	1.663450
0.787109	1.663646
0.787207	1.663499
0.787305	1.663230
0.787402	1.662673
0.787500	1.662469
0.787598	1.661912
0.787695	1.661681
0.787793	1.659103
0.787891	1.665116
0.787988	1.692503
0.788086	1.694890
0.788184	1.680070
0.788281	1.658633
0.788379	1.654892
0.788477	1.650554
0.788574	1.666431
0.788672	1.640772
0.788770	1.627686
0.788867	1.649456
0.788965	1.659699
0.789062	1.688985
0.789160	1.677562
0.789258	1.662206
0.789355	1.650205
0.789453	1.668160
0.789551	1.686315
0.789648	1.674124
0.789746	1.651816
0.789844	1.671695
0.789941	1.669923
0.790039	1.677963
0.790137	1.686670
0.790234	1.682113
0.790332	1.676002
0.790430	1.686679
0.790527	1.693387
0.790625	1.681363
0.790723	1.677829
0.790820	1.678006
0.790918	1.675483
0.791016	1.676190
0.791113	1.683900
0.791211	1.676080
0.791309	1.664160
0.791406	1.667622
0.791504	1.663655
0.791602	1.659159
0.791699	1.655178
0.791797	1.652794
0.791895	1.651327
0.791992	1.650718
0.792090	1.650262
0.792187	1.650476
0.792285	1.650854
0.792383	1.652052
0.792480	1.653393
0.792578	1.655142
0.792676	1.656490
0.792773	1.657506
0.792871	1.658342
0.792969	1.659605
0.793066	1.661089
0.793164	1.663279
0.793262	1.668994
0.793359	1.675090
0.793457	1.669327
0.793555	1.679223
0.793652	1.676008
0.793750	1.684436
0.793848	1.693420
0.793945	1.695361
0.794043	1.691370
0.794141	1.691314
0.794238	1.690560
0.794336	1.675157
0.794434	1.684710
0.794531	1.690888
0.794629	1.694874
0.794727	1.697225
0.794824	1.699562
0.794922	1.703326
0.795020	1.706855
0.795117	1.709537
0.795215	1.711361
0.795312	1.712027
0.795410	1.710316
0.795508	1.705665
0.795605	1.704050
0.795703	1.694873
0.795801	1.684034
0.795898	1.698611
0.795996	1.700512
0.796094	1.699461
0.796191	1.699968
0.796289	1.698471
0.796387	1.698125
0.796484	1.696823
0.796582	1.695853
0.796680	1.691656
0.796777	1.688346
0.796875	1.684749
0.796973	1.667536
0.797070	1.673515
0.797168	1.684230
0.797266	1.691197
0.797363	1.698066
0.797461	1.695432
0.797559	1.697162
0.797656	1.682956
0.797754	1.668221
0.797852	1.645919
0.797949	1.637604
0.798047	1.665326
0.798145	1.638122
0.798242	1.616573
0.798340	1.618765
0.798437	1.627985
0.798535	1.629354
0.798633	1.614481
0.798730	1.612228
0.798828	1.610252
0.798926	1.607480
0.799023	1.607698
0.799121	1.587933
0.799219	1.573952
0.799316	1.568832
0.799414	1.599807
0.799512	1.614119
0.799609	1.597792
0.799707	1.573403
0.799805	1.556073
0.799902	1.564246
0.800000	1.588997
0.800098	1.615801
0.800195	1.636063
0.800293	1.608057
0.800391	1.600479
0.800488	1.610849
0.800586	1.627194
0.800684	1.631669
0.800781	1.622122
0.800879	1.625222
0.800977	1.632060
0.801074	1.616473
0.801172	1.588123
0.801270	1.590957
0.801367	1.561925
0.801465	1.542720
0.801562	1.554823
0.801660	1.598882
0.801758	1.618287
0.801855	1.601522
0.801953	1.589004
0.802051	1.576108
0.802148	1.569107
0.802246	1.570824
0.802344	1.556586
0.802441	1.556304
0.802539	1.557455
0.802637	1.585584
0.802734	1.611543
0.802832	1.636499
0.802930	1.653667
0.803027	1.644896
0.803125	1.628418
0.803223	1.608736
0.803320	1.596220
0.803418	1.589980
0.803516	1.586437
0.803613	1.603029
0.803711	1.652354
0.803809	1.652088
0.803906	1.654040
0.804004	1.626068
0.804102	1.622001
0.804199	1.625388
0.804297	1.626821
0.804395	1.630523
0.804492	1.629195
0.804590	1.632842
0.804687	1.619546
0.804785	1.612996
0.804883	1.602729
0.804980	1.629404
0.805078	1.661678
0.805176	1.664865
0.805273	1.667073
0.805371	1.658531
0.805469	1.651732
0.805566	1.649904
0.805664	1.649475
0.805762	1.650002
0.805859	1.650760
0.805957	1.651624
0.806055	1.652440
0.806152	1.652990
0.806250	1.653705
0.806348	1.654143
0.806445	1.654521
0.806543	1.654744
0.806641	1.655257
0.806738	1.655607
0.806836	1.656600
0.806934	1.656888
0.807031	1.657450
0.807129	1.658834
0.807227	1.659805
0.807324	1.661140
0.807422	1.662559
0.807520	1.663838
0.807617	1.665205
0.807715	1.666687
0.807812	1.669072
0.807910	1.672569
0.808008	1.680666
0.808105	1.683729
0.808203	1.682240
0.808301	1.681538
0.808398	1.679565
0.808496	1.680608
0.808594	1.681504
0.808691	1.683194
0.808789	1.684887
0.808887	1.688188
0.808984	1.685641
0.809082	1.684331
0.809180	1.685965
0.809277	1.681875
0.809375	1.676009
0.809473	1.684454
0.809570	1.687454
0.809668	1.686162
0.809766	1.687983
0.809863	1.683799
0.809961	1.682224
0.810059	1.684732
0.810156	1.684682
0.810254	1.676362
0.810352	1.676196
0.810449	1.681904
0.810547	1.685524
0.810645	1.682880
0.810742	1.677787
0.810840	1.696432
0.810937	1.705811
0.811035	1.703516
0.811133	1.698129
0.811230	1.703150
0.811328	1.701158
0.811426	1.696352
0.811523	1.687701
0.811621	1.673794
0.811719	1.666721
0.811816	1.672765
0.811914	1.660161
0.812012	1.649615
0.812109	1.675052
0.812207	1.662357
0.812305	1.642517
0.812402	1.628641
0.812500	1.627498
0.812598	1.620138
0.812695	1.612000
0.812793	1.609461
0.812891	1.624127
0.812988	1.631478
0.813086	1.668863
0.813184	1.667554
0.813281	1.668214
0.813379	1.682427
0.813477	1.679979
0.813574	1.680645
0.813672	1.679061
0.813770	1.691135
0.813867	1.695646
0.813965	1.693255
0.814062	1.689447
0.814160	1.682720
0.814258	1.678590
0.814355	1.675556
0.814453	1.674126
0.814551	1.673778
0.814648	1.674600
0.814746	1.675437
0.814844	1.680484
0.814941	1.696953
0.815039	1.691346
0.815137	1.699457
0.815234	1.710819
0.815332	1.696535
0.815430	1.687362
0.815527	1.679503
0.815625	1.675700
0.815723	1.673602
0.815820	1.675149
0.815918	1.676042
0.816016	1.667741
0.816113	1.663333
0.816211	1.667982
0.816309	1.662067
0.816406	1.663264
0.816504	1.667072
0.816602	1.666250
0.816699	1.672979
0.816797	1.675456
0.816895	1.675429
0.816992	1.641758
0.817090	1.651362
0.817187	1.665828
0.817285	1.664270
0.817383	1.656150
0.817480	1.653760
0.817578	1.649666
0.817676	1.647018
0.817773	1.648313
0.817871	1.658516
0.817969	1.683159
0.818066	1.685730
0.818164	1.676151
0.818262	1.666039
0.818359	1.675476
0.818457	1.685563
0.818555	1.658489
0.818652	1.662474
0.818750	1.606984
0.818848	1.594441
0.818945	1.603443
0.819043	1.616104
0.819141	1.644072
0.819238	1.650581
0.819336	1.648888
0.819434	1.675528
0.819531	1.685001
0.819629	1.647852
0.819727	1.654993
0.819824	1.656708
0.819922	1.660589
0.820020	1.661570
0.820117	1.664945
0.820215	1.665850
0.820312	1.670329
0.820410	1.673757
0.820508	1.677682
0.820605	1.683797
0.820703	1.694019
0.820801	1.701335
0.820898	1.720112
0.820996	1.695649
0.821094	1.679387
0.821191	1.676744
0.821289	1.676223
0.821387	1.675877
0.821484	1.676466
0.821582	1.677555
0.821680	1.679269
0.821777	1.681075
0.821875	1.681925
0.821973	1.681125
0.822070	1.682676
0.822168	1.683139
0.822266	1.682829
0.822363	1.682833
0.822461	1.682221
0.822559	1.682499
0.822656	1.682128
0.822754	1.682660
0.822852	1.682333
0.822949	1.684664
0.823047	1.684117
0.823145	1.683612
0.823242	1.676003
0.823340	1.681997
0.823437	1.682080
0.823535	1.687678
0.823633	1.671110
0.823730	1.670868
0.823828	1.671396
0.823926	1.664866
0.824023	1.652471
0.824121	1.625985
0.824219	1.612922
0.824316	1.612193
0.824414	1.634609
0.824512	1.617130
0.824609	1.614149
0.824707	1.663586
0.824805	1.683856
0.824902	1.677912
0.825000	1.677198
0.825098	1.683877
0.825195	1.687750
0.825293	1.682457
0.825391	1.676151
0.825488	1.673791
0.825586	1.674053
0.825684	1.675235
0.825781	1.677521
0.825879	1.680959
0.825977	1.678900
0.826074	1.670951
0.826172	1.666325
0.826270	1.658987
0.826367	1.650796
0.826465	1.663768
0.826562	1.668075
0.826660	1.674419
0.826758	1.682188
0.826855	1.683949
0.826953	1.680736
0.827051	1.676647
0.827148	1.679334
0.827246	1.660353
0.827344	1.676005
0.827441	1.673651
0.827539	1.677393
0.827637	1.660424
0.827734	1.639237
0.827832	1.651998
0.827930	1.643553
0.828027	1.624764
0.828125	1.643147
0.828223	1.649414
0.828320	1.621124
0.828418	1.607448
0.828516	1.612495
0.828613	1.618588
0.828711	1.596664
0.828809	1.607127
0.828906	1.639529
0.829004	1.630466
0.829102	1.613630
0.829199	1.605217
0.829297	1.583341
0.829395	1.582625
0.829492	1.588178
0.829590	1.570990
0.829687	1.608902
0.829785	1.639102
0.829883	1.623873
0.829980	1.638598
0.830078	1.635674
0.830176	1.613013
0.830273	1.594563
0.830371	1.576513
0.830469	1.581117
0.830566	1.603172
0.830664	1.600005
0.830762	1.600873
0.830859	1.611631
0.830957	1.612337
0.831055	1.627852
0.831152	1.629243
0.831250	1.637794
0.831348	1.637285
0.831445	1.639463
0.831543	1.630864
0.831641	1.626737
0.831738	1.614514
0.831836	1.618449
0.831934	1.632533
0.832031	1.638651
0.832129	1.641856
0.832227	1.644904
0.832324	1.648340
0.832422	1.649809
0.832520	1.654222
0.832617	1.657528
0.832715	1.660650
0.832812	1.663845
0.832910	1.666202
0.833008	1.668148
0.833105	1.671115
0.833203	1.673675
0.833301	1.680137
0.833398	1.682325
0.833496	1.681112
0.833594	1.681893
0.833691	1.676887
0.833789	1.674924
0.833887	1.676017
0.833984	1.678491
0.834082	1.686716
0.834180	1.680671
0.834277	1.679321
0.834375	1.687471
0.834473	1.646010
0.834570	1.611163
0.834668	1.577161
0.834766	1.576288
0.834863	1.576255
0.834961	1.574297
0.835059	1.591065
0.835156	1.634375
0.835254	1.647686
0.835352	1.642811
0.835449	1.640505
0.835547	1.659619
0.835645	1.660498
0.835742	1.664811
0.835840	1.671265
0.835937	1.674718
0.836035	1.686504
0.836133	1.665509
0.836230	1.638226
0.836328	1.655444
0.836426	1.664583
0.836523	1.674393
0.836621	1.687155
0.836719	1.680942
0.836816	1.691158
0.836914	1.680304
0.837012	1.667844
0.837109	1.671217
0.837207	1.673374
0.837305	1.678748
0.837402	1.685343
0.837500	1.687208
0.837598	1.683305
0.837695	1.681829
0.837793	1.689384
0.837891	1.685065
0.837988	1.685023
0.838086	1.690652
0.838184	1.691249
0.838281	1.684488
0.838379	1.678380
0.838477	1.675710
0.838574	1.673671
0.838672	1.672370
0.838770	1.670990
0.838867	1.670639
0.838965	1.669621
0.839062	1.668407
0.839160	1.666611
0.839258	1.662874
0.839355	1.651589
0.839453	1.637001
0.839551	1.631802
0.839648	1.634720
0.839746	1.638815
0.839844	1.635626
0.839941	1.649994
0.840039	1.655539
0.840137	1.610754
0.840234	1.594693
0.840332	1.625012
0.840430	1.601173
0.840527	1.611986
0.840625	1.609738
0.840723	1.617970
0.840820	1.659530
0.840918	1.688731
0.841016	1.692013
0.841113	1.678681
0.841211	1.658293
0.841309	1.649688
0.841406	1.650644
0.841504	1.614657
0.841602	1.593271
0.841699	1.623032
0.841797	1.606005
0.841895	1.600766
0.841992	1.630915
0.842090	1.632284
0.842187	1.609390
0.842285	1.599719
0.842383	1.599660
0.842480	1.610408
0.842578	1.626406
0.842676	1.641656
0.842773	1.645436
0.842871	1.662919
0.842969	1.668101
0.843066	1.660358
0.843164	1.656985
0.843262	1.654309
0.843359	1.659061
0.843457	1.656706
0.843555	1.658748
0.843652	1.658517
0.843750	1.657980
0.843848	1.657846
0.843945	1.657871
0.844043	1.656676
0.844141	1.653683
0.844238	1.653830
0.844336	1.665241
0.844434	1.667243
0.844531	1.662118
0.844629	1.667690
0.844727	1.665559
0.844824	1.654743
0.844922	1.638259
0.845020	1.625988
0.845117	1.595693
0.845215	1.595511
0.845312	1.594587
0.845410	1.566679
0.845508	1.545217
0.845605	1.561691
0.845703	1.568680
0.845801	1.560570
0.845898	1.565264
0.845996	1.559130
0.846094	1.537014
0.846191	1.528431
0.846289	1.560561
0.846387	1.601727
0.846484	1.607819
0.846582	1.602534
0.846680	1.600905
0.846777	1.589722
0.846875	1.581287
0.846973	1.575302
0.847070	1.571378
0.847168	1.566444
0.847266	1.576429
0.847363	1.592195
0.847461	1.591825
0.847559	1.599241
0.847656	1.612267
0.847754	1.611711
0.847852	1.635168
0.847949	1.663135
0.848047	1.656391
0.848145	1.647673
0.848242	1.648421
0.848340	1.655057
0.848437	1.640232
0.848535	1.642097
0.848633	1.648066
0.848730	1.656314
0.848828	1.663202
0.848926	1.674818
0.849023	1.675168
0.849121	1.663700
0.849219	1.654930
0.849316	1.647800
0.849414	1.644754
0.849512	1.643067
0.849609	1.641534
0.849707	1.640958
0.849805	1.640858
0.849902	1.641538
0.850000	1.642269
0.850098	1.643921
0.850195	1.645773
0.850293	1.649055
0.850391	1.651715
0.850488	1.658450
0.850586	1.673487
0.850684	1.686450
0.850781	1.686123
0.850879	1.675454
0.850977	1.667583
0.851074	1.663938
0.851172	1.668201
0.851270	1.666899
0.851367	1.667140
0.851465	1.666785
0.851562	1.668219
0.851660	1.664529
0.851758	1.665108
0.851855	1.668787
0.851953	1.670570
0.852051	1.674639
0.852148	1.677685
0.852246	1.682816
0.852344	1.684010
0.852441	1.679493
0.852539	1.667173
0.852637	1.675165
0.852734	1.682653
0.852832	1.687423
0.852930	1.692914
0.853027	1.697567
0.853125	1.695738
0.853223	1.695454
0.853320	1.690698
0.853418	1.687593
0.853516	1.677505
0.853613	1.649632
0.853711	1.630385
0.853809	1.624583
0.853906	1.617896
0.854004	1.621784
0.854102	1.627486
0.854199	1.631663
0.854297	1.626545
0.854395	1.637890
0.854492	1.666056
0.854590	1.681053
0.854687	1.666088
0.854785	1.669536
0.854883	1.666355
0.854980	1.646966
0.855078	1.671136
0.855176	1.648871
0.855273	1.651712
0.855371	1.640409
0.855469	1.668056
0.855566	1.687608
0.855664	1.689187
0.855762	1.688963
0.855859	1.690959
0.855957	1.694322
0.856055	1.707907
0.856152	1.707852
0.856250	1.709093
0.856348	1.704191
0.856445	1.689280
0.856543	1.683579
0.856641	1.680186
0.856738	1.693011
0.856836	1.695249
0.856934	1.686751
0.857031	1.693724
0.857129	1.695728
0.857227	1.708100
0.857324	1.702398
0.857422	1.697788
0.857520	1.693237
0.857617	1.699989
0.857715	1.699617
0.857812	1.701304
0.857910	1.679925
0.858008	1.704339
0.858105	1.723783
0.858203	1.681856
0.858301	1.679240
0.858398	1.681911
0.858496	1.684731
0.858594	1.685511
0.858691	1.686372
0.858789	1.663205
0.858887	1.635185
0.858984	1.670568
0.859082	1.677332
0.859180	1.660228
0.859277	1.656994
0.859375	1.647941
0.859473	1.614137
0.859570	1.617332
0.859668	1.658995
0.859766	1.656114
0.859863	1.675318
0.859961	1.684595
0.860059	1.682982
0.860156	1.682166
0.860254	1.666104
0.860352	1.660425
0.860449	1.658199
0.860547	1.656191
0.860645	1.656702
0.860742	1.656141
0.860840	1.655631
0.860937	1.654897
0.861035	1.656041
0.861133	1.657227
0.861230	1.659496
0.861328	1.657284
0.861426	1.650819
0.861523	1.663416
0.861621	1.675632
0.861719	1.674149
0.861816	1.671417
0.861914	1.668594
0.862012	1.663583
0.862109	1.657842
0.862207	1.653332
0.862305	1.649088
0.862402	1.617254
0.862500	1.591198
0.862598	1.579901
0.862695	1.581443
0.862793	1.582993
0.862891	1.607561
0.862988	1.620690
0.863086	1.633768
0.863184	1.628920
0.863281	1.625547
0.863379	1.651048
0.863477	1.657351
0.863574	1.669953
0.863672	1.697359
0.863770	1.703291
0.863867	1.682095
0.863965	1.673491
0.864062	1.669986
0.864160	1.665869
0.864258	1.646384
0.864355	1.635531
0.864453	1.654341
0.864551	1.660854
0.864648	1.648026
0.864746	1.643113
0.864844	1.643449
0.864941	1.642085
0.865039	1.644750
0.865137	1.647057
0.865234	1.640383
0.865332	1.634532
0.865430	1.631913
0.865527	1.637128
0.865625	1.640506
0.865723	1.643811
0.865820	1.645344
0.865918	1.647687
0.866016	1.649395
0.866113	1.651543
0.866211	1.652910
0.866309	1.654273
0.866406	1.655544
0.866504	1.655375
0.866602	1.656491
0.866699	1.658750
0.866797	1.661479
0.866895	1.664623
0.866992	1.669031
0.867090	1.673507
0.867187	1.679102
0.867285	1.682680
0.867383	1.689601
0.867480	1.687696
0.867578	1.668976
0.867676	1.644390
0.867773	1.640543
0.867871	1.656711
0.867969	1.648219
0.868066	1.654780
0.868164	1.681184
0.868262	1.681503
0.868359	1.678173
0.868457	1.673613
0.868555	1.675174
0.868652	1.673936
0.868750	1.678024
0.868848	1.666628
0.868945	1.638509
0.869043	1.636149
0.869141	1.654369
0.869238	1.689979
0.869336	1.687512
0.869434	1.690125
0.869531	1.669858
0.869629	1.650991
0.869727	1.661059
0.869824	1.656633
0.869922	1.647237
0.870020	1.634961
0.870117	1.650684
0.870215	1.634788
0.870312	1.652637
0.870410	1.676192
0.870508	1.649754
0.870605	1.644076
0.870703	1.622915
0.870801	1.640675
0.870898	1.676300
0.870996	1.687471
0.871094	1.697149
0.871191	1.701444
0.871289	1.706096
0.871387	1.708992
0.871484	1.710994
0.871582	1.714243
0.871680	1.716396
0.871777	1.713302
0.871875	1.713966
0.871973	1.710951
0.872070	1.710885
0.872168	1.700003
0.872266	1.691441
0.872363	1.688231
0.872461	1.680154
0.872559	1.674302
0.872656	1.674161
0.872754	1.674602
0.872852	1.673901
0.872949	1.672802
0.873047	1.670116
0.873145	1.669244
0.873242	1.668028
0.873340	1.670749
0.873437	1.670938
0.873535	1.677086
0.873633	1.677537
0.873730	1.662040
0.873828	1.656415
0.873926	1.654137
0.874023	1.652956
0.874121	1.652601
0.874219	1.653143
0.874316	1.649954
0.874414	1.644894
0.874512	1.631312
0.874609	1.611712
0.874707	1.615040
0.874805	1.638708
0.874902	1.664277
0.875000	1.661817
0.875098	1.679035
0.875195	1.711031
0.875293	1.705338
0.875391	1.713568
0.875488	1.704853
0.875586	1.703208
0.875684	1.701792
0.875781	1.693958
0.875879	1.674262
0.875977	1.668521
0.876074	1.661950
0.876172	1.653054
0.876270	1.661809
0.876367	1.683102
0.876465	1.680807
0.876562	1.677225
0.876660	1.696539
0.876758	1.717811
0.876855	1.719236
0.876953	1.703903
0.877051	1.689965
0.877148	1.685869
0.877246	1.690481
0.877344	1.698683
0.877441	1.711990
0.877539	1.722278
0.877637	1.714373
0.877734	1.708435
0.877832	1.697280
0.877930	1.683651
0.878027	1.676558
0.878125	1.673429
0.878223	1.669905
0.878320	1.666167
0.878418	1.664677
0.878516	1.663641
0.878613	1.667148
0.878711	1.670703
0.878809	1.675800
0.878906	1.683105
0.879004	1.699263
0.879102	1.694001
0.879199	1.677087
0.879297	1.666922
0.879395	1.668380
0.879492	1.672898
0.879590	1.671151
0.879687	1.671400
0.879785	1.671112
0.879883	1.671958
0.879980	1.671964
0.880078	1.672855
0.880176	1.673173
0.880273	1.671829
0.880371	1.668373
0.880469	1.664707
0.880566	1.661433
0.880664	1.658592
0.880762	1.655567
0.880859	1.653052
0.880957	1.651490
0.881055	1.651062
0.881152	1.650700
0.881250	1.650546
0.881348	1.650014
0.881445	1.649525
0.881543	1.648881
0.881641	1.648387
0.881738	1.647869
0.881836	1.647503
0.881934	1.647242
0.882031	1.647382
0.882129	1.647555
0.882227	1.648214
0.882324	1.649037
0.882422	1.650243
0.882520	1.652423
0.882617	1.657745
0.882715	1.658946
0.882812	1.661267
0.882910	1.666513
0.883008	1.671481
0.883105	1.670785
0.883203	1.670223
0.883301	1.668105
0.883398	1.671320
0.883496	1.676038
0.883594	1.669531
0.883691	1.667571
0.883789	1.661288
0.883887	1.654833
0.883984	1.623110
0.884082	1.619724
0.884180	1.655873
0.884277	1.681610
0.884375	1.694070
0.884473	1.682869
0.884570	1.667024
0.884668	1.665421
0.884766	1.666117
0.884863	1.666489
0.884961	1.663643
0.885059	1.669612
0.885156	1.680244
0.885254	1.668331
0.885352	1.620352
0.885449	1.618545
0.885547	1.650156
0.885645	1.648500
0.885742	1.656188
0.885840	1.656380
0.885937	1.673331
0.886035	1.675808
0.886133	1.671259
0.886230	1.668607
0.886328	1.669220
0.886426	1.670734
0.886523	1.673666
0.886621	1.677344
0.886719	1.682129
0.886816	1.685911
0.886914	1.687468
0.887012	1.687820
0.887109	1.688508
0.887207	1.687719
0.887305	1.687585
0.887402	1.682431
0.887500	1.678441
0.887598	1.681544
0.887695	1.676992
0.887793	1.677352
0.887891	1.695823
0.887988	1.695539
0.888086	1.675912
0.888184	1.682851
0.888281	1.701662
0.888379	1.711117
0.888477	1.717309
0.888574	1.715688
0.888672	1.710409
0.888770	1.697571
0.888867	1.691343
0.888965	1.698444
0.889062	1.699845
0.889160	1.693380
0.889258	1.686762
0.889355	1.684769
0.889453	1.683935
0.889551	1.682966
0.889648	1.681895
0.889746	1.681364
0.889844	1.681160
0.889941	1.681681
0.890039	1.681926
0.890137	1.682149
0.890234	1.681949
0.890332	1.682026
0.890430	1.681366
0.890527	1.682753
0.890625	1.681542
0.890723	1.678479
0.890820	1.679833
0.890918	1.679309
0.891016	1.678900
0.891113	1.677702
0.891211	1.676779
0.891309	1.675744
0.891406	1.674953
0.891504	1.674132
0.891602	1.673422
0.891699	1.672593
0.891797	1.672098
0.891895	1.671469
0.891992	1.671082
0.892090	1.670388
0.892187	1.670212
0.892285	1.670471
0.892383	1.670987
0.892480	1.671858
0.892578	1.673324
0.892676	1.675552
0.892773	1.679390
0.892871	1.683322
0.892969	1.681339
0.893066	1.684079
0.893164	1.675985
0.893262	1.679651
0.893359	1.682075
0.893457	1.680597
0.893555	1.680390
0.893652	1.679385
0.893750	1.679428
0.893848	1.679507
0.893945	1.679907
0.894043	1.677663
0.894141	1.675693
0.894238	1.675357
0.894336	1.675847
0.894434	1.676687
0.894531	1.677715
0.894629	1.678743
0.894727	1.679630
0.894824	1.680214
0.894922	1.680195
0.895020	1.680657
0.895117	1.680791
0.895215	1.680563
0.895312	1.679883
0.895410	1.679454
0.895508	1.679043
0.895605	1.678809
0.895703	1.678878
0.895801	1.678839
0.895898	1.678980
0.895996	1.679158
0.896094	1.679108
0.896191	1.679113
0.896289	1.679216
0.896387	1.679446
0.896484	1.679918
0.896582	1.680412
0.896680	1.680705
0.896777	1.680775
0.896875	1.680815
0.896973	1.680807
0.897070	1.681015
0.897168	1.681633
0.897266	1.683041
0.897363	1.682772
0.897461	1.679918
0.897559	1.676205
0.897656	1.674799
0.897754	1.674152
0.897852	1.674989
0.897949	1.675321
0.898047	1.677137
0.898145	1.677709
0.898242	1.679999
0.898340	1.679728
0.898437	1.681541
0.898535	1.679691
0.898633	1.683925
0.898730	1.682853
0.898828	1.688566
0.898926	1.668355
0.899023	1.661453
0.899121	1.664870
0.899219	1.623860
0.899316	1.634860
0.899414	1.647532
0.899512	1.640471
0.899609	1.643251
0.899707	1.628936
0.899805	1.628733
0.899902	1.607071
0.900000	1.609174
0.900098	1.624597
0.900195	1.610555
0.900293	1.599164
0.900391	1.602789
0.900488	1.617674
0.900586	1.615444
0.900684	1.604923
0.900781	1.583566
0.900879	1.580070
0.900977	1.573140
0.901074	1.558790
0.901172	1.540150
0.901270	1.527311
0.901367	1.550833
0.901465	1.562699
0.901562	1.590215
0.901660	1.632574
0.901758	1.633283
0.901855	1.642365
0.901953	1.642743
0.902051	1.641138
0.902148	1.639439
0.902246	1.640724
0.902344	1.644261
0.902441	1.642642
0.902539	1.643713
0.902637	1.647649
0.902734	1.652003
0.902832	1.654971
0.902930	1.660465
0.903027	1.664287
0.903125	1.667608
0.903223	1.686249
0.903320	1.705596
0.903418	1.705423
0.903516	1.690726
0.903613	1.687030
0.903711	1.684321
0.903809	1.662448
0.903906	1.644307
0.904004	1.650824
0.904102	1.640449
0.904199	1.653794
0.904297	1.665482
0.904395	1.653672
0.904492	1.648169
0.904590	1.619242
0.904687	1.616121
0.904785	1.635154
0.904883	1.662334
0.904980	1.656021
0.905078	1.626292
0.905176	1.603178
0.905273	1.593050
0.905371	1.612152
0.905469	1.640993
0.905566	1.687297
0.905664	1.685179
0.905762	1.677175
0.905859	1.681369
0.905957	1.697213
0.906055	1.687710
0.906152	1.677648
0.906250	1.670237
0.906348	1.667239
0.906445	1.663770
0.906543	1.663580
0.906641	1.664239
0.906738	1.658642
0.906836	1.658920
0.906934	1.661481
0.907031	1.663600
0.907129	1.666108
0.907227	1.668190
0.907324	1.670523
0.907422	1.672621
0.907520	1.674849
0.907617	1.676957
0.907715	1.679516
0.907812	1.683609
0.907910	1.690123
0.908008	1.691629
0.908105	1.687366
0.908203	1.686690
0.908301	1.686771
0.908398	1.688449
0.908496	1.688476
0.908594	1.681239
0.908691	1.676846
0.908789	1.674976
0.908887	1.674825
0.908984	1.675411
0.909082	1.677509
0.909180	1.677541
0.909277	1.677497
0.909375	1.674809
0.909473	1.675126
0.909570	1.673737
0.909668	1.676441
0.909766	1.674892
0.909863	1.688043
0.909961	1.680559
0.910059	1.678177
0.910156	1.677975
0.910254	1.690596
0.910352	1.688544
0.910449	1.679296
0.910547	1.692451
0.910645	1.696005
0.910742	1.695422
0.910840	1.686581
0.910937	1.677347
0.911035	1.668871
0.911133	1.680315
0.911230	1.682062
0.911328	1.679129
0.911426	1.692864
0.911523	1.677499
0.911621	1.665400
0.911719	1.638227
0.911816	1.652504
0.911914	1.658250
0.912012	1.684279
0.912109	1.690727
0.912207	1.680764
0.912305	1.686008
0.912402	1.689732
0.912500	1.687579
0.912598	1.686368
0.912695	1.684299
0.912793	1.682732
0.912891	1.679816
0.912988	1.676557
0.913086	1.672078
0.913184	1.669573
0.913281	1.667207
0.913379	1.665230
0.913477	1.662862
0.913574	1.663200
0.913672	1.643420
0.913770	1.625867
0.913867	1.608620
0.913965	1.626539
0.914062	1.645036
0.914160	1.649510
0.914258	1.640358
0.914355	1.623792
0.914453	1.611992
0.914551	1.607462
0.914648	1.620762
0.914746	1.629902
0.914844	1.648621
0.914941	1.648583
0.915039	1.625352
0.915137	1.611278
0.915234	1.603457
0.915332	1.634848
0.915430	1.654218
0.915527	1.622603
0.915625	1.593573
0.915723	1.583408
0.915820	1.580382
0.915918	1.596137
0.916016	1.602839
0.916113	1.613014
0.916211	1.650771
0.916309	1.629579
0.916406	1.607843
0.916504	1.604481
0.916602	1.616669
0.916699	1.651676
0.916797	1.663134
0.916895	1.663532
0.916992	1.669377
0.917090	1.676054
0.917187	1.661084
0.917285	1.646030
0.917383	1.648503
0.917480	1.654365
0.917578	1.658644
0.917676	1.660430
0.917773	1.660993
0.917871	1.661305
0.917969	1.661783
0.918066	1.662858
0.918164	1.665126
0.918262	1.667683
0.918359	1.665524
0.918457	1.668099
0.918555	1.670678
0.918652	1.671744
0.918750	1.672771
0.918848	1.673584
0.918945	1.674304
0.919043	1.674604
0.919141	1.674783
0.919238	1.674749
0.919336	1.674826
0.919434	1.674830
0.919531	1.674586
0.919629	1.674302
0.919727	1.673898
0.919824	1.673661
0.919922	1.673714
0.920020	1.673761
0.920117	1.673858
0.920215	1.673978
0.920312	1.674074
0.920410	1.674445
0.920508	1.675051
0.920605	1.675772
0.920703	1.676555
0.920801	1.677431
0.920898	1.678340
0.920996	1.679398
0.921094	1.680380
0.921191	1.681223
0.921289	1.682091
0.921387	1.683085
0.921484	1.684724
0.921582	1.686780
0.921680	1.689275
0.921777	1.691480
0.921875	1.693343
0.921973	1.693859
0.922070	1.693764
0.922168	1.693008
0.922266	1.693968
0.922363	1.694703
0.922461	1.697653
0.922559	1.699078
0.922656	1.694475
0.922754	1.691629
0.922852	1.690328
0.922949	1.689711
0.923047	1.688428
0.923145	1.687166
0.923242	1.685326
0.923340	1.683255
0.923437	1.681068
0.923535	1.679183
0.923633	1.677491
0.923730	1.676189
0.923828	1.675107
0.923926	1.674497
0.924023	1.673970
0.924121	1.673823
0.924219	1.673840
0.924316	1.673696
0.924414	1.673645
0.924512	1.673908
0.924609	1.674600
0.924707	1.675634
0.924805	1.675403
0.924902	1.672021
0.925000	1.668273
0.925098	1.665889
0.925195	1.665166
0.925293	1.664320
0.925391	1.664212
0.925488	1.663628
0.925586	1.664253
0.925684	1.664022
0.925781	1.665518
0.925879	1.665786
0.925977	1.668774
0.926074	1.668085
0.926172	1.668660
0.926270	1.680407
0.926367	1.683454
0.926465	1.683482
0.926562	1.691710
0.926660	1.693224
0.926758	1.689005
0.926855	1.696687
0.926953	1.696972
0.927051	1.693831
0.927148	1.694807
0.927246	1.704161
0.927344	1.687699
0.927441	1.701352
0.927539	1.689024
0.927637	1.699055
0.927734	1.709471
0.927832	1.684707
0.927930	1.669762
0.928027	1.679192
0.928125	1.684708
0.928223	1.667153
0.928320	1.671931
0.928418	1.707857
0.928516	1.703298
0.928613	1.716610
0.928711	1.683687
0.928809	1.673000
0.928906	1.689005
0.929004	1.684278
0.929102	1.665717
0.929199	1.668164
0.929297	1.677593
0.929395	1.670556
0.929492	1.657356
0.929590	1.654874
0.929687	1.655315
0.929785	1.645968
0.929883	1.637511
0.929980	1.662833
0.930078	1.645380
0.930176	1.654798
0.930273	1.677131
0.930371	1.678262
0.930469	1.641233
0.930566	1.629163
0.930664	1.654933
0.930762	1.659429
0.930859	1.661145
0.930957	1.649871
0.931055	1.663993
0.931152	1.660974
0.931250	1.658751
0.931348	1.682084
0.931445	1.684310
0.931543	1.672770
0.931641	1.686792
0.931738	1.684600
0.931836	1.685773
0.931934	1.676597
0.932031	1.679470
0.932129	1.682889
0.932227	1.678582
0.932324	1.676451
0.932422	1.675941
0.932520	1.675481
0.932617	1.675419
0.932715	1.676329
0.932812	1.673660
0.932910	1.675856
0.933008	1.675850
0.933105	1.683020
0.933203	1.691053
0.933301	1.691217
0.933398	1.684852
0.933496	1.691744
0.933594	1.671175
0.933691	1.647270
0.933789	1.657400
0.933887	1.651990
0.933984	1.675422
0.934082	1.634295
0.934180	1.622783
0.934277	1.616245
0.934375	1.627509
0.934473	1.620340
0.934570	1.614581
0.934668	1.595810
0.934766	1.568616
0.934863	1.561140
0.934961	1.567092
0.935059	1.573838
0.935156	1.589542
0.935254	1.601175
0.935352	1.602325
0.935449	1.583215
0.935547	1.579828
0.935645	1.602235
0.935742	1.603710
0.935840	1.596302
0.935937	1.600441
0.936035	1.612086
0.936133	1.586789
0.936230	1.580813
0.936328	1.574497
0.936426	1.549681
0.936523	1.540233
0.936621	1.539079
0.936719	1.537445
0.936816	1.525222
0.936914	1.528583
0.937012	1.542179
0.937109	1.550208
0.937207	1.541057
0.937305	1.536371
0.937402	1.532553
0.937500	1.540700
0.937598	1.548821
0.937695	1.556960
0.937793	1.613694
0.937891	1.639490
0.937988	1.647273
0.938086	1.644636
0.938184	1.635931
0.938281	1.633804
0.938379	1.640068
0.938477	1.643777
0.938574	1.653171
0.938672	1.667159
0.938770	1.660352
0.938867	1.657467
0.938965	1.638332
0.939062	1.651515
0.939160	1.688653
0.939258	1.666641
0.939355	1.674909
0.939453	1.670642
0.939551	1.657065
0.939648	1.644058
0.939746	1.656340
0.939844	1.656355
0.939941	1.653008
0.940039	1.680603
0.940137	1.692238
0.940234	1.676000
0.940332	1.666445
0.940430	1.654003
0.940527	1.648348
0.940625	1.636207
0.940723	1.630698
0.940820	1.632858
0.940918	1.651678
0.941016	1.632865
0.941113	1.610566
0.941211	1.592739
0.941309	1.601007
0.941406	1.615922
0.941504	1.611394
0.941602	1.577997
0.941699	1.615842
0.941797	1.669656
0.941895	1.650940
0.941992	1.657495
0.942090	1.665787
0.942187	1.672369
0.942285	1.667435
0.942383	1.669228
0.942480	1.660543
0.942578	1.637755
0.942676	1.637076
0.942773	1.613619
0.942871	1.573723
0.942969	1.589294
0.943066	1.618608
0.943164	1.644934
0.943262	1.646569
0.943359	1.655155
0.943457	1.667793
0.943555	1.685107
0.943652	1.692248
0.943750	1.694166
0.943848	1.695986
0.943945	1.692840
0.944043	1.689935
0.944141	1.670007
0.944238	1.640107
0.944336	1.612943
0.944434	1.607485
0.944531	1.660447
0.944629	1.693043
0.944727	1.668009
0.944824	1.682134
0.944922	1.678296
0.945020	1.684240
0.945117	1.690469
0.945215	1.683667
0.945312	1.678852
0.945410	1.673372
0.945508	1.669920
0.945605	1.666638
0.945703	1.664984
0.945801	1.663425
0.945898	1.662491
0.945996	1.660581
0.946094	1.659174
0.946191	1.656846
0.946289	1.656088
0.946387	1.653195
0.946484	1.648709
0.946582	1.647066
0.946680	1.650767
0.946777	1.649779
0.946875	1.661704
0.946973	1.668694
0.947070	1.676727
0.947168	1.675029
0.947266	1.676840
0.947363	1.667525
0.947461	1.661997
0.947559	1.641776
0.947656	1.614123
0.947754	1.611410
0.947852	1.612349
0.947949	1.614996
0.948047	1.615297
0.948145	1.613906
0.948242	1.626806
0.948340	1.626926
0.948437	1.619801
0.948535	1.627171
0.948633	1.615994
0.948730	1.612638
0.948828	1.605584
0.948926	1.603396
0.949023	1.582167
0.949121	1.566172
0.949219	1.562978
0.949316	1.562976
0.949414	1.579151
0.949512	1.605835
0.949609	1.602022
0.949707	1.598173
0.949805	1.598382
0.949902	1.601532
0.950000	1.608625
0.950098	1.589279
0.950195	1.588510
0.950293	1.600785
0.950391	1.611848
0.950488	1.616531
0.950586	1.636865
0.950684	1.640846
0.950781	1.636886
0.950879	1.602177
0.950977	1.592170
0.951074	1.599568
0.951172	1.580944
0.951270	1.572290
0.951367	1.563539
0.951465	1.575697
0.951562	1.583831
0.951660	1.548653
0.951758	1.520783
0.951855	1.511238
0.951953	1.526228
0.952051	1.541376
0.952148	1.542106
0.952246	1.520973
0.952344	1.520852
0.952441	1.513589
0.952539	1.577729
0.952637	1.606961
0.952734	1.578512
0.952832	1.601923
0.952930	1.637480
0.953027	1.640602
0.953125	1.637612
0.953223	1.639754
0.953320	1.637541
0.953418	1.637335
0.953516	1.635294
0.953613	1.636493
0.953711	1.636181
0.953809	1.637998
0.953906	1.638600
0.954004	1.640037
0.954102	1.640337
0.954199	1.641178
0.954297	1.641326
0.954395	1.642097
0.954492	1.642199
0.954590	1.642645
0.954687	1.642839
0.954785	1.643055
0.954883	1.643151
0.954980	1.643248
0.955078	1.643541
0.955176	1.643889
0.955273	1.644105
0.955371	1.644480
0.955469	1.644959
0.955566	1.645527
0.955664	1.646360
0.955762	1.647273
0.955859	1.648542
0.955957	1.650201
0.956055	1.652112
0.956152	1.654182
0.956250	1.656385
0.956348	1.658526
0.956445	1.660585
0.956543	1.662436
0.956641	1.664044
0.956738	1.665507
0.956836	1.666732
0.956934	1.667949
0.957031	1.668815
0.957129	1.669509
0.957227	1.670042
0.957324	1.670582
0.957422	1.671248
0.957520	1.671766
0.957617	1.672572
0.957715	1.673167
0.957812	1.674042
0.957910	1.674705
0.958008	1.675418
0.958105	1.676076
0.958203	1.676538
0.958301	1.676635
0.958398	1.677006
0.958496	1.677557
0.958594	1.678163
0.958691	1.678938
0.958789	1.679912
0.958887	1.680924
0.958984	1.681809
0.959082	1.682831
0.959180	1.683635
0.959277	1.684641
0.959375	1.685427
0.959473	1.686337
0.959570	1.687290
0.959668	1.688060
0.959766	1.688778
0.959863	1.689523
0.959961	1.690172
0.960059	1.690919
0.960156	1.691698
0.960254	1.692831
0.960352	1.694031
0.960449	1.695951
0.960547	1.697850
0.960645	1.700155
0.960742	1.701855
0.960840	1.704570
0.960937	1.709208
0.961035	1.713858
0.961133	1.718447
0.961230	1.718881
0.961328	1.715791
0.961426	1.724265
0.961523	1.719412
0.961621	1.721377
0.961719	1.711753
0.961816	1.711984
0.961914	1.711761
0.962012	1.704671
0.962109	1.692781
0.962207	1.681297
0.962305	1.686649
0.962402	1.704053
0.962500	1.715328
0.962598	1.706890
0.962695	1.702309
0.962793	1.695741
0.962891	1.677818
0.962988	1.677672
0.963086	1.694514
0.963184	1.704139
0.963281	1.703604
0.963379	1.703333
0.963477	1.700555
0.963574	1.716215
0.963672	1.690876
0.963770	1.656867
0.963867	1.668423
0.963965	1.688365
0.964062	1.681200
0.964160	1.676848
0.964258	1.684218
0.964355	1.710241
0.964453	1.707354
0.964551	1.707578
0.964648	1.645739
0.964746	1.608892
0.964844	1.606519
0.964941	1.602277
0.965039	1.594021
0.965137	1.656185
0.965234	1.677168
0.965332	1.658610
0.965430	1.657759
0.965527	1.650642
0.965625	1.625686
0.965723	1.624077
0.965820	1.673047
0.965918	1.668343
0.966016	1.666269
0.966113	1.666074
0.966211	1.668662
0.966309	1.670202
0.966406	1.673060
0.966504	1.675113
0.966602	1.678999
0.966699	1.686216
0.966797	1.691136
0.966895	1.696551
0.966992	1.684800
0.967090	1.666520
0.967187	1.658478
0.967285	1.651673
0.967383	1.650339
0.967480	1.644463
0.967578	1.637967
0.967676	1.633689
0.967773	1.631729
0.967871	1.630063
0.967969	1.629742
0.968066	1.629399
0.968164	1.629526
0.968262	1.629560
0.968359	1.629975
0.968457	1.630313
0.968555	1.631027
0.968652	1.631701
0.968750	1.633081
0.968848	1.636308
0.968945	1.632474
0.969043	1.615859
0.969141	1.614419
0.969238	1.598050
0.969336	1.575141
0.969434	1.560141
0.969531	1.550248
0.969629	1.544479
0.969727	1.543699
0.969824	1.553356
0.969922	1.551774
0.970020	1.568999
0.970117	1.598417
0.970215	1.627939
0.970312	1.640991
0.970410	1.647130
0.970508	1.652357
0.970605	1.677435
0.970703	1.667170
0.970801	1.633582
0.970898	1.652338
0.970996	1.648714
0.971094	1.622302
0.971191	1.616550
0.971289	1.606192
0.971387	1.584761
0.971484	1.576047
0.971582	1.598139
0.971680	1.625149
0.971777	1.621571
0.971875	1.610330
0.971973	1.604813
0.972070	1.625219
0.972168	1.617342
0.972266	1.614990
0.972363	1.620607
0.972461	1.606904
0.972559	1.631330
0.972656	1.644625
0.972754	1.624742
0.972852	1.611059
0.972949	1.626789
0.973047	1.642943
0.973145	1.649831
0.973242	1.652150
0.973340	1.655211
0.973437	1.630590
0.973535	1.648389
0.973633	1.669739
0.973730	1.657406
0.973828	1.641273
0.973926	1.642821
0.974023	1.653821
0.974121	1.674741
0.974219	1.677064
0.974316	1.675457
0.974414	1.673565
0.974512	1.678261
0.974609	1.682267
0.974707	1.684815
0.974805	1.684183
0.974902	1.685582
0.975000	1.685458
0.975098	1.685642
0.975195	1.682943
0.975293	1.680182
0.975391	1.675546
0.975488	1.675545
0.975586	1.677787
0.975684	1.683714
0.975781	1.686015
0.975879	1.686528
0.975977	1.664415
0.976074	1.663311
0.976172	1.650954
0.976270	1.635125
0.976367	1.612197
0.976465	1.579227

