LabVIEW Measurement	
Writer_Version	2
Reader_Version	2
Separator	Tab
Decimal_Separator	.
Multi_Headings	Yes
X_Columns	One
Time_Pref	Absolute
Operator	W-Tunnel
Date	1904/01/01
Time	01:00:00
***End_of_Header***	
	
Channels	1	
Samples	10000	
Date	2024/05/17	
Time	18:19:31.4955092562497558314	
Y_Unit_Label	Volts	
X_Dimension	Time	
X0	0.0000000000000000E+0	
Delta_X	9.765625E-5	
***End_of_Header***		
X_Value	Voltage	Comment
0.000000	1.621786
9.765625E-5	1.625185
0.000195	1.629490
0.000293	1.633327
0.000391	1.638700
0.000488	1.643728
0.000586	1.652348
0.000684	1.665725
0.000781	1.675354
0.000879	1.655485
0.000977	1.638797
0.001074	1.614535
0.001172	1.607700
0.001270	1.608772
0.001367	1.600388
0.001465	1.593883
0.001562	1.626373
0.001660	1.635623
0.001758	1.608811
0.001855	1.621642
0.001953	1.615947
0.002051	1.617194
0.002148	1.619454
0.002246	1.623199
0.002344	1.625316
0.002441	1.628023
0.002539	1.630605
0.002637	1.633325
0.002734	1.636495
0.002832	1.638688
0.002930	1.641493
0.003027	1.640347
0.003125	1.641450
0.003223	1.640774
0.003320	1.648700
0.003418	1.652845
0.003516	1.659805
0.003613	1.621931
0.003711	1.621093
0.003809	1.619710
0.003906	1.609219
0.004004	1.570302
0.004102	1.537445
0.004199	1.561410
0.004297	1.591836
0.004395	1.626780
0.004492	1.613395
0.004590	1.616773
0.004687	1.615584
0.004785	1.620552
0.004883	1.621460
0.004980	1.626281
0.005078	1.628228
0.005176	1.633196
0.005273	1.636564
0.005371	1.642934
0.005469	1.648813
0.005566	1.657618
0.005664	1.668946
0.005762	1.685366
0.005859	1.655575
0.005957	1.628180
0.006055	1.617302
0.006152	1.614451
0.006250	1.609290
0.006348	1.603809
0.006445	1.605893
0.006543	1.606393
0.006641	1.608098
0.006738	1.609466
0.006836	1.611376
0.006934	1.613471
0.007031	1.616577
0.007129	1.619755
0.007227	1.623337
0.007324	1.626994
0.007422	1.630855
0.007520	1.635139
0.007617	1.639517
0.007715	1.647154
0.007812	1.653303
0.007910	1.647936
0.008008	1.633281
0.008105	1.610425
0.008203	1.631584
0.008301	1.629242
0.008398	1.626571
0.008496	1.620117
0.008594	1.601751
0.008691	1.578730
0.008789	1.557466
0.008887	1.559924
0.008984	1.565704
0.009082	1.568482
0.009180	1.586473
0.009277	1.598006
0.009375	1.601670
0.009473	1.610279
0.009570	1.616025
0.009668	1.622392
0.009766	1.627460
0.009863	1.633171
0.009961	1.638982
0.010059	1.645834
0.010156	1.653188
0.010254	1.658121
0.010352	1.655503
0.010449	1.652212
0.010547	1.657409
0.010645	1.650749
0.010742	1.635184
0.010840	1.624306
0.010937	1.620871
0.011035	1.620986
0.011133	1.618306
0.011230	1.616070
0.011328	1.614741
0.011426	1.615027
0.011523	1.616265
0.011621	1.618068
0.011719	1.619915
0.011816	1.622116
0.011914	1.624035
0.012012	1.626861
0.012109	1.629432
0.012207	1.633331
0.012305	1.637232
0.012402	1.643362
0.012500	1.648570
0.012598	1.658376
0.012695	1.668515
0.012793	1.689089
0.012891	1.685978
0.012988	1.656966
0.013086	1.640006
0.013184	1.625227
0.013281	1.612325
0.013379	1.589560
0.013477	1.575354
0.013574	1.571712
0.013672	1.572537
0.013770	1.544676
0.013867	1.548691
0.013965	1.593717
0.014062	1.605192
0.014160	1.614218
0.014258	1.615957
0.014355	1.622497
0.014453	1.624897
0.014551	1.630787
0.014648	1.634136
0.014746	1.640281
0.014844	1.643277
0.014941	1.646732
0.015039	1.644302
0.015137	1.633116
0.015234	1.598357
0.015332	1.614033
0.015430	1.581161
0.015527	1.580343
0.015625	1.599701
0.015723	1.584150
0.015820	1.587945
0.015918	1.587035
0.016016	1.572119
0.016113	1.552417
0.016211	1.564750
0.016309	1.578934
0.016406	1.593211
0.016504	1.602732
0.016602	1.610293
0.016699	1.615547
0.016797	1.620696
0.016895	1.624521
0.016992	1.628760
0.017090	1.632560
0.017187	1.636987
0.017285	1.641354
0.017383	1.647548
0.017480	1.654954
0.017578	1.667295
0.017676	1.673691
0.017773	1.642721
0.017871	1.628416
0.017969	1.655586
0.018066	1.632671
0.018164	1.630366
0.018262	1.633236
0.018359	1.617411
0.018457	1.616570
0.018555	1.611187
0.018652	1.612667
0.018750	1.614619
0.018848	1.617935
0.018945	1.620351
0.019043	1.623462
0.019141	1.626385
0.019238	1.629684
0.019336	1.633543
0.019434	1.637942
0.019531	1.644350
0.019629	1.653011
0.019727	1.666433
0.019824	1.653396
0.019922	1.646038
0.020020	1.641303
0.020117	1.657212
0.020215	1.633772
0.020312	1.591551
0.020410	1.597674
0.020508	1.611845
0.020605	1.622342
0.020703	1.629723
0.020801	1.620341
0.020898	1.623531
0.020996	1.619034
0.021094	1.617601
0.021191	1.617746
0.021289	1.618692
0.021387	1.620087
0.021484	1.621997
0.021582	1.625117
0.021680	1.628098
0.021777	1.632953
0.021875	1.637054
0.021973	1.644687
0.022070	1.649592
0.022168	1.660541
0.022266	1.656632
0.022363	1.649700
0.022461	1.655563
0.022559	1.625199
0.022656	1.615914
0.022754	1.616780
0.022852	1.608164
0.022949	1.588089
0.023047	1.579262
0.023145	1.578179
0.023242	1.576880
0.023340	1.584859
0.023437	1.601223
0.023535	1.613040
0.023633	1.612927
0.023730	1.615620
0.023828	1.618867
0.023926	1.623007
0.024023	1.626955
0.024121	1.631480
0.024219	1.635942
0.024316	1.641131
0.024414	1.646055
0.024512	1.650422
0.024609	1.652147
0.024707	1.648204
0.024805	1.638731
0.024902	1.642638
0.025000	1.638555
0.025098	1.632278
0.025195	1.626757
0.025293	1.623726
0.025391	1.621619
0.025488	1.620710
0.025586	1.618973
0.025684	1.617971
0.025781	1.617626
0.025879	1.618931
0.025977	1.620415
0.026074	1.623175
0.026172	1.625323
0.026270	1.629019
0.026367	1.631489
0.026465	1.635995
0.026562	1.637906
0.026660	1.643006
0.026758	1.644836
0.026855	1.660200
0.026953	1.659895
0.027051	1.635745
0.027148	1.613989
0.027246	1.622761
0.027344	1.604695
0.027441	1.625779
0.027539	1.627503
0.027637	1.603922
0.027734	1.609580
0.027832	1.600799
0.027930	1.583487
0.028027	1.559531
0.028125	1.577624
0.028223	1.593648
0.028320	1.605951
0.028418	1.612421
0.028516	1.619648
0.028613	1.623658
0.028711	1.629289
0.028809	1.633418
0.028906	1.639881
0.029004	1.646610
0.029102	1.657038
0.029199	1.646283
0.029297	1.634109
0.029395	1.632144
0.029492	1.650410
0.029590	1.643103
0.029687	1.623752
0.029785	1.611659
0.029883	1.601392
0.029980	1.589311
0.030078	1.572868
0.030176	1.562480
0.030273	1.549296
0.030371	1.540435
0.030469	1.526711
0.030566	1.554173
0.030664	1.604781
0.030762	1.608963
0.030859	1.616512
0.030957	1.619640
0.031055	1.624256
0.031152	1.626955
0.031250	1.630742
0.031348	1.633649
0.031445	1.637233
0.031543	1.640778
0.031641	1.645026
0.031738	1.650328
0.031836	1.651968
0.031934	1.647587
0.032031	1.633175
0.032129	1.624858
0.032227	1.632314
0.032324	1.628950
0.032422	1.630201
0.032520	1.628707
0.032617	1.628043
0.032715	1.626146
0.032812	1.626035
0.032910	1.625577
0.033008	1.626545
0.033105	1.627115
0.033203	1.628834
0.033301	1.629975
0.033398	1.632400
0.033496	1.634041
0.033594	1.637533
0.033691	1.640043
0.033789	1.645195
0.033887	1.648157
0.033984	1.656568
0.034082	1.658500
0.034180	1.669938
0.034277	1.651587
0.034375	1.634740
0.034473	1.625961
0.034570	1.600359
0.034668	1.612226
0.034766	1.592103
0.034863	1.585651
0.034961	1.585058
0.035059	1.574381
0.035156	1.584292
0.035254	1.594322
0.035352	1.602688
0.035449	1.607872
0.035547	1.612490
0.035645	1.616128
0.035742	1.619178
0.035840	1.622052
0.035937	1.624382
0.036035	1.627366
0.036133	1.630116
0.036230	1.635166
0.036328	1.646272
0.036426	1.658906
0.036523	1.634900
0.036621	1.642363
0.036719	1.641702
0.036816	1.646850
0.036914	1.633736
0.037012	1.605760
0.037109	1.595490
0.037207	1.594582
0.037305	1.596331
0.037402	1.563791
0.037500	1.559887
0.037598	1.573412
0.037695	1.580811
0.037793	1.595684
0.037891	1.598520
0.037988	1.601009
0.038086	1.606096
0.038184	1.611511
0.038281	1.616330
0.038379	1.621219
0.038477	1.625405
0.038574	1.630643
0.038672	1.635325
0.038770	1.642946
0.038867	1.652312
0.038965	1.670360
0.039062	1.670645
0.039160	1.640955
0.039258	1.627158
0.039355	1.639082
0.039453	1.618920
0.039551	1.617678
0.039648	1.630076
0.039746	1.608764
0.039844	1.582008
0.039941	1.560518
0.040039	1.559052
0.040137	1.580315
0.040234	1.565314
0.040332	1.567039
0.040430	1.603000
0.040527	1.605762
0.040625	1.614882
0.040723	1.616812
0.040820	1.623037
0.040918	1.625349
0.041016	1.630309
0.041113	1.632985
0.041211	1.637236
0.041309	1.640016
0.041406	1.642723
0.041504	1.643897
0.041602	1.640844
0.041699	1.651611
0.041797	1.648487
0.041895	1.596735
0.041992	1.584469
0.042090	1.598778
0.042187	1.604255
0.042285	1.599759
0.042383	1.611434
0.042480	1.607637
0.042578	1.611192
0.042676	1.616450
0.042773	1.616342
0.042871	1.617218
0.042969	1.617835
0.043066	1.620463
0.043164	1.624416
0.043262	1.627475
0.043359	1.632099
0.043457	1.634887
0.043555	1.640951
0.043652	1.644345
0.043750	1.664383
0.043848	1.665230
0.043945	1.628454
0.044043	1.629419
0.044141	1.646771
0.044238	1.646303
0.044336	1.631900
0.044434	1.620542
0.044531	1.606286
0.044629	1.610677
0.044727	1.611725
0.044824	1.613724
0.044922	1.606669
0.045020	1.608352
0.045117	1.612188
0.045215	1.616100
0.045312	1.619395
0.045410	1.622770
0.045508	1.626124
0.045605	1.629405
0.045703	1.633589
0.045801	1.637371
0.045898	1.642925
0.045996	1.647613
0.046094	1.657578
0.046191	1.664925
0.046289	1.667128
0.046387	1.680749
0.046484	1.652122
0.046582	1.635259
0.046680	1.616568
0.046777	1.602751
0.046875	1.592854
0.046973	1.584030
0.047070	1.586993
0.047168	1.583130
0.047266	1.575578
0.047363	1.562958
0.047461	1.573404
0.047559	1.598355
0.047656	1.604842
0.047754	1.612442
0.047852	1.616252
0.047949	1.621817
0.048047	1.625125
0.048145	1.630716
0.048242	1.634653
0.048340	1.642164
0.048437	1.649314
0.048535	1.664064
0.048633	1.664108
0.048730	1.648180
0.048828	1.646813
0.048926	1.640222
0.049023	1.639260
0.049121	1.636687
0.049219	1.631308
0.049316	1.613487
0.049414	1.600949
0.049512	1.609762
0.049609	1.609215
0.049707	1.608387
0.049805	1.609774
0.049902	1.612267
0.050000	1.615322
0.050098	1.618292
0.050195	1.621597
0.050293	1.624642
0.050391	1.628349
0.050488	1.631727
0.050586	1.636294
0.050684	1.639960
0.050781	1.645470
0.050879	1.649502
0.050977	1.664304
0.051074	1.647656
0.051172	1.611188
0.051270	1.623485
0.051367	1.619308
0.051465	1.594636
0.051562	1.606090
0.051660	1.587760
0.051758	1.570790
0.051855	1.547812
0.051953	1.581095
0.052051	1.606308
0.052148	1.593212
0.052246	1.608783
0.052344	1.611186
0.052441	1.612851
0.052539	1.617642
0.052637	1.620540
0.052734	1.624086
0.052832	1.627804
0.052930	1.630835
0.053027	1.635702
0.053125	1.638484
0.053223	1.645567
0.053320	1.648268
0.053418	1.671399
0.053516	1.671481
0.053613	1.667805
0.053711	1.667029
0.053809	1.631213
0.053906	1.622924
0.054004	1.597570
0.054102	1.609167
0.054199	1.624660
0.054297	1.607333
0.054395	1.591609
0.054492	1.586957
0.054590	1.610958
0.054687	1.594663
0.054785	1.570583
0.054883	1.576806
0.054980	1.602397
0.055078	1.612205
0.055176	1.619457
0.055273	1.625331
0.055371	1.630031
0.055469	1.634795
0.055566	1.639186
0.055664	1.643715
0.055762	1.647875
0.055859	1.652650
0.055957	1.656651
0.056055	1.658824
0.056152	1.652774
0.056250	1.646307
0.056348	1.634470
0.056445	1.634536
0.056543	1.637121
0.056641	1.617724
0.056738	1.607524
0.056836	1.606945
0.056934	1.608774
0.057031	1.611841
0.057129	1.614718
0.057227	1.617883
0.057324	1.620477
0.057422	1.623587
0.057520	1.626173
0.057617	1.630182
0.057715	1.633995
0.057812	1.640938
0.057910	1.646766
0.058008	1.658619
0.058105	1.673854
0.058203	1.668143
0.058301	1.633959
0.058398	1.602097
0.058496	1.631246
0.058594	1.610220
0.058691	1.616982
0.058789	1.624443
0.058887	1.616836
0.058984	1.609270
0.059082	1.599709
0.059180	1.599922
0.059277	1.598096
0.059375	1.601991
0.059473	1.605425
0.059570	1.610232
0.059668	1.613641
0.059766	1.617773
0.059863	1.620480
0.059961	1.624230
0.060059	1.626656
0.060156	1.630700
0.060254	1.634102
0.060352	1.642214
0.060449	1.649835
0.060547	1.651109
0.060645	1.645137
0.060742	1.625478
0.060840	1.642780
0.060937	1.658053
0.061035	1.639487
0.061133	1.618895
0.061230	1.606137
0.061328	1.565857
0.061426	1.508956
0.061523	1.483079
0.061621	1.505967
0.061719	1.555475
0.061816	1.594167
0.061914	1.596735
0.062012	1.604047
0.062109	1.609249
0.062207	1.616319
0.062305	1.620595
0.062402	1.626889
0.062500	1.630954
0.062598	1.638037
0.062695	1.642925
0.062793	1.652706
0.062891	1.655497
0.062988	1.667831
0.063086	1.653729
0.063184	1.635717
0.063281	1.631168
0.063379	1.622243
0.063477	1.612747
0.063574	1.597434
0.063672	1.610462
0.063770	1.617449
0.063867	1.613692
0.063965	1.615949
0.064062	1.617727
0.064160	1.617555
0.064258	1.618448
0.064355	1.620467
0.064453	1.622855
0.064551	1.625563
0.064648	1.628517
0.064746	1.632538
0.064844	1.637007
0.064941	1.642989
0.065039	1.648076
0.065137	1.651967
0.065234	1.654501
0.065332	1.649848
0.065430	1.646012
0.065527	1.645839
0.065625	1.622775
0.065723	1.596238
0.065820	1.575560
0.065918	1.563102
0.066016	1.541856
0.066113	1.548574
0.066211	1.579554
0.066309	1.587744
0.066406	1.585568
0.066504	1.592403
0.066602	1.604422
0.066699	1.609449
0.066797	1.616333
0.066895	1.619798
0.066992	1.625190
0.067090	1.628066
0.067187	1.633962
0.067285	1.637006
0.067383	1.642459
0.067480	1.620111
0.067578	1.633895
0.067676	1.641350
0.067773	1.624933
0.067871	1.624945
0.067969	1.624162
0.068066	1.619021
0.068164	1.625156
0.068262	1.616011
0.068359	1.604267
0.068457	1.599756
0.068555	1.612448
0.068652	1.620138
0.068750	1.615065
0.068848	1.616535
0.068945	1.616227
0.069043	1.619544
0.069141	1.620921
0.069238	1.624868
0.069336	1.626855
0.069434	1.631758
0.069531	1.635010
0.069629	1.643063
0.069727	1.651914
0.069824	1.669701
0.069922	1.649439
0.070020	1.653478
0.070117	1.661107
0.070215	1.648299
0.070312	1.637070
0.070410	1.620613
0.070508	1.610936
0.070605	1.597991
0.070703	1.588366
0.070801	1.576146
0.070898	1.580225
0.070996	1.596957
0.071094	1.602887
0.071191	1.609674
0.071289	1.610724
0.071387	1.612365
0.071484	1.614699
0.071582	1.618525
0.071680	1.622057
0.071777	1.626664
0.071875	1.630630
0.071973	1.635686
0.072070	1.639608
0.072168	1.645663
0.072266	1.650895
0.072363	1.666639
0.072461	1.662354
0.072559	1.639327
0.072656	1.633936
0.072754	1.626014
0.072852	1.618872
0.072949	1.610540
0.073047	1.612677
0.073145	1.632636
0.073242	1.621827
0.073340	1.616564
0.073437	1.615925
0.073535	1.616880
0.073633	1.618059
0.073730	1.620253
0.073828	1.621872
0.073926	1.624563
0.074023	1.626476
0.074121	1.630113
0.074219	1.632466
0.074316	1.637338
0.074414	1.641169
0.074512	1.649538
0.074609	1.656917
0.074707	1.671930
0.074805	1.665110
0.074902	1.666649
0.075000	1.664462
0.075098	1.642523
0.075195	1.629020
0.075293	1.608287
0.075391	1.598096
0.075488	1.598856
0.075586	1.591093
0.075684	1.596047
0.075781	1.612954
0.075879	1.624953
0.075977	1.624391
0.076074	1.615428
0.076172	1.616175
0.076270	1.615656
0.076367	1.619798
0.076465	1.621532
0.076562	1.626719
0.076660	1.628601
0.076758	1.634525
0.076855	1.635349
0.076953	1.641500
0.077051	1.629731
0.077148	1.608968
0.077246	1.609727
0.077344	1.632935
0.077441	1.626301
0.077539	1.613830
0.077637	1.630954
0.077734	1.615163
0.077832	1.608099
0.077930	1.595511
0.078027	1.582979
0.078125	1.580462
0.078223	1.593392
0.078320	1.599157
0.078418	1.606180
0.078516	1.609927
0.078613	1.615125
0.078711	1.618654
0.078809	1.623014
0.078906	1.626615
0.079004	1.630997
0.079102	1.635752
0.079199	1.641605
0.079297	1.648160
0.079395	1.657375
0.079492	1.674989
0.079590	1.662024
0.079687	1.664410
0.079785	1.653010
0.079883	1.640052
0.079980	1.629415
0.080078	1.614666
0.080176	1.607211
0.080273	1.596679
0.080371	1.594977
0.080469	1.615605
0.080566	1.630432
0.080664	1.622935
0.080762	1.615185
0.080859	1.617414
0.080957	1.618600
0.081055	1.615706
0.081152	1.618915
0.081250	1.621357
0.081348	1.624967
0.081445	1.627845
0.081543	1.631334
0.081641	1.634963
0.081738	1.639152
0.081836	1.643727
0.081934	1.648262
0.082031	1.652736
0.082129	1.654098
0.082227	1.656692
0.082324	1.652625
0.082422	1.649155
0.082520	1.644346
0.082617	1.633424
0.082715	1.627497
0.082812	1.618936
0.082910	1.615815
0.083008	1.616002
0.083105	1.616020
0.083203	1.616716
0.083301	1.618215
0.083398	1.620263
0.083496	1.622212
0.083594	1.624278
0.083691	1.626359
0.083789	1.628580
0.083887	1.631183
0.083984	1.634450
0.084082	1.638077
0.084180	1.642704
0.084277	1.646954
0.084375	1.653033
0.084473	1.659248
0.084570	1.665754
0.084668	1.651465
0.084766	1.631887
0.084863	1.653896
0.084961	1.632044
0.085059	1.629014
0.085156	1.622228
0.085254	1.617875
0.085352	1.609124
0.085449	1.602004
0.085547	1.604757
0.085645	1.608972
0.085742	1.613146
0.085840	1.616634
0.085937	1.619618
0.086035	1.622593
0.086133	1.625392
0.086230	1.629355
0.086328	1.633296
0.086426	1.639970
0.086523	1.648064
0.086621	1.666719
0.086719	1.675559
0.086816	1.657982
0.086914	1.651277
0.087012	1.650587
0.087109	1.638161
0.087207	1.624407
0.087305	1.611492
0.087402	1.603191
0.087500	1.596820
0.087598	1.588968
0.087695	1.598650
0.087793	1.610186
0.087891	1.623485
0.087988	1.618534
0.088086	1.607586
0.088184	1.604819
0.088281	1.609621
0.088379	1.615012
0.088477	1.620649
0.088574	1.626089
0.088672	1.631109
0.088770	1.637017
0.088867	1.642373
0.088965	1.648577
0.089062	1.648929
0.089160	1.652991
0.089258	1.657526
0.089355	1.641353
0.089453	1.618871
0.089551	1.642339
0.089648	1.636614
0.089746	1.611535
0.089844	1.616528
0.089941	1.611755
0.090039	1.613893
0.090137	1.610375
0.090234	1.608795
0.090332	1.610280
0.090430	1.613176
0.090527	1.616167
0.090625	1.619331
0.090723	1.622406
0.090820	1.625540
0.090918	1.628966
0.091016	1.632458
0.091113	1.637067
0.091211	1.641618
0.091309	1.647565
0.091406	1.652741
0.091504	1.657124
0.091602	1.656317
0.091699	1.655660
0.091797	1.647944
0.091895	1.636874
0.091992	1.603402
0.092090	1.606080
0.092187	1.600012
0.092285	1.593091
0.092383	1.556578
0.092480	1.519401
0.092578	1.547799
0.092676	1.553739
0.092773	1.572120
0.092871	1.610442
0.092969	1.607294
0.093066	1.606231
0.093164	1.615177
0.093262	1.619947
0.093359	1.625531
0.093457	1.630452
0.093555	1.635444
0.093652	1.642205
0.093750	1.647384
0.093848	1.654738
0.093945	1.646279
0.094043	1.658926
0.094141	1.683057
0.094238	1.645360
0.094336	1.612783
0.094434	1.595287
0.094531	1.592284
0.094629	1.580521
0.094727	1.575365
0.094824	1.575388
0.094922	1.584197
0.095020	1.594863
0.095117	1.599764
0.095215	1.605705
0.095312	1.610475
0.095410	1.615416
0.095508	1.619602
0.095605	1.624056
0.095703	1.628046
0.095801	1.632668
0.095898	1.636672
0.095996	1.641053
0.096094	1.643590
0.096191	1.645801
0.096289	1.645539
0.096387	1.642997
0.096484	1.624221
0.096582	1.598359
0.096680	1.571706
0.096777	1.565064
0.096875	1.615518
0.096973	1.635964
0.097070	1.611736
0.097168	1.609706
0.097266	1.611516
0.097363	1.610532
0.097461	1.612048
0.097559	1.615022
0.097656	1.618017
0.097754	1.620897
0.097852	1.623931
0.097949	1.626911
0.098047	1.630504
0.098145	1.634451
0.098242	1.640243
0.098340	1.647566
0.098437	1.660720
0.098535	1.683082
0.098633	1.662542
0.098730	1.642881
0.098828	1.647263
0.098926	1.629917
0.099023	1.627416
0.099121	1.617187
0.099219	1.600909
0.099316	1.570746
0.099414	1.566138
0.099512	1.572080
0.099609	1.568621
0.099707	1.576292
0.099805	1.584931
0.099902	1.598957
0.100000	1.606270
0.100098	1.613130
0.100195	1.617477
0.100293	1.621934
0.100391	1.625925
0.100488	1.629628
0.100586	1.634274
0.100684	1.637888
0.100781	1.643506
0.100879	1.646267
0.100977	1.654139
0.101074	1.658236
0.101172	1.666004
0.101270	1.644432
0.101367	1.626326
0.101465	1.628497
0.101562	1.613541
0.101660	1.601746
0.101758	1.580609
0.101855	1.565077
0.101953	1.548876
0.102051	1.549829
0.102148	1.567090
0.102246	1.575850
0.102344	1.595883
0.102441	1.608841
0.102539	1.614006
0.102637	1.619915
0.102734	1.623813
0.102832	1.628875
0.102930	1.633447
0.103027	1.639638
0.103125	1.646898
0.103223	1.653669
0.103320	1.657888
0.103418	1.657565
0.103516	1.651572
0.103613	1.643627
0.103711	1.635165
0.103809	1.629664
0.103906	1.628499
0.104004	1.627016
0.104102	1.625031
0.104199	1.626694
0.104297	1.630151
0.104395	1.625470
0.104492	1.619655
0.104590	1.616784
0.104687	1.616847
0.104785	1.617433
0.104883	1.619965
0.104980	1.621482
0.105078	1.625308
0.105176	1.627264
0.105273	1.632741
0.105371	1.635606
0.105469	1.643392
0.105566	1.645796
0.105664	1.653254
0.105762	1.650320
0.105859	1.659897
0.105957	1.644033
0.106055	1.657987
0.106152	1.653624
0.106250	1.618124
0.106348	1.604961
0.106445	1.578340
0.106543	1.613331
0.106641	1.614992
0.106738	1.619443
0.106836	1.618125
0.106934	1.620527
0.107031	1.618960
0.107129	1.620678
0.107227	1.620551
0.107324	1.623232
0.107422	1.624489
0.107520	1.627312
0.107617	1.629765
0.107715	1.633255
0.107812	1.636973
0.107910	1.641586
0.108008	1.640782
0.108105	1.617944
0.108203	1.630037
0.108301	1.666035
0.108398	1.629020
0.108496	1.619527
0.108594	1.627256
0.108691	1.614090
0.108789	1.615649
0.108887	1.595616
0.108984	1.584768
0.109082	1.586392
0.109180	1.581002
0.109277	1.574379
0.109375	1.532172
0.109473	1.534420
0.109570	1.572454
0.109668	1.606217
0.109766	1.612323
0.109863	1.620752
0.109961	1.625924
0.110059	1.632573
0.110156	1.637889
0.110254	1.643845
0.110352	1.648058
0.110449	1.651078
0.110547	1.652336
0.110645	1.654901
0.110742	1.654842
0.110840	1.647063
0.110937	1.639027
0.111035	1.633679
0.111133	1.632312
0.111230	1.626095
0.111328	1.619424
0.111426	1.617803
0.111523	1.617095
0.111621	1.617249
0.111719	1.617835
0.111816	1.618597
0.111914	1.619666
0.112012	1.621219
0.112109	1.622961
0.112207	1.624989
0.112305	1.627258
0.112402	1.629988
0.112500	1.633344
0.112598	1.637446
0.112695	1.642949
0.112793	1.650569
0.112891	1.663008
0.112988	1.677183
0.113086	1.686840
0.113184	1.674537
0.113281	1.652495
0.113379	1.629598
0.113477	1.610151
0.113574	1.593818
0.113672	1.577324
0.113770	1.564417
0.113867	1.559687
0.113965	1.555160
0.114062	1.558864
0.114160	1.558206
0.114258	1.569150
0.114355	1.590786
0.114453	1.602787
0.114551	1.610292
0.114648	1.615365
0.114746	1.619306
0.114844	1.623311
0.114941	1.626359
0.115039	1.631129
0.115137	1.634711
0.115234	1.642831
0.115332	1.649910
0.115430	1.670227
0.115527	1.668306
0.115625	1.647891
0.115723	1.649497
0.115820	1.638385
0.115918	1.615071
0.116016	1.597050
0.116113	1.582791
0.116211	1.572091
0.116309	1.562076
0.116406	1.558735
0.116504	1.543654
0.116602	1.530855
0.116699	1.538352
0.116797	1.535344
0.116895	1.528666
0.116992	1.572319
0.117090	1.599285
0.117187	1.610424
0.117285	1.619341
0.117383	1.625323
0.117480	1.631279
0.117578	1.635305
0.117676	1.638658
0.117773	1.639971
0.117871	1.641536
0.117969	1.642087
0.118066	1.646917
0.118164	1.650158
0.118262	1.642263
0.118359	1.637023
0.118457	1.631595
0.118555	1.628443
0.118652	1.621888
0.118750	1.619713
0.118848	1.618272
0.118945	1.619133
0.119043	1.618702
0.119141	1.620322
0.119238	1.620594
0.119336	1.623819
0.119434	1.624821
0.119531	1.629326
0.119629	1.630210
0.119727	1.636017
0.119824	1.636300
0.119922	1.643303
0.120020	1.641500
0.120117	1.650057
0.120215	1.642097
0.120312	1.654940
0.120410	1.611275
0.120508	1.599683
0.120605	1.655307
0.120703	1.631088
0.120801	1.620632
0.120898	1.621074
0.120996	1.620817
0.121094	1.597309
0.121191	1.610998
0.121289	1.609697
0.121387	1.617194
0.121484	1.618279
0.121582	1.623203
0.121680	1.623798
0.121777	1.626058
0.121875	1.627841
0.121973	1.630298
0.122070	1.634380
0.122168	1.636884
0.122266	1.642427
0.122363	1.642048
0.122461	1.645162
0.122559	1.609618
0.122656	1.612794
0.122754	1.632660
0.122852	1.624383
0.122949	1.625648
0.123047	1.604278
0.123145	1.599493
0.123242	1.590672
0.123340	1.584618
0.123437	1.570087
0.123535	1.556700
0.123633	1.562069
0.123730	1.580688
0.123828	1.592037
0.123926	1.602272
0.124023	1.609359
0.124121	1.615911
0.124219	1.621473
0.124316	1.626634
0.124414	1.632702
0.124512	1.638291
0.124609	1.645633
0.124707	1.650002
0.124805	1.655616
0.124902	1.652757
0.125000	1.649534
0.125098	1.630960
0.125195	1.628308
0.125293	1.625480
0.125391	1.619483
0.125488	1.624976
0.125586	1.622833
0.125684	1.622392
0.125781	1.626540
0.125879	1.625394
0.125977	1.627945
0.126074	1.630298
0.126172	1.630731
0.126270	1.617258
0.126367	1.611785
0.126465	1.618092
0.126562	1.619959
0.126660	1.625984
0.126758	1.628711
0.126855	1.635235
0.126953	1.639486
0.127051	1.649720
0.127148	1.656713
0.127246	1.665121
0.127344	1.658324
0.127441	1.651793
0.127539	1.638169
0.127637	1.627180
0.127734	1.624205
0.127832	1.616891
0.127930	1.617081
0.128027	1.606139
0.128125	1.607355
0.128223	1.609201
0.128320	1.612670
0.128418	1.615519
0.128516	1.618063
0.128613	1.618815
0.128711	1.619314
0.128809	1.620920
0.128906	1.622685
0.129004	1.625805
0.129102	1.628475
0.129199	1.633706
0.129297	1.638056
0.129395	1.654411
0.129492	1.657727
0.129590	1.640306
0.129687	1.642776
0.129785	1.658312
0.129883	1.633808
0.129980	1.625900
0.130078	1.618699
0.130176	1.612875
0.130273	1.620557
0.130371	1.616701
0.130469	1.623895
0.130566	1.623273
0.130664	1.621171
0.130762	1.618364
0.130859	1.617434
0.130957	1.617547
0.131055	1.618837
0.131152	1.620959
0.131250	1.622964
0.131348	1.626086
0.131445	1.628181
0.131543	1.632586
0.131641	1.635131
0.131738	1.641526
0.131836	1.645082
0.131934	1.654722
0.132031	1.655627
0.132129	1.656260
0.132227	1.610662
0.132324	1.622519
0.132422	1.640669
0.132520	1.621498
0.132617	1.600992
0.132715	1.583034
0.132812	1.581570
0.132910	1.580919
0.133008	1.592291
0.133105	1.602610
0.133203	1.605549
0.133301	1.602136
0.133398	1.609027
0.133496	1.612145
0.133594	1.617716
0.133691	1.620497
0.133789	1.625002
0.133887	1.627884
0.133984	1.632240
0.134082	1.635681
0.134180	1.640139
0.134277	1.643903
0.134375	1.648213
0.134473	1.652952
0.134570	1.660763
0.134668	1.660445
0.134766	1.656820
0.134863	1.656399
0.134961	1.646592
0.135059	1.634025
0.135156	1.619950
0.135254	1.605891
0.135352	1.606990
0.135449	1.608800
0.135547	1.611753
0.135645	1.612190
0.135742	1.613793
0.135840	1.615607
0.135937	1.618226
0.136035	1.620757
0.136133	1.623754
0.136230	1.626787
0.136328	1.630662
0.136426	1.635033
0.136523	1.640920
0.136621	1.649118
0.136719	1.660869
0.136816	1.675087
0.136914	1.675004
0.137012	1.665324
0.137109	1.649323
0.137207	1.636121
0.137305	1.627947
0.137402	1.612806
0.137500	1.613905
0.137598	1.619741
0.137695	1.611023
0.137793	1.609066
0.137891	1.607881
0.137988	1.598188
0.138086	1.585866
0.138184	1.595616
0.138281	1.608257
0.138379	1.612373
0.138477	1.617058
0.138574	1.620577
0.138672	1.624320
0.138770	1.628171
0.138867	1.631838
0.138965	1.636519
0.139062	1.640465
0.139160	1.645544
0.139258	1.650716
0.139355	1.683730
0.139453	1.677820
0.139551	1.656074
0.139648	1.636121
0.139746	1.622844
0.139844	1.616618
0.139941	1.608085
0.140039	1.604966
0.140137	1.604175
0.140234	1.609422
0.140332	1.617816
0.140430	1.615215
0.140527	1.610721
0.140625	1.611131
0.140723	1.613740
0.140820	1.617245
0.140918	1.621385
0.141016	1.624878
0.141113	1.629654
0.141211	1.633476
0.141309	1.639811
0.141406	1.646393
0.141504	1.654611
0.141602	1.648013
0.141699	1.654409
0.141797	1.643622
0.141895	1.644771
0.141992	1.624095
0.142090	1.606884
0.142187	1.627810
0.142285	1.617822
0.142383	1.631163
0.142480	1.621126
0.142578	1.623553
0.142676	1.615829
0.142773	1.612210
0.142871	1.606007
0.142969	1.608069
0.143066	1.613432
0.143164	1.616407
0.143262	1.620208
0.143359	1.623510
0.143457	1.628123
0.143555	1.632316
0.143652	1.638033
0.143750	1.643303
0.143848	1.650536
0.143945	1.655104
0.144043	1.656715
0.144141	1.633683
0.144238	1.635285
0.144336	1.637930
0.144434	1.615921
0.144531	1.621030
0.144629	1.610569
0.144727	1.596838
0.144824	1.613519
0.144922	1.614748
0.145020	1.605992
0.145117	1.607283
0.145215	1.608788
0.145312	1.611965
0.145410	1.615083
0.145508	1.618146
0.145605	1.621458
0.145703	1.624292
0.145801	1.628095
0.145898	1.630989
0.145996	1.636015
0.146094	1.639864
0.146191	1.647704
0.146289	1.654328
0.146387	1.664182
0.146484	1.656135
0.146582	1.660452
0.146680	1.638668
0.146777	1.635286
0.146875	1.633253
0.146973	1.604046
0.147070	1.600419
0.147168	1.594187
0.147266	1.607559
0.147363	1.622303
0.147461	1.630585
0.147559	1.618262
0.147656	1.615167
0.147754	1.614606
0.147852	1.617137
0.147949	1.618358
0.148047	1.621686
0.148145	1.623721
0.148242	1.627676
0.148340	1.630232
0.148437	1.634648
0.148535	1.636937
0.148633	1.640776
0.148730	1.640573
0.148828	1.641666
0.148926	1.640470
0.149023	1.652823
0.149121	1.648570
0.149219	1.643736
0.149316	1.639140
0.149414	1.617578
0.149512	1.602375
0.149609	1.582487
0.149707	1.582485
0.149805	1.590370
0.149902	1.590603
0.150000	1.594939
0.150098	1.601600
0.150195	1.607675
0.150293	1.612971
0.150391	1.617525
0.150488	1.621418
0.150586	1.625474
0.150684	1.629324
0.150781	1.634084
0.150879	1.639005
0.150977	1.645144
0.151074	1.651313
0.151172	1.650256
0.151270	1.631719
0.151367	1.628895
0.151465	1.641906
0.151562	1.649669
0.151660	1.627113
0.151758	1.622449
0.151855	1.621529
0.151953	1.610004
0.152051	1.604151
0.152148	1.591732
0.152246	1.599474
0.152344	1.597967
0.152441	1.601188
0.152539	1.604190
0.152637	1.609772
0.152734	1.613423
0.152832	1.618380
0.152930	1.621831
0.153027	1.626512
0.153125	1.630124
0.153223	1.635445
0.153320	1.640691
0.153418	1.648641
0.153516	1.658526
0.153613	1.662418
0.153711	1.643555
0.153809	1.624811
0.153906	1.642880
0.154004	1.632381
0.154102	1.624125
0.154199	1.610165
0.154297	1.600458
0.154395	1.609490
0.154492	1.613868
0.154590	1.614552
0.154687	1.615339
0.154785	1.614918
0.154883	1.614254
0.154980	1.616681
0.155078	1.618150
0.155176	1.621113
0.155273	1.622966
0.155371	1.626392
0.155469	1.628358
0.155566	1.632475
0.155664	1.634700
0.155762	1.640027
0.155859	1.642618
0.155957	1.650494
0.156055	1.648728
0.156152	1.663789
0.156250	1.645812
0.156348	1.634132
0.156445	1.605401
0.156543	1.584299
0.156641	1.595404
0.156738	1.582820
0.156836	1.578143
0.156934	1.573960
0.157031	1.566294
0.157129	1.532811
0.157227	1.495077
0.157324	1.477201
0.157422	1.498149
0.157520	1.537811
0.157617	1.566066
0.157715	1.592015
0.157812	1.605574
0.157910	1.617940
0.158008	1.624833
0.158105	1.634997
0.158203	1.640882
0.158301	1.650879
0.158398	1.646642
0.158496	1.647082
0.158594	1.653633
0.158691	1.656323
0.158789	1.654170
0.158887	1.614825
0.158984	1.613869
0.159082	1.619401
0.159180	1.615450
0.159277	1.614120
0.159375	1.621329
0.159473	1.606699
0.159570	1.602655
0.159668	1.612254
0.159766	1.610786
0.159863	1.611203
0.159961	1.615873
0.160059	1.619655
0.160156	1.622651
0.160254	1.626158
0.160352	1.629406
0.160449	1.634127
0.160547	1.638903
0.160645	1.645959
0.160742	1.651253
0.160840	1.655649
0.160937	1.649699
0.161035	1.654558
0.161133	1.670012
0.161230	1.632571
0.161328	1.615410
0.161426	1.616000
0.161523	1.604323
0.161621	1.589887
0.161719	1.568745
0.161816	1.559054
0.161914	1.563092
0.162012	1.558623
0.162109	1.579840
0.162207	1.597601
0.162305	1.605799
0.162402	1.612359
0.162500	1.616589
0.162598	1.621398
0.162695	1.624515
0.162793	1.629284
0.162891	1.632441
0.162988	1.638498
0.163086	1.642960
0.163184	1.653090
0.163281	1.661480
0.163379	1.667582
0.163477	1.637149
0.163574	1.622034
0.163672	1.614766
0.163770	1.603911
0.163867	1.594899
0.163965	1.572356
0.164062	1.562154
0.164160	1.546950
0.164258	1.542191
0.164355	1.546271
0.164453	1.560378
0.164551	1.574214
0.164648	1.590038
0.164746	1.601340
0.164844	1.609943
0.164941	1.615655
0.165039	1.620959
0.165137	1.625474
0.165234	1.629503
0.165332	1.633939
0.165430	1.637429
0.165527	1.641804
0.165625	1.644790
0.165723	1.649854
0.165820	1.651828
0.165918	1.651195
0.166016	1.650312
0.166113	1.643518
0.166211	1.622708
0.166309	1.619181
0.166406	1.629114
0.166504	1.622300
0.166602	1.630221
0.166699	1.625240
0.166797	1.623852
0.166895	1.620772
0.166992	1.618946
0.167090	1.618129
0.167187	1.620238
0.167285	1.622760
0.167383	1.626057
0.167480	1.629260
0.167578	1.632629
0.167676	1.636293
0.167773	1.639576
0.167871	1.643994
0.167969	1.647637
0.168066	1.654702
0.168164	1.658622
0.168262	1.662830
0.168359	1.654837
0.168457	1.638263
0.168555	1.633407
0.168652	1.622759
0.168750	1.622136
0.168848	1.635300
0.168945	1.636588
0.169043	1.608028
0.169141	1.615715
0.169238	1.619288
0.169336	1.620033
0.169434	1.619986
0.169531	1.621806
0.169629	1.623463
0.169727	1.626394
0.169824	1.629052
0.169922	1.633008
0.170020	1.636853
0.170117	1.643027
0.170215	1.649423
0.170312	1.659645
0.170410	1.659649
0.170508	1.644173
0.170605	1.642005
0.170703	1.646464
0.170801	1.637533
0.170898	1.634333
0.170996	1.628564
0.171094	1.631019
0.171191	1.630374
0.171289	1.638285
0.171387	1.626553
0.171484	1.597083
0.171582	1.607737
0.171680	1.614317
0.171777	1.616910
0.171875	1.619743
0.171973	1.622882
0.172070	1.626633
0.172168	1.629767
0.172266	1.634046
0.172363	1.637516
0.172461	1.643465
0.172559	1.648065
0.172656	1.657326
0.172754	1.649012
0.172852	1.636474
0.172949	1.640267
0.173047	1.631108
0.173145	1.623707
0.173242	1.615884
0.173340	1.608388
0.173437	1.597008
0.173535	1.602468
0.173633	1.608769
0.173730	1.615356
0.173828	1.617630
0.173926	1.618412
0.174023	1.617944
0.174121	1.619611
0.174219	1.620225
0.174316	1.622930
0.174414	1.623611
0.174512	1.626854
0.174609	1.627392
0.174707	1.631589
0.174805	1.632175
0.174902	1.638825
0.175000	1.640235
0.175098	1.642124
0.175195	1.597018
0.175293	1.629593
0.175391	1.629753
0.175488	1.562779
0.175586	1.571188
0.175684	1.586638
0.175781	1.594871
0.175879	1.591349
0.175977	1.582159
0.176074	1.565167
0.176172	1.552734
0.176270	1.539406
0.176367	1.541644
0.176465	1.554990
0.176562	1.571430
0.176660	1.588802
0.176758	1.600735
0.176855	1.610379
0.176953	1.617608
0.177051	1.623666
0.177148	1.628911
0.177246	1.633645
0.177344	1.638443
0.177441	1.643189
0.177539	1.648273
0.177637	1.651291
0.177734	1.648808
0.177832	1.640118
0.177930	1.641273
0.178027	1.623103
0.178125	1.615137
0.178223	1.622808
0.178320	1.613346
0.178418	1.607596
0.178516	1.609499
0.178613	1.612164
0.178711	1.613636
0.178809	1.615862
0.178906	1.617902
0.179004	1.620459
0.179102	1.622984
0.179199	1.626015
0.179297	1.629055
0.179395	1.632692
0.179492	1.636264
0.179590	1.640048
0.179687	1.643119
0.179785	1.644993
0.179883	1.646197
0.179980	1.648793
0.180078	1.655285
0.180176	1.652153
0.180273	1.642381
0.180371	1.646848
0.180469	1.638971
0.180566	1.614932
0.180664	1.590327
0.180762	1.601047
0.180859	1.621963
0.180957	1.621480
0.181055	1.620451
0.181152	1.616140
0.181250	1.617462
0.181348	1.618367
0.181445	1.621431
0.181543	1.624019
0.181641	1.627401
0.181738	1.630949
0.181836	1.635096
0.181934	1.641054
0.182031	1.650582
0.182129	1.685863
0.182227	1.699050
0.182324	1.671745
0.182422	1.650367
0.182520	1.621166
0.182617	1.630604
0.182715	1.617335
0.182812	1.599151
0.182910	1.613591
0.183008	1.629493
0.183105	1.627780
0.183203	1.622799
0.183301	1.628045
0.183398	1.630440
0.183496	1.627297
0.183594	1.620920
0.183691	1.618620
0.183789	1.617462
0.183887	1.619893
0.183984	1.622823
0.184082	1.627613
0.184180	1.631688
0.184277	1.637351
0.184375	1.641775
0.184473	1.648515
0.184570	1.655190
0.184668	1.670094
0.184766	1.673851
0.184863	1.650697
0.184961	1.635060
0.185059	1.625897
0.185156	1.620019
0.185254	1.618779
0.185352	1.621861
0.185449	1.614804
0.185547	1.618311
0.185645	1.619510
0.185742	1.620514
0.185840	1.620855
0.185937	1.621892
0.186035	1.622784
0.186133	1.624642
0.186230	1.626611
0.186328	1.629340
0.186426	1.632092
0.186523	1.635457
0.186621	1.638947
0.186719	1.643099
0.186816	1.647017
0.186914	1.651405
0.187012	1.653759
0.187109	1.655037
0.187207	1.652678
0.187305	1.649970
0.187402	1.646386
0.187500	1.643346
0.187598	1.635533
0.187695	1.628054
0.187793	1.631228
0.187891	1.634431
0.187988	1.625205
0.188086	1.608436
0.188184	1.611637
0.188281	1.615718
0.188379	1.619153
0.188477	1.621839
0.188574	1.624627
0.188672	1.627240
0.188770	1.629997
0.188867	1.633358
0.188965	1.636393
0.189062	1.640662
0.189160	1.644013
0.189258	1.648229
0.189355	1.649693
0.189453	1.653348
0.189551	1.636429
0.189648	1.650385
0.189746	1.652670
0.189844	1.634960
0.189941	1.629421
0.190039	1.605022
0.190137	1.608614
0.190234	1.614611
0.190332	1.611111
0.190430	1.611445
0.190527	1.613473
0.190625	1.615843
0.190723	1.618085
0.190820	1.620432
0.190918	1.622610
0.191016	1.625057
0.191113	1.627540
0.191211	1.630588
0.191309	1.633721
0.191406	1.638197
0.191504	1.643030
0.191602	1.650890
0.191699	1.660574
0.191797	1.669742
0.191895	1.638640
0.191992	1.623309
0.192090	1.638337
0.192187	1.633970
0.192285	1.612125
0.192383	1.600213
0.192480	1.597019
0.192578	1.577743
0.192676	1.558831
0.192773	1.545553
0.192871	1.550367
0.192969	1.563624
0.193066	1.573927
0.193164	1.593057
0.193262	1.605755
0.193359	1.613010
0.193457	1.619264
0.193555	1.623704
0.193652	1.628799
0.193750	1.632793
0.193848	1.638797
0.193945	1.643398
0.194043	1.652232
0.194141	1.660934
0.194238	1.675268
0.194336	1.666782
0.194434	1.655975
0.194531	1.638925
0.194629	1.623995
0.194727	1.615242
0.194824	1.604425
0.194922	1.594427
0.195020	1.585593
0.195117	1.577053
0.195215	1.564823
0.195312	1.557886
0.195410	1.562317
0.195508	1.583028
0.195605	1.609124
0.195703	1.613448
0.195801	1.609715
0.195898	1.617041
0.195996	1.622134
0.196094	1.627403
0.196191	1.631487
0.196289	1.635702
0.196387	1.639044
0.196484	1.642195
0.196582	1.644660
0.196680	1.646576
0.196777	1.647286
0.196875	1.644883
0.196973	1.642562
0.197070	1.643052
0.197168	1.640023
0.197266	1.633878
0.197363	1.627725
0.197461	1.624955
0.197559	1.623336
0.197656	1.622313
0.197754	1.622209
0.197852	1.622671
0.197949	1.623358
0.198047	1.624494
0.198145	1.625892
0.198242	1.627527
0.198340	1.629551
0.198437	1.631760
0.198535	1.634616
0.198633	1.637671
0.198730	1.641459
0.198828	1.645929
0.198926	1.651563
0.199023	1.657270
0.199121	1.663392
0.199219	1.665454
0.199316	1.653402
0.199414	1.632498
0.199512	1.631585
0.199609	1.637682
0.199707	1.643632
0.199805	1.633011
0.199902	1.616203
0.200000	1.613891
0.200098	1.609677
0.200195	1.609096
0.200293	1.610719
0.200391	1.614953
0.200488	1.617715
0.200586	1.621850
0.200684	1.624172
0.200781	1.628157
0.200879	1.630398
0.200977	1.635191
0.201074	1.637378
0.201172	1.642283
0.201270	1.629269
0.201367	1.616058
0.201465	1.586151
0.201562	1.595103
0.201660	1.615737
0.201758	1.623706
0.201855	1.608144
0.201953	1.594408
0.202051	1.588289
0.202148	1.579018
0.202246	1.570440
0.202344	1.556558
0.202441	1.540394
0.202539	1.538098
0.202637	1.552597
0.202734	1.587442
0.202832	1.603147
0.202930	1.604393
0.203027	1.614544
0.203125	1.618862
0.203223	1.625171
0.203320	1.629098
0.203418	1.635152
0.203516	1.640624
0.203613	1.648734
0.203711	1.656040
0.203809	1.661430
0.203906	1.659194
0.204004	1.654221
0.204102	1.644211
0.204199	1.638398
0.204297	1.637494
0.204395	1.633629
0.204492	1.623953
0.204590	1.634949
0.204687	1.624505
0.204785	1.608713
0.204883	1.612197
0.204980	1.611948
0.205078	1.615455
0.205176	1.615874
0.205273	1.619857
0.205371	1.621274
0.205469	1.626213
0.205566	1.628272
0.205664	1.634503
0.205762	1.637458
0.205859	1.647185
0.205957	1.653312
0.206055	1.681397
0.206152	1.653788
0.206250	1.634915
0.206348	1.670064
0.206445	1.651320
0.206543	1.626004
0.206641	1.619211
0.206738	1.611613
0.206836	1.601758
0.206934	1.595594
0.207031	1.596339
0.207129	1.602357
0.207227	1.605917
0.207324	1.609536
0.207422	1.611989
0.207520	1.615051
0.207617	1.617788
0.207715	1.620701
0.207812	1.623569
0.207910	1.626295
0.208008	1.629725
0.208105	1.632871
0.208203	1.638164
0.208301	1.643455
0.208398	1.654607
0.208496	1.670430
0.208594	1.689134
0.208691	1.697483
0.208789	1.676414
0.208887	1.646967
0.208984	1.626380
0.209082	1.623600
0.209180	1.606067
0.209277	1.588621
0.209375	1.585913
0.209473	1.588556
0.209570	1.597425
0.209668	1.604600
0.209766	1.614740
0.209863	1.612296
0.209961	1.610200
0.210059	1.615985
0.210156	1.619303
0.210254	1.623935
0.210352	1.627120
0.210449	1.631865
0.210547	1.635719
0.210645	1.641178
0.210742	1.645796
0.210840	1.651066
0.210937	1.653378
0.211035	1.655355
0.211133	1.656935
0.211230	1.661298
0.211328	1.650788
0.211426	1.639998
0.211523	1.628012
0.211621	1.629247
0.211719	1.622005
0.211816	1.615805
0.211914	1.590929
0.212012	1.590384
0.212109	1.613305
0.212207	1.613135
0.212305	1.616257
0.212402	1.616622
0.212500	1.620028
0.212598	1.621288
0.212695	1.625013
0.212793	1.627221
0.212891	1.631635
0.212988	1.635451
0.213086	1.642128
0.213184	1.647384
0.213281	1.660881
0.213379	1.661597
0.213477	1.648600
0.213574	1.627564
0.213672	1.622077
0.213770	1.611060
0.213867	1.596188
0.213965	1.589297
0.214062	1.581965
0.214160	1.572115
0.214258	1.558484
0.214355	1.539205
0.214453	1.512820
0.214551	1.517417
0.214648	1.536484
0.214746	1.564676
0.214844	1.591854
0.214941	1.606651
0.215039	1.616383
0.215137	1.623485
0.215234	1.629632
0.215332	1.635332
0.215430	1.640532
0.215527	1.644832
0.215625	1.647147
0.215723	1.651238
0.215820	1.644765
0.215918	1.623839
0.216016	1.623898
0.216113	1.636701
0.216211	1.610684
0.216309	1.623636
0.216406	1.621933
0.216504	1.615906
0.216602	1.621941
0.216699	1.625873
0.216797	1.625800
0.216895	1.619912
0.216992	1.614838
0.217090	1.612700
0.217187	1.616667
0.217285	1.619466
0.217383	1.623987
0.217480	1.627322
0.217578	1.631493
0.217676	1.635025
0.217773	1.639090
0.217871	1.642443
0.217969	1.645775
0.218066	1.649196
0.218164	1.654662
0.218262	1.662628
0.218359	1.667085
0.218457	1.647254
0.218555	1.632834
0.218652	1.626144
0.218750	1.618729
0.218848	1.613534
0.218945	1.610725
0.219043	1.614290
0.219141	1.616780
0.219238	1.614810
0.219336	1.613518
0.219434	1.615234
0.219531	1.616700
0.219629	1.619859
0.219727	1.621425
0.219824	1.625215
0.219922	1.626969
0.220020	1.632218
0.220117	1.634917
0.220215	1.644348
0.220312	1.648514
0.220410	1.652763
0.220508	1.634167
0.220605	1.639733
0.220703	1.646297
0.220801	1.613433
0.220898	1.614865
0.220996	1.616674
0.221094	1.611663
0.221191	1.594237
0.221289	1.576959
0.221387	1.563132
0.221484	1.567419
0.221582	1.542202
0.221680	1.560718
0.221777	1.558470
0.221875	1.588945
0.221973	1.609334
0.222070	1.601578
0.222168	1.612793
0.222266	1.617326
0.222363	1.627400
0.222461	1.630309
0.222559	1.640477
0.222656	1.643397
0.222754	1.659465
0.222852	1.649369
0.222949	1.640916
0.223047	1.629417
0.223145	1.634952
0.223242	1.640438
0.223340	1.625113
0.223437	1.621019
0.223535	1.615172
0.223633	1.610871
0.223730	1.608304
0.223828	1.606621
0.223926	1.603362
0.224023	1.627057
0.224121	1.647889
0.224219	1.634899
0.224316	1.620664
0.224414	1.616025
0.224512	1.617264
0.224609	1.621304
0.224707	1.626678
0.224805	1.632858
0.224902	1.641176
0.225000	1.647020
0.225098	1.655687
0.225195	1.667874
0.225293	1.657936
0.225391	1.647459
0.225488	1.637925
0.225586	1.628937
0.225684	1.624690
0.225781	1.621951
0.225879	1.628621
0.225977	1.617331
0.226074	1.610804
0.226172	1.616587
0.226270	1.614962
0.226367	1.616539
0.226465	1.616824
0.226562	1.618470
0.226660	1.619473
0.226758	1.621725
0.226855	1.623229
0.226953	1.626368
0.227051	1.628853
0.227148	1.633455
0.227246	1.637253
0.227344	1.643943
0.227441	1.649901
0.227539	1.660735
0.227637	1.667107
0.227734	1.671218
0.227832	1.654085
0.227930	1.630585
0.228027	1.633770
0.228125	1.625437
0.228223	1.622996
0.228320	1.608274
0.228418	1.600354
0.228516	1.608046
0.228613	1.610347
0.228711	1.616473
0.228809	1.617730
0.228906	1.605250
0.229004	1.607315
0.229102	1.612737
0.229199	1.616958
0.229297	1.621199
0.229395	1.625179
0.229492	1.628863
0.229590	1.633094
0.229687	1.637087
0.229785	1.641823
0.229883	1.645362
0.229980	1.647670
0.230078	1.645616
0.230176	1.636697
0.230273	1.623206
0.230371	1.630695
0.230469	1.638517
0.230566	1.611289
0.230664	1.600604
0.230762	1.591270
0.230859	1.587977
0.230957	1.592781
0.231055	1.586931
0.231152	1.587981
0.231250	1.598835
0.231348	1.605164
0.231445	1.609297
0.231543	1.612753
0.231641	1.617553
0.231738	1.621907
0.231836	1.626850
0.231934	1.631246
0.232031	1.636682
0.232129	1.642080
0.232227	1.648857
0.232324	1.654441
0.232422	1.653361
0.232520	1.646412
0.232617	1.648584
0.232715	1.641535
0.232812	1.636758
0.232910	1.635984
0.233008	1.647952
0.233105	1.648793
0.233203	1.631048
0.233301	1.628563
0.233398	1.626417
0.233496	1.624503
0.233594	1.622624
0.233691	1.620893
0.233789	1.618539
0.233887	1.618727
0.233984	1.620593
0.234082	1.623353
0.234180	1.626440
0.234277	1.629670
0.234375	1.633591
0.234473	1.637278
0.234570	1.641760
0.234668	1.644353
0.234766	1.647144
0.234863	1.640185
0.234961	1.638612
0.235059	1.625392
0.235156	1.592182
0.235254	1.583528
0.235352	1.587436
0.235449	1.588744
0.235547	1.587212
0.235645	1.587124
0.235742	1.592643
0.235840	1.598061
0.235937	1.586614
0.236035	1.595762
0.236133	1.603659
0.236230	1.606900
0.236328	1.609904
0.236426	1.613141
0.236523	1.616210
0.236621	1.619989
0.236719	1.623196
0.236816	1.627340
0.236914	1.630159
0.237012	1.635224
0.237109	1.636866
0.237207	1.645798
0.237305	1.625740
0.237402	1.604259
0.237500	1.643724
0.237598	1.616803
0.237695	1.624498
0.237793	1.624562
0.237891	1.620796
0.237988	1.607733
0.238086	1.591404
0.238184	1.602430
0.238281	1.595934
0.238379	1.605886
0.238477	1.609065
0.238574	1.611636
0.238672	1.610336
0.238770	1.612555
0.238867	1.615951
0.238965	1.619634
0.239062	1.624879
0.239160	1.628176
0.239258	1.634733
0.239355	1.636937
0.239453	1.645303
0.239551	1.644619
0.239648	1.666029
0.239746	1.657324
0.239844	1.617369
0.239941	1.632333
0.240039	1.632541
0.240137	1.621650
0.240234	1.615692
0.240332	1.620478
0.240430	1.594003
0.240527	1.583662
0.240625	1.583885
0.240723	1.595937
0.240820	1.603269
0.240918	1.606567
0.241016	1.609553
0.241113	1.613509
0.241211	1.618034
0.241309	1.622222
0.241406	1.626730
0.241504	1.630780
0.241602	1.635353
0.241699	1.639504
0.241797	1.644471
0.241895	1.649094
0.241992	1.653525
0.242090	1.652312
0.242187	1.656077
0.242285	1.637716
0.242383	1.614986
0.242480	1.603883
0.242578	1.615614
0.242676	1.616559
0.242773	1.615187
0.242871	1.612526
0.242969	1.602231
0.243066	1.608098
0.243164	1.610423
0.243262	1.614474
0.243359	1.616825
0.243457	1.619503
0.243555	1.621833
0.243652	1.623621
0.243750	1.626593
0.243848	1.628169
0.243945	1.632527
0.244043	1.634126
0.244141	1.640619
0.244238	1.637334
0.244336	1.622252
0.244434	1.618777
0.244531	1.637335
0.244629	1.657162
0.244727	1.640759
0.244824	1.631361
0.244922	1.619201
0.245020	1.614333
0.245117	1.600401
0.245215	1.589165
0.245312	1.571047
0.245410	1.560729
0.245508	1.565948
0.245605	1.584217
0.245703	1.593825
0.245801	1.603548
0.245898	1.608335
0.245996	1.615186
0.246094	1.617432
0.246191	1.623628
0.246289	1.624258
0.246387	1.631397
0.246484	1.626829
0.246582	1.633277
0.246680	1.653692
0.246777	1.656612
0.246875	1.633229
0.246973	1.610631
0.247070	1.638432
0.247168	1.647127
0.247266	1.648891
0.247363	1.635054
0.247461	1.620172
0.247559	1.597735
0.247656	1.608760
0.247754	1.612201
0.247852	1.627129
0.247949	1.627805
0.248047	1.615054
0.248145	1.618517
0.248242	1.616484
0.248340	1.614220
0.248437	1.617995
0.248535	1.619909
0.248633	1.624121
0.248730	1.627544
0.248828	1.632138
0.248926	1.637036
0.249023	1.642994
0.249121	1.650680
0.249219	1.655580
0.249316	1.653257
0.249414	1.645915
0.249512	1.645188
0.249609	1.641882
0.249707	1.626128
0.249805	1.614116
0.249902	1.599779
0.250000	1.586949
0.250098	1.578428
0.250195	1.581453
0.250293	1.566389
0.250391	1.542669
0.250488	1.543438
0.250586	1.585993
0.250684	1.598565
0.250781	1.608199
0.250879	1.615058
0.250977	1.621732
0.251074	1.627304
0.251172	1.633375
0.251270	1.638333
0.251367	1.641693
0.251465	1.641688
0.251562	1.640515
0.251660	1.638926
0.251758	1.636770
0.251855	1.633872
0.251953	1.633099
0.252051	1.633418
0.252148	1.632328
0.252246	1.630669
0.252344	1.629421
0.252441	1.627899
0.252539	1.626116
0.252637	1.624499
0.252734	1.623528
0.252832	1.623679
0.252930	1.624620
0.253027	1.626052
0.253125	1.627536
0.253223	1.629835
0.253320	1.631901
0.253418	1.634617
0.253516	1.637234
0.253613	1.640750
0.253711	1.643557
0.253809	1.649684
0.253906	1.652039
0.254004	1.632072
0.254102	1.590924
0.254199	1.626911
0.254297	1.632873
0.254395	1.617994
0.254492	1.596793
0.254590	1.595899
0.254687	1.598731
0.254785	1.598928
0.254883	1.603678
0.254980	1.603642
0.255078	1.606416
0.255176	1.609245
0.255273	1.613912
0.255371	1.618038
0.255469	1.622691
0.255566	1.626888
0.255664	1.631242
0.255762	1.635697
0.255859	1.639847
0.255957	1.644157
0.256055	1.648678
0.256152	1.645500
0.256250	1.627061
0.256348	1.621349
0.256445	1.647197
0.256543	1.636358
0.256641	1.623800
0.256738	1.621043
0.256836	1.607470
0.256934	1.600619
0.257031	1.605408
0.257129	1.605575
0.257227	1.609430
0.257324	1.611447
0.257422	1.614795
0.257520	1.616806
0.257617	1.619721
0.257715	1.621655
0.257812	1.624280
0.257910	1.626197
0.258008	1.629147
0.258105	1.631649
0.258203	1.635475
0.258301	1.639276
0.258398	1.645008
0.258496	1.649473
0.258594	1.646222
0.258691	1.630911
0.258789	1.631280
0.258887	1.628646
0.258984	1.612459
0.259082	1.598282
0.259180	1.593617
0.259277	1.592906
0.259375	1.591363
0.259473	1.595644
0.259570	1.595445
0.259668	1.577735
0.259766	1.558435
0.259863	1.564721
0.259961	1.596650
0.260059	1.602795
0.260156	1.610810
0.260254	1.616285
0.260352	1.623099
0.260449	1.628023
0.260547	1.634145
0.260645	1.639079
0.260742	1.644880
0.260840	1.648961
0.260937	1.655413
0.261035	1.662276
0.261133	1.654587
0.261230	1.650973
0.261328	1.643920
0.261426	1.622849
0.261523	1.616706
0.261621	1.614787
0.261719	1.611823
0.261816	1.615649
0.261914	1.612031
0.262012	1.607116
0.262109	1.607128
0.262207	1.609354
0.262305	1.612722
0.262402	1.615643
0.262500	1.619078
0.262598	1.621846
0.262695	1.625529
0.262793	1.628471
0.262891	1.632893
0.262988	1.636663
0.263086	1.642307
0.263184	1.646575
0.263281	1.651248
0.263379	1.650441
0.263477	1.643566
0.263574	1.605442
0.263672	1.583753
0.263770	1.582156
0.263867	1.541118
0.263965	1.562171
0.264062	1.580217
0.264160	1.572999
0.264258	1.567257
0.264355	1.577133
0.264453	1.593280
0.264551	1.602035
0.264648	1.606302
0.264746	1.610801
0.264844	1.614325
0.264941	1.618080
0.265039	1.620448
0.265137	1.623857
0.265234	1.626007
0.265332	1.629778
0.265430	1.631898
0.265527	1.636956
0.265625	1.639683
0.265723	1.644954
0.265820	1.641532
0.265918	1.629703
0.266016	1.606351
0.266113	1.631353
0.266211	1.632638
0.266309	1.619536
0.266406	1.615726
0.266504	1.580037
0.266602	1.572101
0.266699	1.565798
0.266797	1.566192
0.266895	1.563889
0.266992	1.570065
0.267090	1.585188
0.267187	1.606398
0.267285	1.604144
0.267383	1.606683
0.267480	1.611103
0.267578	1.617166
0.267676	1.621778
0.267773	1.626968
0.267871	1.631185
0.267969	1.635890
0.268066	1.639907
0.268164	1.644204
0.268262	1.647150
0.268359	1.656791
0.268457	1.668896
0.268555	1.641642
0.268652	1.666821
0.268750	1.644220
0.268848	1.628591
0.268945	1.606319
0.269043	1.597078
0.269141	1.591041
0.269238	1.598557
0.269336	1.574312
0.269434	1.564602
0.269531	1.603567
0.269629	1.598752
0.269727	1.599656
0.269824	1.600742
0.269922	1.610460
0.270020	1.615710
0.270117	1.623427
0.270215	1.627549
0.270312	1.633775
0.270410	1.637810
0.270508	1.644118
0.270605	1.649197
0.270703	1.656948
0.270801	1.657168
0.270898	1.641273
0.270996	1.603917
0.271094	1.583879
0.271191	1.576038
0.271289	1.568587
0.271387	1.562404
0.271484	1.575557
0.271582	1.579621
0.271680	1.549057
0.271777	1.557012
0.271875	1.551469
0.271973	1.567985
0.272070	1.594441
0.272168	1.606685
0.272266	1.613815
0.272363	1.620828
0.272461	1.624938
0.272559	1.630488
0.272656	1.634838
0.272754	1.641624
0.272852	1.647817
0.272949	1.657242
0.273047	1.656545
0.273145	1.642319
0.273242	1.632884
0.273340	1.625060
0.273437	1.624817
0.273535	1.629183
0.273633	1.632496
0.273730	1.633625
0.273828	1.631962
0.273926	1.625020
0.274023	1.621326
0.274121	1.620293
0.274219	1.619306
0.274316	1.619615
0.274414	1.621095
0.274512	1.623105
0.274609	1.625100
0.274707	1.627259
0.274805	1.629444
0.274902	1.632117
0.275000	1.635259
0.275098	1.639006
0.275195	1.643194
0.275293	1.647888
0.275391	1.652572
0.275488	1.656805
0.275586	1.666445
0.275684	1.665876
0.275781	1.629236
0.275879	1.618643
0.275977	1.630510
0.276074	1.612000
0.276172	1.618395
0.276270	1.608257
0.276367	1.613769
0.276465	1.615342
0.276562	1.608515
0.276660	1.620183
0.276758	1.616487
0.276855	1.616432
0.276953	1.619292
0.277051	1.622302
0.277148	1.625853
0.277246	1.629290
0.277344	1.633222
0.277441	1.636758
0.277539	1.640599
0.277637	1.643294
0.277734	1.647365
0.277832	1.646457
0.277930	1.642390
0.278027	1.659521
0.278125	1.646319
0.278223	1.598327
0.278320	1.579528
0.278418	1.594939
0.278516	1.586376
0.278613	1.589845
0.278711	1.598563
0.278809	1.598311
0.278906	1.604832
0.279004	1.608407
0.279102	1.612237
0.279199	1.615277
0.279297	1.618445
0.279395	1.621295
0.279492	1.624243
0.279590	1.627122
0.279687	1.630205
0.279785	1.633507
0.279883	1.637336
0.279980	1.641906
0.280078	1.647736
0.280176	1.655404
0.280273	1.662336
0.280371	1.663889
0.280469	1.647612
0.280566	1.644963
0.280664	1.643579
0.280762	1.625758
0.280859	1.623636
0.280957	1.622126
0.281055	1.621578
0.281152	1.617234
0.281250	1.615481
0.281348	1.620969
0.281445	1.627552
0.281543	1.627561
0.281641	1.625388
0.281738	1.623452
0.281836	1.622581
0.281934	1.622447
0.282031	1.625137
0.282129	1.628344
0.282227	1.633786
0.282324	1.639636
0.282422	1.650494
0.282520	1.658945
0.282617	1.663495
0.282715	1.662913
0.282812	1.650234
0.282910	1.637718
0.283008	1.615060
0.283105	1.600572
0.283203	1.594802
0.283301	1.592690
0.283398	1.587673
0.283496	1.600411
0.283594	1.599579
0.283691	1.607606
0.283789	1.601226
0.283887	1.604009
0.283984	1.611264
0.284082	1.616559
0.284180	1.618655
0.284277	1.622599
0.284375	1.623420
0.284473	1.627876
0.284570	1.628217
0.284668	1.633952
0.284766	1.633903
0.284863	1.642526
0.284961	1.643625
0.285059	1.655936
0.285156	1.609852
0.285254	1.641940
0.285352	1.616927
0.285449	1.605706
0.285547	1.622774
0.285645	1.611496
0.285742	1.603955
0.285840	1.590959
0.285937	1.592045
0.286035	1.584986
0.286133	1.590952
0.286230	1.592444
0.286328	1.599971
0.286426	1.606256
0.286523	1.613242
0.286621	1.617612
0.286719	1.623128
0.286816	1.627308
0.286914	1.632499
0.287012	1.637175
0.287109	1.642439
0.287207	1.647792
0.287305	1.654521
0.287402	1.663927
0.287500	1.638760
0.287598	1.602517
0.287695	1.613253
0.287793	1.639177
0.287891	1.633280
0.287988	1.626168
0.288086	1.626180
0.288184	1.623898
0.288281	1.619059
0.288379	1.613277
0.288477	1.612151
0.288574	1.613105
0.288672	1.615396
0.288770	1.617561
0.288867	1.620296
0.288965	1.622324
0.289062	1.625267
0.289160	1.627516
0.289258	1.631082
0.289355	1.633887
0.289453	1.638918
0.289551	1.642531
0.289648	1.649099
0.289746	1.652895
0.289844	1.663236
0.289941	1.652641
0.290039	1.638812
0.290137	1.641650
0.290234	1.641518
0.290332	1.642431
0.290430	1.629523
0.290527	1.614423
0.290625	1.608637
0.290723	1.610554
0.290820	1.595375
0.290918	1.605040
0.291016	1.611998
0.291113	1.614523
0.291211	1.617479
0.291309	1.620210
0.291406	1.624282
0.291504	1.627356
0.291602	1.632237
0.291699	1.635367
0.291797	1.641351
0.291895	1.644862
0.291992	1.654475
0.292090	1.660461
0.292187	1.682632
0.292285	1.667890
0.292383	1.631318
0.292480	1.628172
0.292578	1.627543
0.292676	1.607786
0.292773	1.574970
0.292871	1.591633
0.292969	1.603554
0.293066	1.612025
0.293164	1.610244
0.293262	1.611801
0.293359	1.610280
0.293457	1.613503
0.293555	1.616348
0.293652	1.619730
0.293750	1.623100
0.293848	1.626165
0.293945	1.629956
0.294043	1.632767
0.294141	1.637274
0.294238	1.639371
0.294336	1.643648
0.294434	1.642942
0.294531	1.646886
0.294629	1.639795
0.294727	1.648124
0.294824	1.644123
0.294922	1.623593
0.295020	1.614334
0.295117	1.583821
0.295215	1.582130
0.295312	1.557940
0.295410	1.583258
0.295508	1.590526
0.295605	1.593012
0.295703	1.600034
0.295801	1.603276
0.295898	1.608830
0.295996	1.612783
0.296094	1.618250
0.296191	1.621579
0.296289	1.626643
0.296387	1.629639
0.296484	1.635472
0.296582	1.638094
0.296680	1.647665
0.296777	1.639215
0.296875	1.621359
0.296973	1.640907
0.297070	1.636633
0.297168	1.669083
0.297266	1.640299
0.297363	1.618906
0.297461	1.613613
0.297559	1.615443
0.297656	1.616949
0.297754	1.618534
0.297852	1.619289
0.297949	1.615468
0.298047	1.614000
0.298145	1.616432
0.298242	1.618170
0.298340	1.620972
0.298437	1.623012
0.298535	1.626299
0.298633	1.628959
0.298730	1.633109
0.298828	1.636302
0.298926	1.641818
0.299023	1.646023
0.299121	1.654547
0.299219	1.652322
0.299316	1.643352
0.299414	1.638593
0.299512	1.643647
0.299609	1.641154
0.299707	1.628669
0.299805	1.633488
0.299902	1.627802
0.300000	1.627137
0.300098	1.625343
0.300195	1.625020
0.300293	1.623586
0.300391	1.623867
0.300488	1.623144
0.300586	1.624008
0.300684	1.624148
0.300781	1.625806
0.300879	1.626797
0.300977	1.629535
0.301074	1.631472
0.301172	1.635697
0.301270	1.638504
0.301367	1.643192
0.301465	1.642400
0.301562	1.642412
0.301660	1.630950
0.301758	1.631745
0.301855	1.644599
0.301953	1.621623
0.302051	1.610414
0.302148	1.618325
0.302246	1.631393
0.302344	1.604166
0.302441	1.602695
0.302539	1.593956
0.302637	1.591323
0.302734	1.584031
0.302832	1.589523
0.302930	1.602106
0.303027	1.601685
0.303125	1.608601
0.303223	1.614976
0.303320	1.619761
0.303418	1.623788
0.303516	1.628005
0.303613	1.631675
0.303711	1.636732
0.303809	1.640508
0.303906	1.649130
0.304004	1.648597
0.304102	1.644442
0.304199	1.691130
0.304297	1.677284
0.304395	1.627843
0.304492	1.602121
0.304590	1.578937
0.304687	1.582979
0.304785	1.577950
0.304883	1.568169
0.304980	1.564074
0.305078	1.568264
0.305176	1.553626
0.305273	1.534755
0.305371	1.539133
0.305469	1.556624
0.305566	1.579494
0.305664	1.599270
0.305762	1.608278
0.305859	1.616612
0.305957	1.621945
0.306055	1.628054
0.306152	1.632745
0.306250	1.638632
0.306348	1.644411
0.306445	1.652177
0.306543	1.659158
0.306641	1.662706
0.306738	1.656933
0.306836	1.645905
0.306934	1.628120
0.307031	1.625882
0.307129	1.637786
0.307227	1.647028
0.307324	1.642629
0.307422	1.632417
0.307520	1.615399
0.307617	1.616991
0.307715	1.618565
0.307812	1.616861
0.307910	1.616371
0.308008	1.617272
0.308105	1.619375
0.308203	1.622131
0.308301	1.624785
0.308398	1.627646
0.308496	1.630276
0.308594	1.632769
0.308691	1.635247
0.308789	1.637256
0.308887	1.638840
0.308984	1.639013
0.309082	1.637497
0.309180	1.635742
0.309277	1.634831
0.309375	1.634537
0.309473	1.634741
0.309570	1.634978
0.309668	1.635021
0.309766	1.634614
0.309863	1.633440
0.309961	1.631999
0.310059	1.630487
0.310156	1.629365
0.310254	1.628848
0.310352	1.628535
0.310449	1.629019
0.310547	1.629575
0.310645	1.630853
0.310742	1.632469
0.310840	1.634941
0.310937	1.638870
0.311035	1.644873
0.311133	1.659226
0.311230	1.686943
0.311328	1.668800
0.311426	1.663522
0.311523	1.641529
0.311621	1.613642
0.311719	1.589365
0.311816	1.569324
0.311914	1.585472
0.312012	1.603204
0.312109	1.598042
0.312207	1.591207
0.312305	1.589911
0.312402	1.595114
0.312500	1.598872
0.312598	1.606417
0.312695	1.616827
0.312793	1.618481
0.312891	1.620131
0.312988	1.622445
0.313086	1.626506
0.313184	1.630329
0.313281	1.635637
0.313379	1.641228
0.313477	1.650024
0.313574	1.658005
0.313672	1.647949
0.313770	1.616310
0.313867	1.615835
0.313965	1.616054
0.314062	1.624263
0.314160	1.621813
0.314258	1.600298
0.314355	1.586463
0.314453	1.572075
0.314551	1.559259
0.314648	1.547700
0.314746	1.536002
0.314844	1.520610
0.314941	1.502743
0.315039	1.525077
0.315137	1.534607
0.315234	1.570978
0.315332	1.608513
0.315430	1.614611
0.315527	1.625175
0.315625	1.628852
0.315723	1.636610
0.315820	1.640273
0.315918	1.646593
0.316016	1.646843
0.316113	1.647230
0.316211	1.643956
0.316309	1.643559
0.316406	1.636249
0.316504	1.631959
0.316602	1.604561
0.316699	1.625928
0.316797	1.637739
0.316895	1.629020
0.316992	1.622310
0.317090	1.617831
0.317187	1.620050
0.317285	1.619759
0.317383	1.621035
0.317480	1.621997
0.317578	1.623847
0.317676	1.626042
0.317773	1.628175
0.317871	1.631361
0.317969	1.633596
0.318066	1.638169
0.318164	1.641291
0.318262	1.649421
0.318359	1.653709
0.318457	1.662893
0.318555	1.653448
0.318652	1.652534
0.318750	1.673581
0.318848	1.635475
0.318945	1.613097
0.319043	1.607742
0.319141	1.608847
0.319238	1.595188
0.319336	1.599241
0.319434	1.605877
0.319531	1.609468
0.319629	1.612872
0.319727	1.615753
0.319824	1.618100
0.319922	1.620782
0.320020	1.622995
0.320117	1.625800
0.320215	1.628605
0.320312	1.631842
0.320410	1.635628
0.320508	1.640351
0.320605	1.647590
0.320703	1.672206
0.320801	1.661810
0.320898	1.644544
0.320996	1.626316
0.321094	1.633641
0.321191	1.624879
0.321289	1.618217
0.321387	1.603967
0.321484	1.603033
0.321582	1.602621
0.321680	1.575800
0.321777	1.561370
0.321875	1.540646
0.321973	1.533985
0.322070	1.558210
0.322168	1.588398
0.322266	1.602490
0.322363	1.606170
0.322461	1.614026
0.322559	1.619863
0.322656	1.626430
0.322754	1.632056
0.322852	1.637757
0.322949	1.642675
0.323047	1.646386
0.323145	1.647354
0.323242	1.644681
0.323340	1.640633
0.323437	1.637407
0.323535	1.638531
0.323633	1.631118
0.323730	1.636129
0.323828	1.629582
0.323926	1.602240
0.324023	1.602826
0.324121	1.603143
0.324219	1.606298
0.324316	1.620990
0.324414	1.619938
0.324512	1.614426
0.324609	1.615990
0.324707	1.619416
0.324805	1.622316
0.324902	1.625623
0.325000	1.627925
0.325098	1.631500
0.325195	1.633958
0.325293	1.638610
0.325391	1.642412
0.325488	1.649665
0.325586	1.655529
0.325684	1.666019
0.325781	1.652811
0.325879	1.632132
0.325977	1.615405
0.326074	1.600145
0.326172	1.599660
0.326270	1.600743
0.326367	1.593818
0.326465	1.571332
0.326562	1.544031
0.326660	1.558553
0.326758	1.586583
0.326855	1.598714
0.326953	1.610054
0.327051	1.612097
0.327148	1.618500
0.327246	1.621366
0.327344	1.626870
0.327441	1.630412
0.327539	1.636848
0.327637	1.643383
0.327734	1.652274
0.327832	1.654631
0.327930	1.659159
0.328027	1.658353
0.328125	1.655144
0.328223	1.645271
0.328320	1.650502
0.328418	1.651995
0.328516	1.615687
0.328613	1.595945
0.328711	1.579863
0.328809	1.562707
0.328906	1.515165
0.329004	1.541532
0.329102	1.576377
0.329199	1.574580
0.329297	1.594063
0.329395	1.602123
0.329492	1.611909
0.329590	1.615931
0.329687	1.621186
0.329785	1.624683
0.329883	1.629161
0.329980	1.634209
0.330078	1.640140
0.330176	1.646623
0.330273	1.623785
0.330371	1.631927
0.330469	1.655197
0.330566	1.648041
0.330664	1.643055
0.330762	1.632620
0.330859	1.637493
0.330957	1.636863
0.331055	1.639877
0.331152	1.639637
0.331250	1.623110
0.331348	1.623331
0.331445	1.614688
0.331543	1.608735
0.331641	1.608601
0.331738	1.611288
0.331836	1.615228
0.331934	1.619638
0.332031	1.624073
0.332129	1.628549
0.332227	1.633141
0.332324	1.637926
0.332422	1.643257
0.332520	1.650461
0.332617	1.656858
0.332715	1.658145
0.332812	1.668535
0.332910	1.661994
0.333008	1.634604
0.333105	1.617609
0.333203	1.619129
0.333301	1.613071
0.333398	1.601551
0.333496	1.602466
0.333594	1.602158
0.333691	1.604022
0.333789	1.609074
0.333887	1.612517
0.333984	1.615035
0.334082	1.617284
0.334180	1.619976
0.334277	1.623156
0.334375	1.626598
0.334473	1.630505
0.334570	1.634685
0.334668	1.639847
0.334766	1.645376
0.334863	1.654297
0.334961	1.639061
0.335059	1.636269
0.335156	1.654602
0.335254	1.663663
0.335352	1.642462
0.335449	1.624729
0.335547	1.614308
0.335645	1.608127
0.335742	1.599399
0.335840	1.593583
0.335937	1.596097
0.336035	1.601791
0.336133	1.606708
0.336230	1.610810
0.336328	1.614488
0.336426	1.617713
0.336523	1.620946
0.336621	1.623963
0.336719	1.627860
0.336816	1.631306
0.336914	1.636224
0.337012	1.640917
0.337109	1.647605
0.337207	1.651991
0.337305	1.660375
0.337402	1.663969
0.337500	1.657927
0.337598	1.650842
0.337695	1.651761
0.337793	1.628944
0.337891	1.615072
0.337988	1.619457
0.338086	1.620833
0.338184	1.602552
0.338281	1.595829
0.338379	1.601523
0.338477	1.604335
0.338574	1.608118
0.338672	1.610739
0.338770	1.614754
0.338867	1.618103
0.338965	1.622365
0.339062	1.626324
0.339160	1.630994
0.339258	1.636025
0.339355	1.641838
0.339453	1.648525
0.339551	1.656999
0.339648	1.665916
0.339746	1.659127
0.339844	1.651878
0.339941	1.645326
0.340039	1.632185
0.340137	1.623229
0.340234	1.604515
0.340332	1.596117
0.340430	1.570462
0.340527	1.535822
0.340625	1.585015
0.340723	1.610552
0.340820	1.622814
0.340918	1.622286
0.341016	1.614584
0.341113	1.617411
0.341211	1.618043
0.341309	1.620833
0.341406	1.622835
0.341504	1.626068
0.341602	1.628936
0.341699	1.632750
0.341797	1.636973
0.341895	1.642655
0.341992	1.651855
0.342090	1.665860
0.342187	1.670325
0.342285	1.647697
0.342383	1.653934
0.342480	1.628196
0.342578	1.619576
0.342676	1.643596
0.342773	1.639026
0.342871	1.631105
0.342969	1.609059
0.343066	1.601640
0.343164	1.585278
0.343262	1.606827
0.343359	1.608362
0.343457	1.606636
0.343555	1.610915
0.343652	1.613476
0.343750	1.616799
0.343848	1.620073
0.343945	1.623389
0.344043	1.627406
0.344141	1.630958
0.344238	1.636413
0.344336	1.641162
0.344434	1.649131
0.344531	1.655125
0.344629	1.663068
0.344727	1.638662
0.344824	1.624393
0.344922	1.629549
0.345020	1.619557
0.345117	1.597273
0.345215	1.595517
0.345312	1.601707
0.345410	1.610936
0.345508	1.611495
0.345605	1.595941
0.345703	1.586960
0.345801	1.604207
0.345898	1.613974
0.345996	1.616778
0.346094	1.621866
0.346191	1.619502
0.346289	1.623194
0.346387	1.626580
0.346484	1.630834
0.346582	1.634266
0.346680	1.639177
0.346777	1.643840
0.346875	1.649650
0.346973	1.653882
0.347070	1.656847
0.347168	1.654667
0.347266	1.649160
0.347363	1.638271
0.347461	1.626274
0.347559	1.614506
0.347656	1.591229
0.347754	1.573894
0.347852	1.602116
0.347949	1.616237
0.348047	1.610006
0.348145	1.601477
0.348242	1.607981
0.348340	1.613861
0.348437	1.615023
0.348535	1.618770
0.348633	1.621077
0.348730	1.624359
0.348828	1.627027
0.348926	1.629852
0.349023	1.632561
0.349121	1.634790
0.349219	1.638053
0.349316	1.641853
0.349414	1.650584
0.349512	1.637591
0.349609	1.614104
0.349707	1.629141
0.349805	1.653683
0.349902	1.630204
0.350000	1.629014
0.350098	1.612409
0.350195	1.604944
0.350293	1.602480
0.350391	1.604544
0.350488	1.610086
0.350586	1.611150
0.350684	1.613744
0.350781	1.615953
0.350879	1.619032
0.350977	1.621806
0.351074	1.624909
0.351172	1.628353
0.351270	1.631970
0.351367	1.637119
0.351465	1.643341
0.351562	1.654282
0.351660	1.663433
0.351758	1.678845
0.351855	1.690313
0.351953	1.667444
0.352051	1.644940
0.352148	1.624418
0.352246	1.620272
0.352344	1.611643
0.352441	1.601765
0.352539	1.587538
0.352637	1.574533
0.352734	1.549850
0.352832	1.537739
0.352930	1.540685
0.353027	1.571320
0.353125	1.609848
0.353223	1.609679
0.353320	1.615665
0.353418	1.619516
0.353516	1.625246
0.353613	1.629194
0.353711	1.635289
0.353809	1.641386
0.353906	1.649528
0.354004	1.656346
0.354102	1.658467
0.354199	1.652741
0.354297	1.651900
0.354395	1.638844
0.354492	1.630906
0.354590	1.626152
0.354687	1.612802
0.354785	1.622887
0.354883	1.632487
0.354980	1.632986
0.355078	1.626996
0.355176	1.614402
0.355273	1.610942
0.355371	1.611177
0.355469	1.613066
0.355566	1.616027
0.355664	1.618603
0.355762	1.622413
0.355859	1.624611
0.355957	1.629366
0.356055	1.631506
0.356152	1.638077
0.356250	1.640311
0.356348	1.648707
0.356445	1.635363
0.356543	1.651563
0.356641	1.671650
0.356738	1.639584
0.356836	1.636888
0.356934	1.618297
0.357031	1.617618
0.357129	1.606847
0.357227	1.596188
0.357324	1.586882
0.357422	1.582419
0.357520	1.581135
0.357617	1.591614
0.357715	1.597347
0.357812	1.604139
0.357910	1.609588
0.358008	1.614577
0.358105	1.618251
0.358203	1.622099
0.358301	1.625391
0.358398	1.629327
0.358496	1.633649
0.358594	1.637900
0.358691	1.640077
0.358789	1.645154
0.358887	1.650796
0.358984	1.653961
0.359082	1.648382
0.359180	1.639576
0.359277	1.634428
0.359375	1.630522
0.359473	1.632594
0.359570	1.644155
0.359668	1.633684
0.359766	1.637460
0.359863	1.629515
0.359961	1.620387
0.360059	1.614704
0.360156	1.612670
0.360254	1.613904
0.360352	1.616899
0.360449	1.619428
0.360547	1.622098
0.360645	1.624978
0.360742	1.628734
0.360840	1.633051
0.360937	1.638845
0.361035	1.645989
0.361133	1.656456
0.361230	1.669833
0.361328	1.669386
0.361426	1.638766
0.361523	1.627893
0.361621	1.639210
0.361719	1.633103
0.361816	1.635077
0.361914	1.628373
0.362012	1.625465
0.362109	1.621251
0.362207	1.610618
0.362305	1.610631
0.362402	1.613137
0.362500	1.617822
0.362598	1.621409
0.362695	1.617426
0.362793	1.615164
0.362891	1.617479
0.362988	1.619324
0.363086	1.623436
0.363184	1.626029
0.363281	1.630912
0.363379	1.633818
0.363477	1.640396
0.363574	1.644763
0.363672	1.652005
0.363770	1.645317
0.363867	1.665362
0.363965	1.648987
0.364062	1.609187
0.364160	1.610175
0.364258	1.611369
0.364355	1.594082
0.364453	1.588980
0.364551	1.592924
0.364648	1.579255
0.364746	1.551348
0.364844	1.566883
0.364941	1.561072
0.365039	1.531973
0.365137	1.556575
0.365234	1.591477
0.365332	1.608233
0.365430	1.617310
0.365527	1.623460
0.365625	1.628791
0.365723	1.632572
0.365820	1.637128
0.365918	1.638984
0.366016	1.642446
0.366113	1.638827
0.366211	1.646054
0.366309	1.652897
0.366406	1.651589
0.366504	1.650589
0.366602	1.644970
0.366699	1.641627
0.366797	1.629770
0.366895	1.624749
0.366992	1.625243
0.367090	1.625273
0.367187	1.620666
0.367285	1.620579
0.367383	1.619973
0.367480	1.621017
0.367578	1.622838
0.367676	1.625173
0.367773	1.628292
0.367871	1.630968
0.367969	1.635063
0.368066	1.638119
0.368164	1.643382
0.368262	1.645529
0.368359	1.649910
0.368457	1.639612
0.368555	1.625721
0.368652	1.642535
0.368750	1.637671
0.368848	1.655792
0.368945	1.647440
0.369043	1.628829
0.369141	1.581247
0.369238	1.565024
0.369336	1.599511
0.369434	1.607751
0.369531	1.617651
0.369629	1.617036
0.369727	1.615775
0.369824	1.615438
0.369922	1.616603
0.370020	1.619517
0.370117	1.623223
0.370215	1.628106
0.370312	1.632907
0.370410	1.640026
0.370508	1.648884
0.370605	1.656519
0.370703	1.638855
0.370801	1.630895
0.370898	1.634758
0.370996	1.631065
0.371094	1.616910
0.371191	1.583347
0.371289	1.564641
0.371387	1.580825
0.371484	1.576780
0.371582	1.579973
0.371680	1.563678
0.371777	1.576541
0.371875	1.605350
0.371973	1.600907
0.372070	1.604710
0.372168	1.607363
0.372266	1.613914
0.372363	1.616978
0.372461	1.622349
0.372559	1.625050
0.372656	1.629888
0.372754	1.632735
0.372852	1.638178
0.372949	1.641893
0.373047	1.649084
0.373145	1.653984
0.373242	1.645359
0.373340	1.631444
0.373437	1.641751
0.373535	1.637727
0.373633	1.611422
0.373730	1.599706
0.373828	1.589028
0.373926	1.576265
0.374023	1.566132
0.374121	1.562200
0.374219	1.553449
0.374316	1.547857
0.374414	1.567751
0.374512	1.594316
0.374609	1.597812
0.374707	1.605381
0.374805	1.609657
0.374902	1.616365
0.375000	1.620792
0.375098	1.626803
0.375195	1.631530
0.375293	1.638296
0.375391	1.644489
0.375488	1.652806
0.375586	1.652970
0.375684	1.649564
0.375781	1.645514
0.375879	1.641494
0.375977	1.638311
0.376074	1.635674
0.376172	1.627744
0.376270	1.624134
0.376367	1.616116
0.376465	1.616128
0.376562	1.621347
0.376660	1.625682
0.376758	1.624693
0.376855	1.623205
0.376953	1.624761
0.377051	1.626039
0.377148	1.627664
0.377246	1.627919
0.377344	1.628937
0.377441	1.630133
0.377539	1.632844
0.377637	1.635560
0.377734	1.639304
0.377832	1.642701
0.377930	1.646716
0.378027	1.648786
0.378125	1.651244
0.378223	1.648226
0.378320	1.647819
0.378418	1.641615
0.378516	1.641666
0.378613	1.620752
0.378711	1.616122
0.378809	1.623510
0.378906	1.628648
0.379004	1.632491
0.379102	1.628072
0.379199	1.624139
0.379297	1.620412
0.379395	1.619114
0.379492	1.619689
0.379590	1.621013
0.379687	1.623210
0.379785	1.625045
0.379883	1.628219
0.379980	1.630437
0.380078	1.634820
0.380176	1.637309
0.380273	1.642784
0.380371	1.645684
0.380469	1.651562
0.380566	1.619954
0.380664	1.621780
0.380762	1.639816
0.380859	1.617641
0.380957	1.611433
0.381055	1.594406
0.381152	1.592283
0.381250	1.565143
0.381348	1.570366
0.381445	1.574538
0.381543	1.576271
0.381641	1.577919
0.381738	1.585296
0.381836	1.590486
0.381934	1.600413
0.382031	1.608613
0.382129	1.615376
0.382227	1.621346
0.382324	1.627093
0.382422	1.632984
0.382520	1.638911
0.382617	1.644697
0.382715	1.649642
0.382812	1.652326
0.382910	1.655000
0.383008	1.661014
0.383105	1.646021
0.383203	1.638097
0.383301	1.639341
0.383398	1.618080
0.383496	1.605480
0.383594	1.589799
0.383691	1.599709
0.383789	1.602968
0.383887	1.612431
0.383984	1.628196
0.384082	1.620555
0.384180	1.609046
0.384277	1.607651
0.384375	1.612385
0.384473	1.614965
0.384570	1.619151
0.384668	1.621744
0.384766	1.626186
0.384863	1.629164
0.384961	1.635234
0.385059	1.640320
0.385156	1.652787
0.385254	1.662060
0.385352	1.673769
0.385449	1.662835
0.385547	1.640212
0.385645	1.648950
0.385742	1.629598
0.385840	1.624163
0.385937	1.606333
0.386035	1.596768
0.386133	1.593050
0.386230	1.589102
0.386328	1.590192
0.386426	1.601378
0.386523	1.607456
0.386621	1.607902
0.386719	1.612649
0.386816	1.616442
0.386914	1.619970
0.387012	1.623143
0.387109	1.626691
0.387207	1.630045
0.387305	1.633757
0.387402	1.637253
0.387500	1.641002
0.387598	1.644315
0.387695	1.647913
0.387793	1.651424
0.387891	1.660651
0.387988	1.666989
0.388086	1.656844
0.388184	1.632217
0.388281	1.605975
0.388379	1.606915
0.388477	1.600433
0.388574	1.603010
0.388672	1.609314
0.388770	1.606617
0.388867	1.605669
0.388965	1.608362
0.389062	1.612927
0.389160	1.616592
0.389258	1.620645
0.389355	1.623865
0.389453	1.627866
0.389551	1.631287
0.389648	1.636355
0.389746	1.641352
0.389844	1.649204
0.389941	1.655853
0.390039	1.662652
0.390137	1.658883
0.390234	1.668270
0.390332	1.661211
0.390430	1.646290
0.390527	1.627674
0.390625	1.620393
0.390723	1.613367
0.390820	1.609914
0.390918	1.606150
0.391016	1.606084
0.391113	1.589119
0.391211	1.585412
0.391309	1.605107
0.391406	1.609334
0.391504	1.614888
0.391602	1.617779
0.391699	1.621149
0.391797	1.624529
0.391895	1.627049
0.391992	1.631854
0.392090	1.632709
0.392187	1.635691
0.392285	1.619571
0.392383	1.633589
0.392480	1.664594
0.392578	1.651472
0.392676	1.654176
0.392773	1.634133
0.392871	1.623079
0.392969	1.616773
0.393066	1.599662
0.393164	1.586702
0.393262	1.583166
0.393359	1.579836
0.393457	1.583342
0.393555	1.592264
0.393652	1.601059
0.393750	1.606793
0.393848	1.611466
0.393945	1.614793
0.394043	1.618245
0.394141	1.621626
0.394238	1.625175
0.394336	1.629100
0.394434	1.633332
0.394531	1.638297
0.394629	1.642760
0.394727	1.644245
0.394824	1.637649
0.394922	1.641228
0.395020	1.631432
0.395117	1.592179
0.395215	1.606412
0.395312	1.616454
0.395410	1.605761
0.395508	1.593975
0.395605	1.584130
0.395703	1.578387
0.395801	1.569628
0.395898	1.568517
0.395996	1.575564
0.396094	1.587578
0.396191	1.599225
0.396289	1.607015
0.396387	1.613112
0.396484	1.617953
0.396582	1.622742
0.396680	1.627440
0.396777	1.632381
0.396875	1.637302
0.396973	1.643089
0.397070	1.649311
0.397168	1.656269
0.397266	1.657281
0.397363	1.650093
0.397461	1.647380
0.397559	1.636785
0.397656	1.631076
0.397754	1.625758
0.397852	1.621050
0.397949	1.620915
0.398047	1.621748
0.398145	1.623193
0.398242	1.625557
0.398340	1.625475
0.398437	1.622002
0.398535	1.620660
0.398633	1.621597
0.398730	1.622403
0.398828	1.624583
0.398926	1.626202
0.399023	1.629418
0.399121	1.631423
0.399219	1.635719
0.399316	1.637440
0.399414	1.642550
0.399512	1.636331
0.399609	1.636931
0.399707	1.647041
0.399805	1.636731
0.399902	1.625003
0.400000	1.605341
0.400098	1.608424
0.400195	1.609458
0.400293	1.602789
0.400391	1.591861
0.400488	1.607877
0.400586	1.626958
0.400684	1.613015
0.400781	1.606891
0.400879	1.610238
0.400977	1.613286
0.401074	1.617022
0.401172	1.620006
0.401270	1.623359
0.401367	1.626308
0.401465	1.629871
0.401562	1.633052
0.401660	1.637072
0.401758	1.640538
0.401855	1.645546
0.401953	1.653015
0.402051	1.660491
0.402148	1.638450
0.402246	1.611067
0.402344	1.577684
0.402441	1.580111
0.402539	1.588171
0.402637	1.572670
0.402734	1.560559
0.402832	1.546214
0.402930	1.538846
0.403027	1.537711
0.403125	1.537060
0.403223	1.539306
0.403320	1.545933
0.403418	1.563381
0.403516	1.590270
0.403613	1.604248
0.403711	1.614110
0.403809	1.620102
0.403906	1.625922
0.404004	1.630568
0.404102	1.635765
0.404199	1.640464
0.404297	1.645503
0.404395	1.649190
0.404492	1.651241
0.404590	1.650945
0.404687	1.648785
0.404785	1.644788
0.404883	1.641267
0.404980	1.635487
0.405078	1.629339
0.405176	1.623801
0.405273	1.620042
0.405371	1.617609
0.405469	1.616886
0.405566	1.616692
0.405664	1.617899
0.405762	1.619368
0.405859	1.621681
0.405957	1.623742
0.406055	1.626681
0.406152	1.629050
0.406250	1.632779
0.406348	1.635810
0.406445	1.641740
0.406543	1.648557
0.406641	1.667340
0.406738	1.672380
0.406836	1.668065
0.406934	1.655390
0.407031	1.642732
0.407129	1.632410
0.407227	1.620397
0.407324	1.612240
0.407422	1.603084
0.407520	1.600829
0.407617	1.590765
0.407715	1.587030
0.407812	1.572922
0.407910	1.576813
0.408008	1.600563
0.408105	1.606332
0.408203	1.614004
0.408301	1.616907
0.408398	1.622357
0.408496	1.624544
0.408594	1.630492
0.408691	1.633209
0.408789	1.641901
0.408887	1.645955
0.408984	1.661395
0.409082	1.662525
0.409180	1.643771
0.409277	1.625132
0.409375	1.628816
0.409473	1.628891
0.409570	1.605461
0.409668	1.589057
0.409766	1.575171
0.409863	1.576116
0.409961	1.572748
0.410059	1.584042
0.410156	1.596627
0.410254	1.600383
0.410352	1.604558
0.410449	1.607989
0.410547	1.612346
0.410645	1.615953
0.410742	1.620220
0.410840	1.623706
0.410937	1.628286
0.411035	1.632565
0.411133	1.639739
0.411230	1.649671
0.411328	1.666742
0.411426	1.665754
0.411523	1.635025
0.411621	1.639616
0.411719	1.646216
0.411816	1.621065
0.411914	1.576798
0.412012	1.591048
0.412109	1.593953
0.412207	1.584853
0.412305	1.570549
0.412402	1.569608
0.412500	1.546207
0.412598	1.547430
0.412695	1.581777
0.412793	1.587204
0.412891	1.600124
0.412988	1.607062
0.413086	1.614718
0.413184	1.619203
0.413281	1.624660
0.413379	1.628557
0.413477	1.633579
0.413574	1.637845
0.413672	1.643546
0.413770	1.649780
0.413867	1.657891
0.413965	1.656928
0.414062	1.646906
0.414160	1.641140
0.414258	1.636977
0.414355	1.632115
0.414453	1.628976
0.414551	1.628950
0.414648	1.629115
0.414746	1.630338
0.414844	1.631440
0.414941	1.621932
0.415039	1.618337
0.415137	1.618627
0.415234	1.618196
0.415332	1.619989
0.415430	1.621787
0.415527	1.624281
0.415625	1.626423
0.415723	1.629272
0.415820	1.631837
0.415918	1.634939
0.416016	1.637764
0.416113	1.641032
0.416211	1.644621
0.416309	1.649392
0.416406	1.658252
0.416504	1.654743
0.416602	1.635145
0.416699	1.616072
0.416797	1.605633
0.416895	1.593263
0.416992	1.579940
0.417090	1.590675
0.417187	1.598125
0.417285	1.596381
0.417383	1.586670
0.417480	1.578351
0.417578	1.598101
0.417676	1.602653
0.417773	1.611221
0.417871	1.616027
0.417969	1.621998
0.418066	1.626301
0.418164	1.631149
0.418262	1.635933
0.418359	1.641037
0.418457	1.648363
0.418555	1.654549
0.418652	1.650417
0.418750	1.644262
0.418848	1.642346
0.418945	1.637060
0.419043	1.627690
0.419141	1.623240
0.419238	1.594221
0.419336	1.591464
0.419434	1.585122
0.419531	1.585351
0.419629	1.589479
0.419727	1.600533
0.419824	1.607564
0.419922	1.612306
0.420020	1.615447
0.420117	1.619342
0.420215	1.622780
0.420312	1.626854
0.420410	1.630673
0.420508	1.635345
0.420605	1.639941
0.420703	1.645002
0.420801	1.649019
0.420898	1.650832
0.420996	1.649221
0.421094	1.645681
0.421191	1.641605
0.421289	1.638544
0.421387	1.638884
0.421484	1.641053
0.421582	1.639843
0.421680	1.635210
0.421777	1.625495
0.421875	1.619181
0.421973	1.616355
0.422070	1.615141
0.422168	1.614597
0.422266	1.616291
0.422363	1.616976
0.422461	1.620018
0.422559	1.621186
0.422656	1.625138
0.422754	1.626188
0.422852	1.631225
0.422949	1.632563
0.423047	1.639425
0.423145	1.641940
0.423242	1.644755
0.423340	1.604764
0.423437	1.639140
0.423535	1.616897
0.423633	1.624803
0.423730	1.637892
0.423828	1.617515
0.423926	1.623398
0.424023	1.606902
0.424121	1.610067
0.424219	1.602414
0.424316	1.582946
0.424414	1.569079
0.424512	1.573872
0.424609	1.574611
0.424707	1.596729
0.424805	1.596802
0.424902	1.603761
0.425000	1.608294
0.425098	1.614924
0.425195	1.618217
0.425293	1.623356
0.425391	1.625842
0.425488	1.630231
0.425586	1.632617
0.425684	1.636763
0.425781	1.639094
0.425879	1.644580
0.425977	1.647762
0.426074	1.645353
0.426172	1.642316
0.426270	1.622496
0.426367	1.644980
0.426465	1.632948
0.426562	1.619317
0.426660	1.609691
0.426758	1.595758
0.426855	1.593656
0.426953	1.592869
0.427051	1.590232
0.427148	1.584817
0.427246	1.618372
0.427344	1.637860
0.427441	1.622399
0.427539	1.617213
0.427637	1.618226
0.427734	1.622825
0.427832	1.627493
0.427930	1.633387
0.428027	1.638970
0.428125	1.647244
0.428223	1.654891
0.428320	1.657664
0.428418	1.660396
0.428516	1.659007
0.428613	1.633717
0.428711	1.615020
0.428809	1.615139
0.428906	1.605163
0.429004	1.592964
0.429102	1.589092
0.429199	1.564750
0.429297	1.563348
0.429395	1.589149
0.429492	1.599526
0.429590	1.609484
0.429687	1.613260
0.429785	1.617471
0.429883	1.619836
0.429980	1.624133
0.430078	1.627088
0.430176	1.631885
0.430273	1.635626
0.430371	1.642222
0.430469	1.647780
0.430566	1.663137
0.430664	1.662987
0.430762	1.652801
0.430859	1.655405
0.430957	1.615820
0.431055	1.635072
0.431152	1.635544
0.431250	1.634113
0.431348	1.621107
0.431445	1.612856
0.431543	1.610639
0.431641	1.595083
0.431738	1.608688
0.431836	1.606781
0.431934	1.611695
0.432031	1.612374
0.432129	1.617510
0.432227	1.619305
0.432324	1.624219
0.432422	1.626258
0.432520	1.631804
0.432617	1.635049
0.432715	1.643025
0.432812	1.649207
0.432910	1.663700
0.433008	1.662376
0.433105	1.651588
0.433203	1.643232
0.433301	1.632688
0.433398	1.648250
0.433496	1.629737
0.433594	1.606870
0.433691	1.609238
0.433789	1.621064
0.433887	1.626717
0.433984	1.611620
0.434082	1.605661
0.434180	1.610956
0.434277	1.607585
0.434375	1.610404
0.434473	1.611993
0.434570	1.616425
0.434668	1.619030
0.434766	1.623093
0.434863	1.626226
0.434961	1.630512
0.435059	1.635300
0.435156	1.642498
0.435254	1.651541
0.435352	1.655835
0.435449	1.662946
0.435547	1.653738
0.435645	1.634103
0.435742	1.636716
0.435840	1.617684
0.435937	1.604193
0.436035	1.602225
0.436133	1.590809
0.436230	1.581202
0.436328	1.572617
0.436426	1.567968
0.436523	1.562487
0.436621	1.566281
0.436719	1.550580
0.436816	1.564448
0.436914	1.595285
0.437012	1.601227
0.437109	1.612418
0.437207	1.617335
0.437305	1.625099
0.437402	1.629446
0.437500	1.637802
0.437598	1.644419
0.437695	1.658015
0.437793	1.663223
0.437891	1.652503
0.437988	1.642008
0.438086	1.637468
0.438184	1.621586
0.438281	1.614982
0.438379	1.621027
0.438477	1.621920
0.438574	1.623466
0.438672	1.629207
0.438770	1.613087
0.438867	1.606555
0.438965	1.608340
0.439062	1.609024
0.439160	1.612996
0.439258	1.615351
0.439355	1.619443
0.439453	1.622204
0.439551	1.625946
0.439648	1.628883
0.439746	1.632530
0.439844	1.635816
0.439941	1.639729
0.440039	1.643129
0.440137	1.646296
0.440234	1.646092
0.440332	1.646940
0.440430	1.630947
0.440527	1.609333
0.440625	1.652345
0.440723	1.627807
0.440820	1.603722
0.440918	1.632006
0.441016	1.628176
0.441113	1.631920
0.441211	1.630965
0.441309	1.624991
0.441406	1.626421
0.441504	1.626573
0.441602	1.613248
0.441699	1.613289
0.441797	1.615361
0.441895	1.619939
0.441992	1.623834
0.442090	1.627953
0.442187	1.632530
0.442285	1.636113
0.442383	1.641763
0.442480	1.644876
0.442578	1.657151
0.442676	1.670792
0.442773	1.666786
0.442871	1.656781
0.442969	1.629780
0.443066	1.622088
0.443164	1.617591
0.443262	1.610109
0.443359	1.612615
0.443457	1.608994
0.443555	1.614782
0.443652	1.619732
0.443750	1.619705
0.443848	1.620581
0.443945	1.620471
0.444043	1.622201
0.444141	1.623600
0.444238	1.625406
0.444336	1.626933
0.444434	1.629553
0.444531	1.633091
0.444629	1.638188
0.444727	1.645268
0.444824	1.655334
0.444922	1.667450
0.445020	1.662582
0.445117	1.650653
0.445215	1.640796
0.445312	1.634083
0.445410	1.624345
0.445508	1.613495
0.445605	1.589762
0.445703	1.593721
0.445801	1.649177
0.445898	1.657913
0.445996	1.630660
0.446094	1.614934
0.446191	1.612485
0.446289	1.612802
0.446387	1.614489
0.446484	1.616990
0.446582	1.619570
0.446680	1.622801
0.446777	1.625431
0.446875	1.629008
0.446973	1.631659
0.447070	1.635909
0.447168	1.638332
0.447266	1.642687
0.447363	1.646732
0.447461	1.668403
0.447559	1.640492
0.447656	1.632110
0.447754	1.643299
0.447852	1.633624
0.447949	1.619373
0.448047	1.596160
0.448145	1.608913
0.448242	1.611512
0.448340	1.610451
0.448437	1.615872
0.448535	1.623780
0.448633	1.626199
0.448730	1.617362
0.448828	1.620122
0.448926	1.620490
0.449023	1.623334
0.449121	1.625774
0.449219	1.629094
0.449316	1.631838
0.449414	1.635137
0.449512	1.638284
0.449609	1.642098
0.449707	1.646670
0.449805	1.653493
0.449902	1.662008
0.450000	1.652651
0.450098	1.652330
0.450195	1.655621
0.450293	1.641499
0.450391	1.623811
0.450488	1.586284
0.450586	1.578264
0.450684	1.589552
0.450781	1.579001
0.450879	1.560228
0.450977	1.553105
0.451074	1.602271
0.451172	1.612854
0.451270	1.619623
0.451367	1.622922
0.451465	1.628295
0.451562	1.631202
0.451660	1.636402
0.451758	1.639641
0.451855	1.645145
0.451953	1.647432
0.452051	1.650096
0.452148	1.648029
0.452246	1.649406
0.452344	1.646514
0.452441	1.654424
0.452539	1.646175
0.452637	1.643462
0.452734	1.635896
0.452832	1.619928
0.452930	1.618712
0.453027	1.611338
0.453125	1.622452
0.453223	1.619602
0.453320	1.619413
0.453418	1.618736
0.453516	1.620888
0.453613	1.622110
0.453711	1.625058
0.453809	1.627672
0.453906	1.631486
0.454004	1.636054
0.454102	1.642529
0.454199	1.652366
0.454297	1.670503
0.454395	1.680165
0.454492	1.659062
0.454590	1.652553
0.454687	1.644588
0.454785	1.631583
0.454883	1.621055
0.454980	1.615844
0.455078	1.612810
0.455176	1.609340
0.455273	1.610526
0.455371	1.612305
0.455469	1.615618
0.455566	1.619043
0.455664	1.622364
0.455762	1.623500
0.455859	1.623889
0.455957	1.624102
0.456055	1.625064
0.456152	1.626722
0.456250	1.628931
0.456348	1.631686
0.456445	1.634250
0.456543	1.637081
0.456641	1.639565
0.456738	1.642996
0.456836	1.647636
0.456934	1.641294
0.457031	1.629831
0.457129	1.643390
0.457227	1.636245
0.457324	1.627448
0.457422	1.623692
0.457520	1.605341
0.457617	1.595484
0.457715	1.584421
0.457812	1.578746
0.457910	1.578460
0.458008	1.577292
0.458105	1.561126
0.458203	1.585059
0.458301	1.624596
0.458398	1.619680
0.458496	1.617942
0.458594	1.619432
0.458691	1.624420
0.458789	1.628379
0.458887	1.634779
0.458984	1.639423
0.459082	1.647114
0.459180	1.651397
0.459277	1.656753
0.459375	1.643229
0.459473	1.634398
0.459570	1.644339
0.459668	1.651986
0.459766	1.632317
0.459863	1.614147
0.459961	1.610450
0.460059	1.605383
0.460156	1.606643
0.460254	1.604085
0.460352	1.607706
0.460449	1.610299
0.460547	1.615122
0.460645	1.617742
0.460742	1.621013
0.460840	1.622932
0.460937	1.625390
0.461035	1.627628
0.461133	1.630415
0.461230	1.633404
0.461328	1.636574
0.461426	1.640528
0.461523	1.644246
0.461621	1.649401
0.461719	1.652589
0.461816	1.657607
0.461914	1.651831
0.462012	1.645938
0.462109	1.635757
0.462207	1.618641
0.462305	1.609660
0.462402	1.612634
0.462500	1.607781
0.462598	1.590567
0.462695	1.576145
0.462793	1.558185
0.462891	1.573539
0.462988	1.587242
0.463086	1.586079
0.463184	1.604536
0.463281	1.612517
0.463379	1.617942
0.463477	1.622645
0.463574	1.627056
0.463672	1.631625
0.463770	1.636384
0.463867	1.641815
0.463965	1.647603
0.464062	1.654167
0.464160	1.656609
0.464258	1.652236
0.464355	1.646060
0.464453	1.640495
0.464551	1.634226
0.464648	1.639308
0.464746	1.635509
0.464844	1.637999
0.464941	1.623134
0.465039	1.613413
0.465137	1.632328
0.465234	1.630824
0.465332	1.617701
0.465430	1.618619
0.465527	1.619266
0.465625	1.621284
0.465723	1.623055
0.465820	1.625981
0.465918	1.628727
0.466016	1.632309
0.466113	1.635535
0.466211	1.639576
0.466309	1.643428
0.466406	1.648786
0.466504	1.654028
0.466602	1.655443
0.466699	1.648902
0.466797	1.640748
0.466895	1.631953
0.466992	1.625246
0.467090	1.618558
0.467187	1.617847
0.467285	1.616761
0.467383	1.620318
0.467480	1.601414
0.467578	1.577116
0.467676	1.589300
0.467773	1.585330
0.467871	1.604332
0.467969	1.612940
0.468066	1.617780
0.468164	1.622901
0.468262	1.627007
0.468359	1.632404
0.468457	1.635977
0.468555	1.642338
0.468652	1.644477
0.468750	1.653549
0.468848	1.647074
0.468945	1.635273
0.469043	1.641202
0.469141	1.625081
0.469238	1.615665
0.469336	1.593216
0.469434	1.596683
0.469531	1.596359
0.469629	1.558626
0.469727	1.564540
0.469824	1.588725
0.469922	1.607971
0.470020	1.613287
0.470117	1.607337
0.470215	1.611545
0.470312	1.614809
0.470410	1.619802
0.470508	1.622647
0.470605	1.626940
0.470703	1.629704
0.470801	1.634410
0.470898	1.637810
0.470996	1.644079
0.471094	1.649073
0.471191	1.656215
0.471289	1.642253
0.471387	1.671928
0.471484	1.675119
0.471582	1.644302
0.471680	1.617978
0.471777	1.592022
0.471875	1.583136
0.471973	1.563705
0.472070	1.550524
0.472168	1.553562
0.472266	1.549032
0.472363	1.523647
0.472461	1.583068
0.472559	1.613957
0.472656	1.605499
0.472754	1.611707
0.472852	1.616429
0.472949	1.621834
0.473047	1.625619
0.473145	1.629687
0.473242	1.633246
0.473340	1.637021
0.473437	1.640929
0.473535	1.645931
0.473633	1.654202
0.473730	1.664332
0.473828	1.659089
0.473926	1.642149
0.474023	1.618628
0.474121	1.619895
0.474219	1.621188
0.474316	1.620851
0.474414	1.599467
0.474512	1.622059
0.474609	1.595594
0.474707	1.554766
0.474805	1.564994
0.474902	1.598679
0.475000	1.613078
0.475098	1.617550
0.475195	1.623145
0.475293	1.625938
0.475391	1.631320
0.475488	1.635209
0.475586	1.642498
0.475684	1.647853
0.475781	1.658457
0.475879	1.663978
0.475977	1.661005
0.476074	1.646014
0.476172	1.621187
0.476270	1.597668
0.476367	1.615662
0.476465	1.621767
0.476562	1.610887
0.476660	1.595443
0.476758	1.576820
0.476855	1.578511
0.476953	1.573199
0.477051	1.572046
0.477148	1.571296
0.477246	1.595570
0.477344	1.607894
0.477441	1.614262
0.477539	1.618920
0.477637	1.622837
0.477734	1.626426
0.477832	1.629801
0.477930	1.633465
0.478027	1.637390
0.478125	1.641634
0.478223	1.644503
0.478320	1.645808
0.478418	1.645158
0.478516	1.635368
0.478613	1.629920
0.478711	1.642362
0.478809	1.634060
0.478906	1.624837
0.479004	1.617536
0.479102	1.626204
0.479199	1.621929
0.479297	1.619807
0.479395	1.618413
0.479492	1.637947
0.479590	1.636390
0.479687	1.610682
0.479785	1.609375
0.479883	1.609438
0.479980	1.615922
0.480078	1.619342
0.480176	1.625288
0.480273	1.629103
0.480371	1.634850
0.480469	1.639997
0.480566	1.647540
0.480664	1.659298
0.480762	1.676671
0.480859	1.671456
0.480957	1.661723
0.481055	1.642224
0.481152	1.626310
0.481250	1.611416
0.481348	1.604471
0.481445	1.585494
0.481543	1.573094
0.481641	1.567213
0.481738	1.548826
0.481836	1.597861
0.481934	1.612529
0.482031	1.593806
0.482129	1.562230
0.482227	1.586599
0.482324	1.610355
0.482422	1.617962
0.482520	1.621055
0.482617	1.625545
0.482715	1.629698
0.482812	1.635225
0.482910	1.641184
0.483008	1.649328
0.483105	1.656090
0.483203	1.663948
0.483301	1.669294
0.483398	1.662441
0.483496	1.651568
0.483594	1.636930
0.483691	1.628290
0.483789	1.618462
0.483887	1.616344
0.483984	1.617756
0.484082	1.615785
0.484180	1.616272
0.484277	1.623489
0.484375	1.620393
0.484473	1.616787
0.484570	1.616317
0.484668	1.618336
0.484766	1.620435
0.484863	1.623801
0.484961	1.625957
0.485059	1.629735
0.485156	1.631896
0.485254	1.636569
0.485352	1.639163
0.485449	1.645663
0.485547	1.643930
0.485645	1.646252
0.485742	1.614921
0.485840	1.595490
0.485937	1.623561
0.486035	1.632219
0.486133	1.621097
0.486230	1.601042
0.486328	1.573864
0.486426	1.586884
0.486523	1.583037
0.486621	1.593113
0.486719	1.609568
0.486816	1.603025
0.486914	1.602740
0.487012	1.606926
0.487109	1.612479
0.487207	1.616784
0.487305	1.621228
0.487402	1.625224
0.487500	1.629500
0.487598	1.635688
0.487695	1.645250
0.487793	1.660136
0.487891	1.647311
0.487988	1.647352
0.488086	1.651195
0.488184	1.665493
0.488281	1.644428
0.488379	1.619848
0.488477	1.605607
0.488574	1.598751
0.488672	1.590226
0.488770	1.585788
0.488867	1.574813
0.488965	1.574957
0.489062	1.584400
0.489160	1.594009
0.489258	1.601184
0.489355	1.607564
0.489453	1.612813
0.489551	1.617340
0.489648	1.621623
0.489746	1.625247
0.489844	1.629380
0.489941	1.632968
0.490039	1.637840
0.490137	1.641562
0.490234	1.646596
0.490332	1.648546
0.490430	1.649543
0.490527	1.644899
0.490625	1.645921
0.490723	1.646884
0.490820	1.627766
0.490918	1.603192
0.491016	1.596227
0.491113	1.579577
0.491211	1.579049
0.491309	1.591444
0.491406	1.581597
0.491504	1.581149
0.491602	1.590495
0.491699	1.598772
0.491797	1.589268
0.491895	1.589401
0.491992	1.612221
0.492090	1.619688
0.492187	1.625879
0.492285	1.630636
0.492383	1.635852
0.492480	1.640590
0.492578	1.646086
0.492676	1.650133
0.492773	1.653095
0.492871	1.653537
0.492969	1.652648
0.493066	1.643319
0.493164	1.635941
0.493262	1.617246
0.493359	1.615383
0.493457	1.610771
0.493555	1.621632
0.493652	1.637558
0.493750	1.645332
0.493848	1.642872
0.493945	1.623421
0.494043	1.613931
0.494141	1.612789
0.494238	1.616331
0.494336	1.619369
0.494434	1.623867
0.494531	1.627620
0.494629	1.632442
0.494727	1.637403
0.494824	1.642751
0.494922	1.647923
0.495020	1.651168
0.495117	1.656807
0.495215	1.654414
0.495312	1.642781
0.495410	1.660509
0.495508	1.642271
0.495605	1.627312
0.495703	1.604506
0.495801	1.572156
0.495898	1.560159
0.495996	1.547879
0.496094	1.551534
0.496191	1.550982
0.496289	1.559794
0.496387	1.587165
0.496484	1.616794
0.496582	1.610799
0.496680	1.614530
0.496777	1.619718
0.496875	1.625143
0.496973	1.629798
0.497070	1.634822
0.497168	1.640230
0.497266	1.646337
0.497363	1.653581
0.497461	1.662456
0.497559	1.669937
0.497656	1.652463
0.497754	1.640568
0.497852	1.634465
0.497949	1.625761
0.498047	1.613743
0.498145	1.598611
0.498242	1.603669
0.498340	1.603198
0.498437	1.599614
0.498535	1.597327
0.498633	1.600300
0.498730	1.607156
0.498828	1.612679
0.498926	1.616394
0.499023	1.619792
0.499121	1.622529
0.499219	1.625016
0.499316	1.627556
0.499414	1.629448
0.499512	1.631697
0.499609	1.632781
0.499707	1.634305
0.499805	1.633244
0.499902	1.631702
0.500000	1.614730
0.500098	1.607145
0.500195	1.613639
0.500293	1.578804
0.500391	1.566656
0.500488	1.590089
0.500586	1.561915
0.500684	1.569235
0.500781	1.568485
0.500879	1.583768
0.500977	1.591325
0.501074	1.600253
0.501172	1.603615
0.501270	1.604307
0.501367	1.612402
0.501465	1.619555
0.501562	1.625911
0.501660	1.630603
0.501758	1.636002
0.501855	1.641400
0.501953	1.648363
0.502051	1.656944
0.502148	1.664346
0.502246	1.667229
0.502344	1.664235
0.502441	1.656559
0.502539	1.630256
0.502637	1.585515
0.502734	1.577602
0.502832	1.589837
0.502930	1.589543
0.503027	1.585350
0.503125	1.604922
0.503223	1.617534
0.503320	1.607113
0.503418	1.604655
0.503516	1.606130
0.503613	1.610257
0.503711	1.613702
0.503809	1.617904
0.503906	1.621149
0.504004	1.625179
0.504102	1.628738
0.504199	1.633204
0.504297	1.638246
0.504395	1.644896
0.504492	1.651428
0.504590	1.654949
0.504687	1.650522
0.504785	1.645019
0.504883	1.641695
0.504980	1.642773
0.505078	1.645618
0.505176	1.645184
0.505273	1.626774
0.505371	1.615302
0.505469	1.608863
0.505566	1.615033
0.505664	1.622522
0.505762	1.621467
0.505859	1.620002
0.505957	1.616209
0.506055	1.615310
0.506152	1.616231
0.506250	1.619183
0.506348	1.622312
0.506445	1.625717
0.506543	1.629029
0.506641	1.632389
0.506738	1.635935
0.506836	1.639016
0.506934	1.641984
0.507031	1.640333
0.507129	1.628704
0.507227	1.602687
0.507324	1.617487
0.507422	1.630761
0.507520	1.620368
0.507617	1.595412
0.507715	1.606544
0.507812	1.610951
0.507910	1.591509
0.508008	1.585070
0.508105	1.580364
0.508203	1.580105
0.508301	1.590561
0.508398	1.602543
0.508496	1.609917
0.508594	1.615484
0.508691	1.620469
0.508789	1.624606
0.508887	1.629121
0.508984	1.632756
0.509082	1.637569
0.509180	1.641263
0.509277	1.646274
0.509375	1.647917
0.509473	1.649450
0.509570	1.642628
0.509668	1.635006
0.509766	1.606250
0.509863	1.597548
0.509961	1.609489
0.510059	1.586626
0.510156	1.574975
0.510254	1.584243
0.510352	1.610182
0.510449	1.586884
0.510547	1.569829
0.510645	1.596218
0.510742	1.607537
0.510840	1.610269
0.510937	1.614345
0.511035	1.619876
0.511133	1.625166
0.511230	1.629322
0.511328	1.635336
0.511426	1.640828
0.511523	1.650228
0.511621	1.654567
0.511719	1.638300
0.511816	1.608857
0.511914	1.630026
0.512012	1.621580
0.512109	1.618019
0.512207	1.640729
0.512305	1.623450
0.512402	1.601009
0.512500	1.584296
0.512598	1.585104
0.512695	1.594746
0.512793	1.608841
0.512891	1.594036
0.512988	1.607411
0.513086	1.611556
0.513184	1.615612
0.513281	1.618484
0.513379	1.622439
0.513477	1.624731
0.513574	1.628327
0.513672	1.630932
0.513770	1.635306
0.513867	1.639251
0.513965	1.646264
0.514062	1.651796
0.514160	1.660899
0.514258	1.640020
0.514355	1.610964
0.514453	1.619136
0.514551	1.606851
0.514648	1.607546
0.514746	1.603738
0.514844	1.589680
0.514941	1.577487
0.515039	1.564879
0.515137	1.548790
0.515234	1.545158
0.515332	1.557913
0.515430	1.531641
0.515527	1.565339
0.515625	1.606260
0.515723	1.611489
0.515820	1.618146
0.515918	1.618770
0.516016	1.624658
0.516113	1.627149
0.516211	1.633385
0.516309	1.636600
0.516406	1.643846
0.516504	1.647919
0.516602	1.655155
0.516699	1.653138
0.516797	1.652480
0.516895	1.627575
0.516992	1.627405
0.517090	1.624487
0.517187	1.610926
0.517285	1.598245
0.517383	1.593541
0.517480	1.608346
0.517578	1.610338
0.517676	1.611820
0.517773	1.612138
0.517871	1.615483
0.517969	1.616615
0.518066	1.620150
0.518164	1.621778
0.518262	1.625119
0.518359	1.627157
0.518457	1.630599
0.518555	1.632836
0.518652	1.637076
0.518750	1.639961
0.518848	1.645154
0.518945	1.648510
0.519043	1.652725
0.519141	1.652947
0.519238	1.656991
0.519336	1.646588
0.519434	1.644414
0.519531	1.620789
0.519629	1.606282
0.519727	1.621695
0.519824	1.616391
0.519922	1.626032
0.520020	1.627056
0.520117	1.626631
0.520215	1.615363
0.520312	1.605111
0.520410	1.612628
0.520508	1.617835
0.520605	1.621333
0.520703	1.623787
0.520801	1.626270
0.520898	1.629377
0.520996	1.632613
0.521094	1.636622
0.521191	1.640860
0.521289	1.646719
0.521387	1.654831
0.521484	1.663189
0.521582	1.639363
0.521680	1.631295
0.521777	1.639323
0.521875	1.644940
0.521973	1.640217
0.522070	1.626385
0.522168	1.628401
0.522266	1.621292
0.522363	1.619100
0.522461	1.617069
0.522559	1.616761
0.522656	1.617558
0.522754	1.619792
0.522852	1.622102
0.522949	1.625063
0.523047	1.628140
0.523145	1.632031
0.523242	1.636132
0.523340	1.641301
0.523437	1.646373
0.523535	1.650861
0.523633	1.651853
0.523730	1.667059
0.523828	1.682057
0.523926	1.656193
0.524023	1.641756
0.524121	1.629413
0.524219	1.608474
0.524316	1.611139
0.524414	1.597652
0.524512	1.613010
0.524609	1.612856
0.524707	1.602676
0.524805	1.607310
0.524902	1.610081
0.525000	1.614710
0.525098	1.616054
0.525195	1.619189
0.525293	1.621413
0.525391	1.624571
0.525488	1.627445
0.525586	1.630651
0.525684	1.633822
0.525781	1.636759
0.525879	1.639876
0.525977	1.642307
0.526074	1.644933
0.526172	1.642847
0.526270	1.639030
0.526367	1.639907
0.526465	1.629772
0.526562	1.581636
0.526660	1.609110
0.526758	1.608554
0.526855	1.573092
0.526953	1.550916
0.527051	1.552847
0.527148	1.577616
0.527246	1.570840
0.527344	1.573011
0.527441	1.573160
0.527539	1.585849
0.527637	1.603845
0.527734	1.614191
0.527832	1.619837
0.527930	1.625812
0.528027	1.629826
0.528125	1.634809
0.528223	1.638768
0.528320	1.643838
0.528418	1.648927
0.528516	1.652497
0.528613	1.649550
0.528711	1.642177
0.528809	1.635032
0.528906	1.629532
0.529004	1.625407
0.529102	1.624256
0.529199	1.625987
0.529297	1.632248
0.529395	1.637949
0.529492	1.630662
0.529590	1.619767
0.529687	1.615358
0.529785	1.617501
0.529883	1.619817
0.529980	1.623121
0.530078	1.625859
0.530176	1.629675
0.530273	1.632828
0.530371	1.637236
0.530469	1.640805
0.530566	1.645768
0.530664	1.650358
0.530762	1.653009
0.530859	1.647523
0.530957	1.642099
0.531055	1.629103
0.531152	1.633091
0.531250	1.620214
0.531348	1.609436
0.531445	1.608234
0.531543	1.607235
0.531641	1.612959
0.531738	1.579349
0.531836	1.549588
0.531934	1.575338
0.532031	1.588856
0.532129	1.561826
0.532227	1.583113
0.532324	1.609747
0.532422	1.619169
0.532520	1.625617
0.532617	1.630445
0.532715	1.635246
0.532812	1.639903
0.532910	1.644362
0.533008	1.648852
0.533105	1.642144
0.533203	1.647309
0.533301	1.654419
0.533398	1.630617
0.533496	1.633894
0.533594	1.627250
0.533691	1.616909
0.533789	1.605945
0.533887	1.586796
0.533984	1.596598
0.534082	1.608749
0.534180	1.616280
0.534277	1.615641
0.534375	1.612741
0.534473	1.613797
0.534570	1.615667
0.534668	1.618519
0.534766	1.621407
0.534863	1.624397
0.534961	1.627331
0.535059	1.630242
0.535156	1.633278
0.535254	1.636160
0.535352	1.639251
0.535449	1.641457
0.535547	1.643436
0.535645	1.637151
0.535742	1.627853
0.535840	1.620124
0.535937	1.622455
0.536035	1.636920
0.536133	1.650858
0.536230	1.640183
0.536328	1.628064
0.536426	1.623071
0.536523	1.616040
0.536621	1.618517
0.536719	1.619331
0.536816	1.626016
0.536914	1.629183
0.537012	1.623112
0.537109	1.618696
0.537207	1.619469
0.537305	1.621354
0.537402	1.623953
0.537500	1.627960
0.537598	1.631217
0.537695	1.634604
0.537793	1.636676
0.537891	1.639605
0.537988	1.641796
0.538086	1.647601
0.538184	1.648905
0.538281	1.647654
0.538379	1.643311
0.538477	1.636788
0.538574	1.635089
0.538672	1.629095
0.538770	1.625094
0.538867	1.620153
0.538965	1.618860
0.539062	1.617930
0.539160	1.618250
0.539258	1.618902
0.539355	1.620304
0.539453	1.621943
0.539551	1.623991
0.539648	1.626484
0.539746	1.629249
0.539844	1.632859
0.539941	1.636395
0.540039	1.640879
0.540137	1.644134
0.540234	1.650568
0.540332	1.642677
0.540430	1.621819
0.540527	1.614777
0.540625	1.598621
0.540723	1.570816
0.540820	1.558888
0.540918	1.571139
0.541016	1.607925
0.541113	1.624338
0.541211	1.626476
0.541309	1.619779
0.541406	1.618596
0.541504	1.619629
0.541602	1.621096
0.541699	1.622567
0.541797	1.624170
0.541895	1.626107
0.541992	1.628248
0.542090	1.631317
0.542187	1.634996
0.542285	1.640171
0.542383	1.647136
0.542480	1.654896
0.542578	1.656673
0.542676	1.657062
0.542773	1.649709
0.542871	1.650870
0.542969	1.636340
0.543066	1.634006
0.543164	1.624023
0.543262	1.610511
0.543359	1.615000
0.543457	1.614441
0.543555	1.615672
0.543652	1.617357
0.543750	1.618370
0.543848	1.617856
0.543945	1.617249
0.544043	1.617396
0.544141	1.619203
0.544238	1.621264
0.544336	1.623643
0.544434	1.625844
0.544531	1.628450
0.544629	1.631210
0.544727	1.634866
0.544824	1.639792
0.544922	1.648246
0.545020	1.655535
0.545117	1.665099
0.545215	1.670290
0.545312	1.656816
0.545410	1.649076
0.545508	1.641405
0.545605	1.635783
0.545703	1.617754
0.545801	1.599941
0.545898	1.584667
0.545996	1.602649
0.546094	1.626467
0.546191	1.601452
0.546289	1.600332
0.546387	1.599165
0.546484	1.604894
0.546582	1.609909
0.546680	1.615970
0.546777	1.619999
0.546875	1.624642
0.546973	1.628237
0.547070	1.632779
0.547168	1.636386
0.547266	1.640067
0.547363	1.636497
0.547461	1.620824
0.547559	1.635572
0.547656	1.621012
0.547754	1.610693
0.547852	1.627858
0.547949	1.650692
0.548047	1.626797
0.548145	1.601153
0.548242	1.586486
0.548340	1.573473
0.548437	1.565992
0.548535	1.565778
0.548633	1.558387
0.548730	1.573409
0.548828	1.600741
0.548926	1.591313
0.549023	1.602369
0.549121	1.608655
0.549219	1.616424
0.549316	1.620264
0.549414	1.625793
0.549512	1.628511
0.549609	1.633230
0.549707	1.635847
0.549805	1.640926
0.549902	1.643792
0.550000	1.649581
0.550098	1.651765
0.550195	1.656714
0.550293	1.655067
0.550391	1.653438
0.550488	1.637151
0.550586	1.630147
0.550684	1.622124
0.550781	1.627913
0.550879	1.626587
0.550977	1.610705
0.551074	1.607434
0.551172	1.614167
0.551270	1.628677
0.551367	1.618592
0.551465	1.620494
0.551562	1.621404
0.551660	1.625175
0.551758	1.627121
0.551855	1.630653
0.551953	1.633732
0.552051	1.637597
0.552148	1.642407
0.552246	1.646713
0.552344	1.653496
0.552441	1.651911
0.552539	1.637676
0.552637	1.625468
0.552734	1.643112
0.552832	1.635204
0.552930	1.615721
0.553027	1.607971
0.553125	1.604497
0.553223	1.588034
0.553320	1.586339
0.553418	1.595459
0.553516	1.606626
0.553613	1.614849
0.553711	1.618510
0.553809	1.621878
0.553906	1.622409
0.554004	1.623065
0.554102	1.624408
0.554199	1.626396
0.554297	1.629640
0.554395	1.632606
0.554492	1.637579
0.554590	1.641697
0.554687	1.650500
0.554785	1.658622
0.554883	1.669972
0.554980	1.647811
0.555078	1.644224
0.555176	1.648719
0.555273	1.636544
0.555371	1.618798
0.555469	1.607283
0.555566	1.610773
0.555664	1.618461
0.555762	1.611562
0.555859	1.605833
0.555957	1.621388
0.556055	1.624218
0.556152	1.612457
0.556250	1.610231
0.556348	1.612426
0.556445	1.616101
0.556543	1.619700
0.556641	1.623244
0.556738	1.627040
0.556836	1.630462
0.556934	1.634576
0.557031	1.638318
0.557129	1.642432
0.557227	1.641422
0.557324	1.635805
0.557422	1.627234
0.557520	1.680710
0.557617	1.692601
0.557715	1.646494
0.557812	1.625333
0.557910	1.605612
0.558008	1.595969
0.558105	1.610188
0.558203	1.616369
0.558301	1.613452
0.558398	1.607891
0.558496	1.608652
0.558594	1.611364
0.558691	1.614812
0.558789	1.618482
0.558887	1.621965
0.558984	1.625532
0.559082	1.629215
0.559180	1.633421
0.559277	1.638393
0.559375	1.644944
0.559473	1.652717
0.559570	1.660574
0.559668	1.663023
0.559766	1.657808
0.559863	1.645964
0.559961	1.642227
0.560059	1.629572
0.560156	1.618535
0.560254	1.615103
0.560352	1.608616
0.560449	1.613532
0.560547	1.613274
0.560645	1.611159
0.560742	1.612683
0.560840	1.614860
0.560937	1.617615
0.561035	1.620272
0.561133	1.623073
0.561230	1.625947
0.561328	1.629177
0.561426	1.632862
0.561523	1.637142
0.561621	1.641839
0.561719	1.646796
0.561816	1.651424
0.561914	1.658866
0.562012	1.654049
0.562109	1.656157
0.562207	1.647681
0.562305	1.627897
0.562402	1.628025
0.562500	1.627398
0.562598	1.634286
0.562695	1.626990
0.562793	1.606764
0.562891	1.603038
0.562988	1.607586
0.563086	1.609745
0.563184	1.612045
0.563281	1.614777
0.563379	1.617595
0.563477	1.620825
0.563574	1.623827
0.563672	1.627355
0.563770	1.631014
0.563867	1.635660
0.563965	1.640065
0.564062	1.644474
0.564160	1.643875
0.564258	1.636118
0.564355	1.628110
0.564453	1.607259
0.564551	1.586947
0.564648	1.630664
0.564746	1.635130
0.564844	1.612293
0.564941	1.596628
0.565039	1.575164
0.565137	1.579676
0.565234	1.577641
0.565332	1.584846
0.565430	1.598315
0.565527	1.606086
0.565625	1.609480
0.565723	1.613081
0.565820	1.616340
0.565918	1.620089
0.566016	1.623616
0.566113	1.627540
0.566211	1.631657
0.566309	1.636634
0.566406	1.642081
0.566504	1.646558
0.566602	1.653199
0.566699	1.650395
0.566797	1.651560
0.566895	1.648202
0.566992	1.640753
0.567090	1.635470
0.567187	1.636060
0.567285	1.641847
0.567383	1.621124
0.567480	1.600258
0.567578	1.585064
0.567676	1.550938
0.567773	1.531719
0.567871	1.552167
0.567969	1.583418
0.568066	1.601024
0.568164	1.612125
0.568262	1.617177
0.568359	1.622487
0.568457	1.625876
0.568555	1.630146
0.568652	1.633491
0.568750	1.637818
0.568848	1.641650
0.568945	1.646294
0.569043	1.649882
0.569141	1.652494
0.569238	1.651194
0.569336	1.647940
0.569434	1.642989
0.569531	1.636198
0.569629	1.631649
0.569727	1.627718
0.569824	1.624595
0.569922	1.620780
0.570020	1.618293
0.570117	1.617652
0.570215	1.618622
0.570312	1.620264
0.570410	1.622129
0.570508	1.623805
0.570605	1.625622
0.570703	1.627247
0.570801	1.629556
0.570898	1.631744
0.570996	1.634911
0.571094	1.637915
0.571191	1.642110
0.571289	1.645659
0.571387	1.650646
0.571484	1.652566
0.571582	1.652944
0.571680	1.646149
0.571777	1.641603
0.571875	1.641430
0.571973	1.642884
0.572070	1.620637
0.572168	1.625335
0.572266	1.620336
0.572363	1.580151
0.572461	1.564345
0.572559	1.572619
0.572656	1.596478
0.572754	1.602478
0.572852	1.610092
0.572949	1.613407
0.573047	1.619391
0.573145	1.622113
0.573242	1.627287
0.573340	1.630113
0.573437	1.635348
0.573535	1.637956
0.573633	1.643138
0.573730	1.645439
0.573828	1.650591
0.573926	1.648428
0.574023	1.657608
0.574121	1.623696
0.574219	1.633582
0.574316	1.660599
0.574414	1.627279
0.574512	1.614773
0.574609	1.589288
0.574707	1.580800
0.574805	1.590056
0.574902	1.589569
0.575000	1.600084
0.575098	1.605355
0.575195	1.609255
0.575293	1.611609
0.575391	1.615386
0.575488	1.618844
0.575586	1.622586
0.575684	1.626437
0.575781	1.630498
0.575879	1.635841
0.575977	1.642485
0.576074	1.654898
0.576172	1.666022
0.576270	1.659375
0.576367	1.665823
0.576465	1.672283
0.576562	1.657321
0.576660	1.637261
0.576758	1.610877
0.576855	1.600177
0.576953	1.592885
0.577051	1.585683
0.577148	1.580587
0.577246	1.595921
0.577344	1.588915
0.577441	1.583452
0.577539	1.583768
0.577637	1.590596
0.577734	1.596840
0.577832	1.604525
0.577930	1.613914
0.578027	1.618145
0.578125	1.623920
0.578223	1.627503
0.578320	1.632323
0.578418	1.636420
0.578516	1.642102
0.578613	1.647842
0.578711	1.654114
0.578809	1.660866
0.578906	1.641835
0.579004	1.629436
0.579102	1.629282
0.579199	1.624349
0.579297	1.611844
0.579395	1.598290
0.579492	1.601787
0.579590	1.597154
0.579687	1.588935
0.579785	1.605444
0.579883	1.611706
0.579980	1.614450
0.580078	1.616358
0.580176	1.619129
0.580273	1.621169
0.580371	1.624180
0.580469	1.626843
0.580566	1.630193
0.580664	1.633302
0.580762	1.636998
0.580859	1.640454
0.580957	1.643916
0.581055	1.646861
0.581152	1.648649
0.581250	1.648064
0.581348	1.644433
0.581445	1.639893
0.581543	1.636279
0.581641	1.633920
0.581738	1.632825
0.581836	1.632073
0.581934	1.629728
0.582031	1.627248
0.582129	1.625647
0.582227	1.624495
0.582324	1.624020
0.582422	1.624109
0.582520	1.624841
0.582617	1.625730
0.582715	1.627045
0.582812	1.628779
0.582910	1.630848
0.583008	1.633417
0.583105	1.636222
0.583203	1.639420
0.583301	1.642941
0.583398	1.646875
0.583496	1.651538
0.583594	1.656398
0.583691	1.659662
0.583789	1.655628
0.583887	1.647028
0.583984	1.640799
0.584082	1.633535
0.584180	1.625278
0.584277	1.620490
0.584375	1.618177
0.584473	1.617400
0.584570	1.617331
0.584668	1.617852
0.584766	1.618960
0.584863	1.620664
0.584961	1.622431
0.585059	1.624655
0.585156	1.626694
0.585254	1.629483
0.585352	1.632454
0.585449	1.637048
0.585547	1.642092
0.585645	1.651601
0.585742	1.658364
0.585840	1.651610
0.585937	1.642687
0.586035	1.630653
0.586133	1.643925
0.586230	1.639408
0.586328	1.624468
0.586426	1.596992
0.586523	1.572350
0.586621	1.552592
0.586719	1.538951
0.586816	1.542574
0.586914	1.541565
0.587012	1.537959
0.587109	1.542000
0.587207	1.558758
0.587305	1.590309
0.587402	1.602053
0.587500	1.614737
0.587598	1.621563
0.587695	1.629288
0.587793	1.634611
0.587891	1.641500
0.587988	1.646635
0.588086	1.652568
0.588184	1.652781
0.588281	1.655208
0.588379	1.657691
0.588477	1.650000
0.588574	1.635877
0.588672	1.631943
0.588770	1.635709
0.588867	1.634368
0.588965	1.622944
0.589062	1.617430
0.589160	1.618146
0.589258	1.618525
0.589355	1.615214
0.589453	1.615364
0.589551	1.617599
0.589648	1.618985
0.589746	1.621819
0.589844	1.624781
0.589941	1.628223
0.590039	1.631411
0.590137	1.635362
0.590234	1.639117
0.590332	1.643953
0.590430	1.648395
0.590527	1.654796
0.590625	1.659898
0.590723	1.656129
0.590820	1.650546
0.590918	1.643492
0.591016	1.651044
0.591113	1.656828
0.591211	1.640353
0.591309	1.621236
0.591406	1.618622
0.591504	1.608296
0.591602	1.605439
0.591699	1.607195
0.591797	1.611923
0.591895	1.616356
0.591992	1.620527
0.592090	1.623085
0.592187	1.625504
0.592285	1.627753
0.592383	1.630713
0.592480	1.633988
0.592578	1.637659
0.592676	1.641283
0.592773	1.645049
0.592871	1.648806
0.592969	1.652914
0.593066	1.656894
0.593164	1.643714
0.593262	1.629387
0.593359	1.650997
0.593457	1.644141
0.593555	1.636900
0.593652	1.655399
0.593750	1.610190
0.593848	1.578976
0.593945	1.585849
0.594043	1.597568
0.594141	1.604423
0.594238	1.607911
0.594336	1.612039
0.594434	1.615606
0.594531	1.618915
0.594629	1.621982
0.594727	1.625052
0.594824	1.628353
0.594922	1.631727
0.595020	1.636168
0.595117	1.640072
0.595215	1.643673
0.595312	1.642585
0.595410	1.641895
0.595508	1.647963
0.595605	1.620235
0.595703	1.605366
0.595801	1.607504
0.595898	1.588546
0.595996	1.559319
0.596094	1.548441
0.596191	1.559895
0.596289	1.546482
0.596387	1.537745
0.596484	1.549981
0.596582	1.587596
0.596680	1.597021
0.596777	1.601669
0.596875	1.610122
0.596973	1.615823
0.597070	1.621449
0.597168	1.625977
0.597266	1.631015
0.597363	1.636289
0.597461	1.644263
0.597559	1.654965
0.597656	1.658474
0.597754	1.651442
0.597852	1.628491
0.597949	1.615211
0.598047	1.640193
0.598145	1.604708
0.598242	1.610378
0.598340	1.614818
0.598437	1.587417
0.598535	1.536172
0.598633	1.538234
0.598730	1.565548
0.598828	1.554950
0.598926	1.524099
0.599023	1.510733
0.599121	1.570811
0.599219	1.596715
0.599316	1.609465
0.599414	1.617395
0.599512	1.624844
0.599609	1.630486
0.599707	1.637025
0.599805	1.642631
0.599902	1.648880
0.600000	1.650675
0.600098	1.650895
0.600195	1.648691
0.600293	1.646784
0.600391	1.641251
0.600488	1.636088
0.600586	1.630692
0.600684	1.622696
0.600781	1.618570
0.600879	1.618406
0.600977	1.618998
0.601074	1.631457
0.601172	1.625766
0.601270	1.619399
0.601367	1.618122
0.601465	1.619181
0.601562	1.620557
0.601660	1.623202
0.601758	1.625861
0.601855	1.629654
0.601953	1.633666
0.602051	1.639235
0.602148	1.644836
0.602246	1.650203
0.602344	1.652384
0.602441	1.654137
0.602539	1.652745
0.602637	1.653916
0.602734	1.638377
0.602832	1.618509
0.602930	1.621597
0.603027	1.612359
0.603125	1.602493
0.603223	1.613091
0.603320	1.615251
0.603418	1.615227
0.603516	1.615128
0.603613	1.615910
0.603711	1.616720
0.603809	1.618692
0.603906	1.619629
0.604004	1.622302
0.604102	1.623755
0.604199	1.627481
0.604297	1.629352
0.604395	1.634588
0.604492	1.636820
0.604590	1.643482
0.604687	1.641467
0.604785	1.629401
0.604883	1.608033
0.604980	1.631169
0.605078	1.635133
0.605176	1.625382
0.605273	1.620055
0.605371	1.611804
0.605469	1.590491
0.605566	1.561290
0.605664	1.563133
0.605762	1.591512
0.605859	1.608506
0.605957	1.600458
0.606055	1.606458
0.606152	1.607960
0.606250	1.613854
0.606348	1.616282
0.606445	1.620991
0.606543	1.623643
0.606641	1.628072
0.606738	1.631612
0.606836	1.636572
0.606934	1.642053
0.607031	1.649286
0.607129	1.655077
0.607227	1.650421
0.607324	1.644195
0.607422	1.620155
0.607520	1.630951
0.607617	1.622941
0.607715	1.630326
0.607812	1.627299
0.607910	1.607928
0.608008	1.596743
0.608105	1.587669
0.608203	1.595272
0.608301	1.616375
0.608398	1.630971
0.608496	1.608353
0.608594	1.604523
0.608691	1.606967
0.608789	1.611848
0.608887	1.616211
0.608984	1.621332
0.609082	1.625683
0.609180	1.630376
0.609277	1.634618
0.609375	1.638773
0.609473	1.642197
0.609570	1.645308
0.609668	1.648482
0.609766	1.650225
0.609863	1.650579
0.609961	1.646137
0.610059	1.636485
0.610156	1.631529
0.610254	1.628867
0.610352	1.626212
0.610449	1.624082
0.610547	1.623871
0.610645	1.624949
0.610742	1.626512
0.610840	1.626052
0.610937	1.624235
0.611035	1.623906
0.611133	1.624546
0.611230	1.626343
0.611328	1.628099
0.611426	1.630329
0.611523	1.632090
0.611621	1.634676
0.611719	1.636770
0.611816	1.639720
0.611914	1.641527
0.612012	1.644548
0.612109	1.644065
0.612207	1.652993
0.612305	1.648972
0.612402	1.587842
0.612500	1.568444
0.612598	1.588713
0.612695	1.611026
0.612793	1.620815
0.612891	1.627476
0.612988	1.623749
0.613086	1.619493
0.613184	1.615835
0.613281	1.614920
0.613379	1.615128
0.613477	1.617901
0.613574	1.620064
0.613672	1.624042
0.613770	1.626261
0.613867	1.631004
0.613965	1.633058
0.614062	1.639481
0.614160	1.640423
0.614258	1.645374
0.614355	1.632344
0.614453	1.624678
0.614551	1.640875
0.614648	1.641057
0.614746	1.615591
0.614844	1.596713
0.614941	1.600740
0.615039	1.589742
0.615137	1.579522
0.615234	1.565819
0.615332	1.557740
0.615430	1.534163
0.615527	1.510712
0.615625	1.498293
0.615723	1.513638
0.615820	1.564836
0.615918	1.593793
0.616016	1.609154
0.616113	1.616681
0.616211	1.624234
0.616309	1.628096
0.616406	1.634780
0.616504	1.638015
0.616602	1.646710
0.616699	1.651708
0.616797	1.665332
0.616895	1.654524
0.616992	1.660073
0.617090	1.650669
0.617187	1.609426
0.617285	1.618966
0.617383	1.602440
0.617480	1.596705
0.617578	1.587128
0.617676	1.584613
0.617773	1.596221
0.617871	1.604763
0.617969	1.613931
0.618066	1.608313
0.618164	1.606956
0.618262	1.613120
0.618359	1.616247
0.618457	1.621469
0.618555	1.624693
0.618652	1.629290
0.618750	1.632970
0.618848	1.637739
0.618945	1.641719
0.619043	1.645137
0.619141	1.645626
0.619238	1.643127
0.619336	1.637697
0.619434	1.635458
0.619531	1.635016
0.619629	1.634830
0.619727	1.633917
0.619824	1.631179
0.619922	1.629581
0.620020	1.629665
0.620117	1.631220
0.620215	1.634062
0.620312	1.634283
0.620410	1.632776
0.620508	1.631945
0.620605	1.630821
0.620703	1.630205
0.620801	1.630358
0.620898	1.631057
0.620996	1.633157
0.621094	1.635766
0.621191	1.639594
0.621289	1.643532
0.621387	1.648707
0.621484	1.653021
0.621582	1.661802
0.621680	1.662445
0.621777	1.637829
0.621875	1.643387
0.621973	1.654264
0.622070	1.631408
0.622168	1.644659
0.622266	1.619926
0.622363	1.612298
0.622461	1.620576
0.622559	1.616220
0.622656	1.616492
0.622754	1.615004
0.622852	1.617691
0.622949	1.618504
0.623047	1.622151
0.623145	1.623520
0.623242	1.627804
0.623340	1.629350
0.623437	1.634700
0.623535	1.636688
0.623633	1.644326
0.623730	1.647036
0.623828	1.660773
0.623926	1.656284
0.624023	1.672066
0.624121	1.664938
0.624219	1.643088
0.624316	1.651452
0.624414	1.635512
0.624512	1.620293
0.624609	1.605951
0.624707	1.595051
0.624805	1.585581
0.624902	1.580076
0.625000	1.568335
0.625098	1.595605
0.625195	1.612209
0.625293	1.610014
0.625391	1.613233
0.625488	1.615744
0.625586	1.619520
0.625684	1.622591
0.625781	1.626362
0.625879	1.629761
0.625977	1.634099
0.626074	1.638244
0.626172	1.643065
0.626270	1.646184
0.626367	1.648078
0.626465	1.653860
0.626562	1.655549
0.626660	1.658289
0.626758	1.656509
0.626855	1.625240
0.626953	1.618682
0.627051	1.598482
0.627148	1.589303
0.627246	1.589803
0.627344	1.595550
0.627441	1.605381
0.627539	1.609987
0.627637	1.611753
0.627734	1.614420
0.627832	1.616288
0.627930	1.617136
0.628027	1.621021
0.628125	1.624915
0.628223	1.629189
0.628320	1.632998
0.628418	1.636646
0.628516	1.639041
0.628613	1.640784
0.628711	1.641701
0.628809	1.642649
0.628906	1.642662
0.629004	1.643082
0.629102	1.641451
0.629199	1.637904
0.629297	1.635150
0.629395	1.633695
0.629492	1.629113
0.629590	1.636413
0.629687	1.630656
0.629785	1.632877
0.629883	1.625744
0.629980	1.611304
0.630078	1.616749
0.630176	1.619798
0.630273	1.623696
0.630371	1.626695
0.630469	1.630886
0.630566	1.635152
0.630664	1.639920
0.630762	1.644117
0.630859	1.645564
0.630957	1.648616
0.631055	1.654043
0.631152	1.645329
0.631250	1.631342
0.631348	1.642727
0.631445	1.663123
0.631543	1.641259
0.631641	1.636345
0.631738	1.621945
0.631836	1.607960
0.631934	1.619105
0.632031	1.608664
0.632129	1.611003
0.632227	1.612816
0.632324	1.616459
0.632422	1.618539
0.632520	1.621828
0.632617	1.624227
0.632715	1.627799
0.632812	1.630867
0.632910	1.635106
0.633008	1.638878
0.633105	1.643299
0.633203	1.646601
0.633301	1.649485
0.633398	1.648683
0.633496	1.647796
0.633594	1.647713
0.633691	1.653882
0.633789	1.659961
0.633887	1.631581
0.633984	1.625130
0.634082	1.626753
0.634180	1.627760
0.634277	1.626395
0.634375	1.623422
0.634473	1.620542
0.634570	1.619225
0.634668	1.619632
0.634766	1.620632
0.634863	1.622073
0.634961	1.623630
0.635059	1.625598
0.635156	1.627667
0.635254	1.630449
0.635352	1.633399
0.635449	1.637711
0.635547	1.642687
0.635645	1.650328
0.635742	1.659743
0.635840	1.666456
0.635937	1.652878
0.636035	1.636660
0.636133	1.619396
0.636230	1.609195
0.636328	1.624421
0.636426	1.613679
0.636523	1.601318
0.636621	1.603532
0.636719	1.609929
0.636816	1.601489
0.636914	1.629275
0.637012	1.634490
0.637109	1.607448
0.637207	1.614647
0.637305	1.611784
0.637402	1.612259
0.637500	1.617949
0.637598	1.622170
0.637695	1.627176
0.637793	1.631285
0.637891	1.636600
0.637988	1.641603
0.638086	1.648487
0.638184	1.654964
0.638281	1.658708
0.638379	1.641585
0.638477	1.632469
0.638574	1.618884
0.638672	1.625235
0.638770	1.619257
0.638867	1.608326
0.638965	1.610620
0.639062	1.598391
0.639160	1.598322
0.639258	1.605873
0.639355	1.609394
0.639453	1.604669
0.639551	1.611228
0.639648	1.614234
0.639746	1.618664
0.639844	1.621107
0.639941	1.624928
0.640039	1.626937
0.640137	1.630770
0.640234	1.632865
0.640332	1.637511
0.640430	1.640379
0.640527	1.646818
0.640625	1.650621
0.640723	1.662720
0.640820	1.647315
0.640918	1.633280
0.641016	1.634589
0.641113	1.615677
0.641211	1.609969
0.641309	1.611720
0.641406	1.597071
0.641504	1.587131
0.641602	1.579114
0.641699	1.564743
0.641797	1.539075
0.641895	1.526413
0.641992	1.573262
0.642090	1.592104
0.642187	1.606402
0.642285	1.613060
0.642383	1.620836
0.642480	1.625358
0.642578	1.631884
0.642676	1.636498
0.642773	1.643957
0.642871	1.649444
0.642969	1.658452
0.643066	1.654522
0.643164	1.641931
0.643262	1.634380
0.643359	1.617583
0.643457	1.609812
0.643555	1.624945
0.643652	1.624726
0.643750	1.623755
0.643848	1.622356
0.643945	1.622278
0.644043	1.621810
0.644141	1.622075
0.644238	1.621699
0.644336	1.622009
0.644434	1.622276
0.644531	1.623790
0.644629	1.625260
0.644727	1.627810
0.644824	1.630057
0.644922	1.633768
0.645020	1.636627
0.645117	1.642266
0.645215	1.647389
0.645312	1.660875
0.645410	1.660975
0.645508	1.636968
0.645605	1.637120
0.645703	1.643017
0.645801	1.633322
0.645898	1.625390
0.645996	1.629988
0.646094	1.631918
0.646191	1.632962
0.646289	1.616028
0.646387	1.608163
0.646484	1.608684
0.646582	1.611979
0.646680	1.615039
0.646777	1.618097
0.646875	1.619125
0.646973	1.621075
0.647070	1.623531
0.647168	1.627484
0.647266	1.631071
0.647363	1.636616
0.647461	1.641951
0.647559	1.649812
0.647656	1.654472
0.647754	1.660859
0.647852	1.661270
0.647949	1.654188
0.648047	1.638527
0.648145	1.620372
0.648242	1.623989
0.648340	1.612663
0.648437	1.605769
0.648535	1.599515
0.648633	1.606970
0.648730	1.612589
0.648828	1.608784
0.648926	1.604091
0.649023	1.606425
0.649121	1.609803
0.649219	1.614098
0.649316	1.617748
0.649414	1.621612
0.649512	1.625214
0.649609	1.629164
0.649707	1.633523
0.649805	1.638340
0.649902	1.643524
0.650000	1.648866
0.650098	1.654139
0.650195	1.658205
0.650293	1.658896
0.650391	1.657345
0.650488	1.635732
0.650586	1.613719
0.650684	1.602922
0.650781	1.589207
0.650879	1.617475
0.650977	1.623087
0.651074	1.604937
0.651172	1.615982
0.651270	1.609408
0.651367	1.600696
0.651465	1.604113
0.651562	1.609625
0.651660	1.613960
0.651758	1.617823
0.651855	1.621121
0.651953	1.624490
0.652051	1.627426
0.652148	1.630963
0.652246	1.634097
0.652344	1.637748
0.652441	1.639994
0.652539	1.641967
0.652637	1.640877
0.652734	1.633037
0.652832	1.601796
0.652930	1.562178
0.653027	1.582170
0.653125	1.572594
0.653223	1.581140
0.653320	1.581771
0.653418	1.572515
0.653516	1.570050
0.653613	1.572418
0.653711	1.564950
0.653809	1.557592
0.653906	1.544613
0.654004	1.609861
0.654102	1.612510
0.654199	1.614226
0.654297	1.619868
0.654395	1.623658
0.654492	1.628627
0.654590	1.632111
0.654687	1.637050
0.654785	1.640285
0.654883	1.645358
0.654980	1.647570
0.655078	1.651206
0.655176	1.640572
0.655273	1.629198
0.655371	1.616023
0.655469	1.612888
0.655566	1.605052
0.655664	1.606931
0.655762	1.595710
0.655859	1.594386
0.655957	1.590496
0.656055	1.580779
0.656152	1.593818
0.656250	1.592665
0.656348	1.604904
0.656445	1.609545
0.656543	1.617249
0.656641	1.620937
0.656738	1.626960
0.656836	1.630867
0.656934	1.636755
0.657031	1.641984
0.657129	1.649762
0.657227	1.660023
0.657324	1.664825
0.657422	1.642922
0.657520	1.643910
0.657617	1.642220
0.657715	1.619130
0.657812	1.603754
0.657910	1.603487
0.658008	1.619536
0.658105	1.614413
0.658203	1.611617
0.658301	1.608830
0.658398	1.608606
0.658496	1.613145
0.658594	1.617691
0.658691	1.620814
0.658789	1.622493
0.658887	1.622882
0.658984	1.623938
0.659082	1.624805
0.659180	1.627180
0.659277	1.629390
0.659375	1.633566
0.659473	1.637351
0.659570	1.644847
0.659668	1.652461
0.659766	1.662731
0.659863	1.664712
0.659961	1.660082
0.660059	1.640645
0.660156	1.634918
0.660254	1.622556
0.660352	1.609101
0.660449	1.605771
0.660547	1.593151
0.660645	1.568972
0.660742	1.555321
0.660840	1.514013
0.660937	1.513063
0.661035	1.557724
0.661133	1.570386
0.661230	1.595387
0.661328	1.603539
0.661426	1.615194
0.661523	1.617628
0.661621	1.625956
0.661719	1.627553
0.661816	1.636471
0.661914	1.638658
0.662012	1.650297
0.662109	1.654464
0.662207	1.676019
0.662305	1.661893
0.662402	1.641413
0.662500	1.645981
0.662598	1.624836
0.662695	1.610971
0.662793	1.594258
0.662891	1.577616
0.662988	1.561915
0.663086	1.559307
0.663184	1.561524
0.663281	1.555800
0.663379	1.543164
0.663477	1.555522
0.663574	1.582224
0.663672	1.600940
0.663770	1.599404
0.663867	1.610133
0.663965	1.613932
0.664062	1.622538
0.664160	1.626002
0.664258	1.633404
0.664355	1.636840
0.664453	1.644248
0.664551	1.647125
0.664648	1.653800
0.664746	1.649148
0.664844	1.630608
0.664941	1.608314
0.665039	1.610594
0.665137	1.621846
0.665234	1.619881
0.665332	1.614513
0.665430	1.607648
0.665527	1.614954
0.665625	1.610585
0.665723	1.607570
0.665820	1.611559
0.665918	1.614773
0.666016	1.617480
0.666113	1.620044
0.666211	1.622524
0.666309	1.625423
0.666406	1.628534
0.666504	1.632010
0.666602	1.635829
0.666699	1.640484
0.666797	1.645664
0.666895	1.652359
0.666992	1.663699
0.667090	1.676536
0.667187	1.668769
0.667285	1.653840
0.667383	1.633715
0.667480	1.621402
0.667578	1.624136
0.667676	1.620501
0.667773	1.620446
0.667871	1.618857
0.667969	1.615766
0.668066	1.614228
0.668164	1.613686
0.668262	1.616237
0.668359	1.617843
0.668457	1.620639
0.668555	1.622142
0.668652	1.624795
0.668750	1.626304
0.668848	1.629337
0.668945	1.630875
0.669043	1.634459
0.669141	1.635656
0.669238	1.639832
0.669336	1.640286
0.669434	1.647200
0.669531	1.640229
0.669629	1.638944
0.669727	1.621158
0.669824	1.595885
0.669922	1.604596
0.670020	1.615323
0.670117	1.597552
0.670215	1.581843
0.670312	1.574784
0.670410	1.565832
0.670508	1.551845
0.670605	1.560952
0.670703	1.580429
0.670801	1.584543
0.670898	1.595500
0.670996	1.605480
0.671094	1.614706
0.671191	1.621397
0.671289	1.628072
0.671387	1.633701
0.671484	1.639435
0.671582	1.645632
0.671680	1.652467
0.671777	1.658050
0.671875	1.651834
0.671973	1.638006
0.672070	1.608276
0.672168	1.597995
0.672266	1.604829
0.672363	1.608224
0.672461	1.601978
0.672559	1.597892
0.672656	1.584961
0.672754	1.583157
0.672852	1.568670
0.672949	1.564826
0.673047	1.573053
0.673145	1.596398
0.673242	1.615255
0.673340	1.617987
0.673437	1.625162
0.673535	1.628341
0.673633	1.634432
0.673730	1.638692
0.673828	1.645245
0.673926	1.650534
0.674023	1.654510
0.674121	1.651146
0.674219	1.643975
0.674316	1.635191
0.674414	1.628687
0.674512	1.614868
0.674609	1.619015
0.674707	1.625894
0.674805	1.635212
0.674902	1.633637
0.675000	1.624434
0.675098	1.621268
0.675195	1.621596
0.675293	1.624267
0.675391	1.625754
0.675488	1.626524
0.675586	1.627082
0.675684	1.627389
0.675781	1.628601
0.675879	1.629484
0.675977	1.631782
0.676074	1.633116
0.676172	1.636251
0.676270	1.637493
0.676367	1.641022
0.676465	1.640501
0.676562	1.637173
0.676660	1.631362
0.676758	1.597126
0.676855	1.618732
0.676953	1.642545
0.677051	1.601750
0.677148	1.629639
0.677246	1.649645
0.677344	1.618573
0.677441	1.629546
0.677539	1.644259
0.677637	1.638938
0.677734	1.620252
0.677832	1.622509
0.677930	1.620359
0.678027	1.624911
0.678125	1.625236
0.678223	1.629863
0.678320	1.631279
0.678418	1.636415
0.678516	1.638579
0.678613	1.644198
0.678711	1.646032
0.678809	1.646405
0.678906	1.621966
0.679004	1.621345
0.679102	1.632519
0.679199	1.626030
0.679297	1.615639
0.679395	1.603831
0.679492	1.594127
0.679590	1.571842
0.679687	1.534524
0.679785	1.554719
0.679883	1.586456
0.679980	1.596420
0.680078	1.602441
0.680176	1.606314
0.680273	1.611152
0.680371	1.615461
0.680469	1.619296
0.680566	1.623794
0.680664	1.627218
0.680762	1.632369
0.680859	1.636017
0.680957	1.642781
0.681055	1.646773
0.681152	1.657708
0.681250	1.639299
0.681348	1.615095
0.681445	1.649040
0.681543	1.634429
0.681641	1.625557
0.681738	1.612073
0.681836	1.604558
0.681934	1.598521
0.682031	1.595438
0.682129	1.600678
0.682227	1.602643
0.682324	1.603406
0.682422	1.610181
0.682520	1.622322
0.682617	1.622165
0.682715	1.618228
0.682812	1.620814
0.682910	1.623052
0.683008	1.627270
0.683105	1.630703
0.683203	1.635343
0.683301	1.639376
0.683398	1.644119
0.683496	1.648083
0.683594	1.652621
0.683691	1.655886
0.683789	1.656179
0.683887	1.650275
0.683984	1.638114
0.684082	1.635524
0.684180	1.636823
0.684277	1.629300
0.684375	1.622780
0.684473	1.618920
0.684570	1.613032
0.684668	1.614045
0.684766	1.614972
0.684863	1.617591
0.684961	1.619489
0.685059	1.622012
0.685156	1.624533
0.685254	1.627124
0.685352	1.630118
0.685449	1.632779
0.685547	1.635847
0.685645	1.638021
0.685742	1.640868
0.685840	1.642498
0.685937	1.646237
0.686035	1.650910
0.686133	1.659825
0.686230	1.658070
0.686328	1.643190
0.686426	1.615346
0.686523	1.635672
0.686621	1.659612
0.686719	1.643152
0.686816	1.630190
0.686914	1.622970
0.687012	1.624566
0.687109	1.619968
0.687207	1.619332
0.687305	1.618166
0.687402	1.620520
0.687500	1.621809
0.687598	1.625173
0.687695	1.627519
0.687793	1.631983
0.687891	1.636069
0.687988	1.643421
0.688086	1.650748
0.688184	1.666261
0.688281	1.663125
0.688379	1.636611
0.688477	1.637531
0.688574	1.634916
0.688672	1.615650
0.688770	1.614740
0.688867	1.604997
0.688965	1.599032
0.689062	1.592279
0.689160	1.584128
0.689258	1.577115
0.689355	1.572153
0.689453	1.576866
0.689551	1.587193
0.689648	1.589522
0.689746	1.599620
0.689844	1.607592
0.689941	1.614010
0.690039	1.619499
0.690137	1.624502
0.690234	1.628880
0.690332	1.633175
0.690430	1.636677
0.690527	1.639996
0.690625	1.643421
0.690723	1.643247
0.690820	1.626893
0.690918	1.613441
0.691016	1.584260
0.691113	1.625435
0.691211	1.625956
0.691309	1.591815
0.691406	1.586131
0.691504	1.579406
0.691602	1.567529
0.691699	1.541531
0.691797	1.519756
0.691895	1.565433
0.691992	1.598778
0.692090	1.600039
0.692187	1.608486
0.692285	1.612824
0.692383	1.618999
0.692480	1.621978
0.692578	1.626595
0.692676	1.629034
0.692773	1.633164
0.692871	1.635631
0.692969	1.640199
0.693066	1.643437
0.693164	1.650029
0.693262	1.655477
0.693359	1.664022
0.693457	1.660742
0.693555	1.659653
0.693652	1.645350
0.693750	1.652624
0.693848	1.649866
0.693945	1.630613
0.694043	1.619754
0.694141	1.611322
0.694238	1.609901
0.694336	1.609464
0.694434	1.612069
0.694531	1.613944
0.694629	1.617198
0.694727	1.619659
0.694824	1.622981
0.694922	1.625868
0.695020	1.629182
0.695117	1.632729
0.695215	1.636558
0.695312	1.640792
0.695410	1.644904
0.695508	1.648621
0.695605	1.648832
0.695703	1.647434
0.695801	1.649585
0.695898	1.652723
0.695996	1.653370
0.696094	1.644530
0.696191	1.631172
0.696289	1.619017
0.696387	1.624751
0.696484	1.624491
0.696582	1.621875
0.696680	1.620989
0.696777	1.620396
0.696875	1.619587
0.696973	1.620014
0.697070	1.620624
0.697168	1.622520
0.697266	1.624409
0.697363	1.627490
0.697461	1.630367
0.697559	1.635085
0.697656	1.639781
0.697754	1.648689
0.697852	1.658281
0.697949	1.677255
0.698047	1.674398
0.698145	1.661469
0.698242	1.651728
0.698340	1.635808
0.698437	1.623971
0.698535	1.607733
0.698633	1.595829
0.698730	1.593729
0.698828	1.591837
0.698926	1.600002
0.699023	1.610046
0.699121	1.615398
0.699219	1.617328
0.699316	1.615997
0.699414	1.616922
0.699512	1.619530
0.699609	1.623451
0.699707	1.627607
0.699805	1.632921
0.699902	1.637400
0.700000	1.643578
0.700098	1.648419
0.700195	1.662064
0.700293	1.662735
0.700391	1.653049
0.700488	1.638205
0.700586	1.614713
0.700684	1.617706
0.700781	1.607138
0.700879	1.584440
0.700977	1.556938
0.701074	1.568374
0.701172	1.572326
0.701270	1.573731
0.701367	1.595119
0.701465	1.604772
0.701562	1.611143
0.701660	1.613773
0.701758	1.618236
0.701855	1.621239
0.701953	1.625065
0.702051	1.628010
0.702148	1.631865
0.702246	1.635420
0.702344	1.639980
0.702441	1.644740
0.702539	1.650594
0.702637	1.656988
0.702734	1.656503
0.702832	1.664487
0.702930	1.659815
0.703027	1.612670
0.703125	1.632625
0.703223	1.612379
0.703320	1.623633
0.703418	1.621070
0.703516	1.600231
0.703613	1.615405
0.703711	1.597058
0.703809	1.588106
0.703906	1.557569
0.704004	1.596730
0.704102	1.614192
0.704199	1.607230
0.704297	1.615261
0.704395	1.615790
0.704492	1.622113
0.704590	1.624170
0.704687	1.630711
0.704785	1.634866
0.704883	1.643744
0.704980	1.651467
0.705078	1.663106
0.705176	1.665914
0.705273	1.659815
0.705371	1.632884
0.705469	1.607175
0.705566	1.622606
0.705664	1.609767
0.705762	1.593773
0.705859	1.595584
0.705957	1.604063
0.706055	1.614403
0.706152	1.616562
0.706250	1.616142
0.706348	1.616952
0.706445	1.616411
0.706543	1.618711
0.706641	1.620529
0.706738	1.623946
0.706836	1.625603
0.706934	1.629054
0.707031	1.630703
0.707129	1.635218
0.707227	1.637950
0.707324	1.645317
0.707422	1.651397
0.707520	1.665370
0.707617	1.653861
0.707715	1.651645
0.707812	1.628032
0.707910	1.626854
0.708008	1.638545
0.708105	1.602521
0.708203	1.573043
0.708301	1.534317
0.708398	1.510579
0.708496	1.492593
0.708594	1.524673
0.708691	1.548792
0.708789	1.558950
0.708887	1.578250
0.708984	1.589624
0.709082	1.601040
0.709180	1.607491
0.709277	1.614426
0.709375	1.619380
0.709473	1.625213
0.709570	1.629732
0.709668	1.636168
0.709766	1.641896
0.709863	1.656918
0.709961	1.663277
0.710059	1.668942
0.710156	1.661922
0.710254	1.663652
0.710352	1.660324
0.710449	1.650021
0.710547	1.609973
0.710645	1.589336
0.710742	1.586105
0.710840	1.579679
0.710937	1.583309
0.711035	1.587992
0.711133	1.599350
0.711230	1.623731
0.711328	1.628139
0.711426	1.604210
0.711523	1.612830
0.711621	1.619371
0.711719	1.623632
0.711816	1.627553
0.711914	1.631934
0.712012	1.635643
0.712109	1.639498
0.712207	1.642505
0.712305	1.645741
0.712402	1.647713
0.712500	1.649683
0.712598	1.649155
0.712695	1.647274
0.712793	1.643454
0.712891	1.640286
0.712988	1.634508
0.713086	1.631874
0.713184	1.622308
0.713281	1.627563
0.713379	1.625168
0.713477	1.617980
0.713574	1.621456
0.713672	1.619796
0.713770	1.621461
0.713867	1.621718
0.713965	1.624130
0.714062	1.625426
0.714160	1.628274
0.714258	1.630241
0.714355	1.633646
0.714453	1.636459
0.714551	1.640380
0.714648	1.644417
0.714746	1.641722
0.714844	1.623085
0.714941	1.625588
0.715039	1.650981
0.715137	1.640289
0.715234	1.630363
0.715332	1.615721
0.715430	1.599564
0.715527	1.587344
0.715625	1.576635
0.715723	1.578129
0.715820	1.577763
0.715918	1.578697
0.716016	1.549602
0.716113	1.593017
0.716211	1.619687
0.716309	1.616152
0.716406	1.622530
0.716504	1.623802
0.716602	1.629056
0.716699	1.631658
0.716797	1.636454
0.716895	1.639902
0.716992	1.644329
0.717090	1.647457
0.717187	1.649648
0.717285	1.650157
0.717383	1.644159
0.717480	1.645010
0.717578	1.643614
0.717676	1.621621
0.717773	1.618495
0.717871	1.618263
0.717969	1.620302
0.718066	1.620551
0.718164	1.621154
0.718262	1.620727
0.718359	1.621797
0.718457	1.622238
0.718555	1.624250
0.718652	1.625488
0.718750	1.628626
0.718848	1.631170
0.718945	1.636904
0.719043	1.641588
0.719141	1.654524
0.719238	1.664387
0.719336	1.664086
0.719434	1.674389
0.719531	1.648758
0.719629	1.637270
0.719727	1.626449
0.719824	1.613591
0.719922	1.599757
0.720020	1.595120
0.720117	1.598926
0.720215	1.602631
0.720312	1.605845
0.720410	1.608199
0.720508	1.611490
0.720605	1.614967
0.720703	1.618041
0.720801	1.620932
0.720898	1.622205
0.720996	1.623945
0.721094	1.624759
0.721191	1.627935
0.721289	1.630199
0.721387	1.636794
0.721484	1.643294
0.721582	1.659712
0.721680	1.657699
0.721777	1.665512
0.721875	1.665537
0.721973	1.628402
0.722070	1.661537
0.722168	1.634857
0.722266	1.606854
0.722363	1.582682
0.722461	1.563593
0.722559	1.563161
0.722656	1.569013
0.722754	1.592460
0.722852	1.607269
0.722949	1.606101
0.723047	1.604412
0.723145	1.607371
0.723242	1.611482
0.723340	1.615629
0.723437	1.620388
0.723535	1.624726
0.723633	1.629441
0.723730	1.634045
0.723828	1.639306
0.723926	1.644717
0.724023	1.652036
0.724121	1.660704
0.724219	1.666023
0.724316	1.641795
0.724414	1.620480
0.724512	1.610140
0.724609	1.612884
0.724707	1.604252
0.724805	1.589105
0.724902	1.584684
0.725000	1.568232
0.725098	1.558984
0.725195	1.562959
0.725293	1.571974
0.725391	1.596381
0.725488	1.606741
0.725586	1.612731
0.725684	1.617109
0.725781	1.621315
0.725879	1.624995
0.725977	1.628849
0.726074	1.632921
0.726172	1.637368
0.726270	1.642380
0.726367	1.646929
0.726465	1.651184
0.726562	1.654535
0.726660	1.657268
0.726758	1.652180
0.726855	1.651815
0.726953	1.642729
0.727051	1.625550
0.727148	1.621339
0.727246	1.627842
0.727344	1.609572
0.727441	1.588092
0.727539	1.577027
0.727637	1.587455
0.727734	1.601893
0.727832	1.606263
0.727930	1.611440
0.728027	1.614384
0.728125	1.618386
0.728223	1.621055
0.728320	1.624730
0.728418	1.627686
0.728516	1.631541
0.728613	1.635088
0.728711	1.639355
0.728809	1.638387
0.728906	1.624073
0.729004	1.638367
0.729102	1.648246
0.729199	1.634326
0.729297	1.615879
0.729395	1.628109
0.729492	1.614438
0.729590	1.602931
0.729687	1.603694
0.729785	1.592489
0.729883	1.574419
0.729980	1.563860
0.730078	1.570120
0.730176	1.585250
0.730273	1.595866
0.730371	1.603081
0.730469	1.610101
0.730566	1.615969
0.730664	1.621842
0.730762	1.627398
0.730859	1.633321
0.730957	1.639327
0.731055	1.645208
0.731152	1.649485
0.731250	1.650075
0.731348	1.647163
0.731445	1.644449
0.731543	1.642873
0.731641	1.642056
0.731738	1.640369
0.731836	1.638561
0.731934	1.635394
0.732031	1.631181
0.732129	1.626786
0.732227	1.622293
0.732324	1.618591
0.732422	1.617850
0.732520	1.618553
0.732617	1.619961
0.732715	1.621479
0.732812	1.623197
0.732910	1.625163
0.733008	1.627303
0.733105	1.629747
0.733203	1.632493
0.733301	1.635587
0.733398	1.639079
0.733496	1.643008
0.733594	1.647158
0.733691	1.650355
0.733789	1.651678
0.733887	1.650025
0.733984	1.645868
0.734082	1.642258
0.734180	1.640995
0.734277	1.640790
0.734375	1.636954
0.734473	1.632173
0.734570	1.629291
0.734668	1.623367
0.734766	1.618007
0.734863	1.617752
0.734961	1.618071
0.735059	1.619065
0.735156	1.619985
0.735254	1.621949
0.735352	1.623900
0.735449	1.626626
0.735547	1.629349
0.735645	1.633067
0.735742	1.636885
0.735840	1.642764
0.735937	1.649788
0.736035	1.660174
0.736133	1.664788
0.736230	1.669628
0.736328	1.654220
0.736426	1.656421
0.736523	1.643552
0.736621	1.612653
0.736719	1.597136
0.736816	1.575283
0.736914	1.556666
0.737012	1.540298
0.737109	1.528889
0.737207	1.513757
0.737305	1.498173
0.737402	1.496125
0.737500	1.541078
0.737598	1.583925
0.737695	1.594673
0.737793	1.605096
0.737891	1.613054
0.737988	1.621029
0.738086	1.627857
0.738184	1.635323
0.738281	1.642347
0.738379	1.650150
0.738477	1.655702
0.738574	1.656425
0.738672	1.651133
0.738770	1.643600
0.738867	1.637513
0.738965	1.631251
0.739062	1.625488
0.739160	1.621540
0.739258	1.618164
0.739355	1.617616
0.739453	1.618635
0.739551	1.620606
0.739648	1.622803
0.739746	1.623085
0.739844	1.623137
0.739941	1.622511
0.740039	1.622988
0.740137	1.624136
0.740234	1.626307
0.740332	1.628830
0.740430	1.632261
0.740527	1.636037
0.740625	1.640894
0.740723	1.646256
0.740820	1.651402
0.740918	1.655825
0.741016	1.642404
0.741113	1.597914
0.741211	1.625165
0.741309	1.642330
0.741406	1.624280
0.741504	1.612932
0.741602	1.618179
0.741699	1.592006
0.741797	1.559231
0.741895	1.550442
0.741992	1.545614
0.742090	1.534181
0.742187	1.524949
0.742285	1.567502
0.742383	1.594294
0.742480	1.598576
0.742578	1.597165
0.742676	1.607166
0.742773	1.618398
0.742871	1.626260
0.742969	1.632502
0.743066	1.638877
0.743164	1.645547
0.743262	1.654948
0.743359	1.661058
0.743457	1.663961
0.743555	1.655756
0.743652	1.634560
0.743750	1.626254
0.743848	1.617424
0.743945	1.602932
0.744043	1.590838
0.744141	1.595053
0.744238	1.610406
0.744336	1.610515
0.744434	1.609074
0.744531	1.610022
0.744629	1.608503
0.744727	1.618024
0.744824	1.632009
0.744922	1.626821
0.745020	1.623234
0.745117	1.624236
0.745215	1.628683
0.745312	1.632849
0.745410	1.639144
0.745508	1.645013
0.745605	1.653197
0.745703	1.658042
0.745801	1.663226
0.745898	1.656896
0.745996	1.663817
0.746094	1.648788
0.746191	1.637211
0.746289	1.626329
0.746387	1.616085
0.746484	1.616654
0.746582	1.622391
0.746680	1.617489
0.746777	1.605372
0.746875	1.613226
0.746973	1.614570
0.747070	1.617803
0.747168	1.617991
0.747266	1.619684
0.747363	1.620701
0.747461	1.622746
0.747559	1.625084
0.747656	1.627159
0.747754	1.630924
0.747852	1.633712
0.747949	1.639682
0.748047	1.643096
0.748145	1.645750
0.748242	1.635727
0.748340	1.628731
0.748437	1.592052
0.748535	1.616520
0.748633	1.626716
0.748730	1.599491
0.748828	1.599150
0.748926	1.589092
0.749023	1.579349
0.749121	1.563720
0.749219	1.559375
0.749316	1.558978
0.749414	1.568054
0.749512	1.582707
0.749609	1.592314
0.749707	1.601284
0.749805	1.609299
0.749902	1.615826
0.750000	1.621689
0.750098	1.627001
0.750195	1.632166
0.750293	1.637810
0.750391	1.643846
0.750488	1.653671
0.750586	1.658467
0.750684	1.647576
0.750781	1.649969
0.750879	1.636547
0.750977	1.609508
0.751074	1.592944
0.751172	1.584972
0.751270	1.599335
0.751367	1.599210
0.751465	1.597239
0.751562	1.615333
0.751660	1.605271
0.751758	1.601726
0.751855	1.609171
0.751953	1.613060
0.752051	1.617301
0.752148	1.619917
0.752246	1.623435
0.752344	1.626162
0.752441	1.629546
0.752539	1.632718
0.752637	1.636603
0.752734	1.640425
0.752832	1.644309
0.752930	1.648634
0.753027	1.654031
0.753125	1.661233
0.753223	1.659646
0.753320	1.648228
0.753418	1.632686
0.753516	1.621798
0.753613	1.619067
0.753711	1.617592
0.753809	1.617929
0.753906	1.617171
0.754004	1.615719
0.754102	1.616537
0.754199	1.618585
0.754297	1.621859
0.754395	1.622295
0.754492	1.622588
0.754590	1.624718
0.754687	1.628148
0.754785	1.632532
0.754883	1.639457
0.754980	1.649055
0.755078	1.671225
0.755176	1.696886
0.755273	1.678327
0.755371	1.673560
0.755469	1.663753
0.755566	1.647559
0.755664	1.635319
0.755762	1.618578
0.755859	1.591433
0.755957	1.589040
0.756055	1.588748
0.756152	1.581451
0.756250	1.593364
0.756348	1.592178
0.756445	1.583929
0.756543	1.593581
0.756641	1.607146
0.756738	1.612705
0.756836	1.618262
0.756934	1.622497
0.757031	1.626990
0.757129	1.631642
0.757227	1.636290
0.757324	1.641970
0.757422	1.646834
0.757520	1.652138
0.757617	1.654533
0.757715	1.658590
0.757812	1.678734
0.757910	1.648738
0.758008	1.641698
0.758105	1.639585
0.758203	1.625634
0.758301	1.607292
0.758398	1.574615
0.758496	1.562887
0.758594	1.595926
0.758691	1.568941
0.758789	1.558674
0.758887	1.589796
0.758984	1.603067
0.759082	1.609019
0.759180	1.614694
0.759277	1.619268
0.759375	1.624239
0.759473	1.628814
0.759570	1.634360
0.759668	1.639631
0.759766	1.646058
0.759863	1.651917
0.759961	1.657459
0.760059	1.659252
0.760156	1.658957
0.760254	1.651664
0.760352	1.637641
0.760449	1.615266
0.760547	1.613679
0.760645	1.617432
0.760742	1.605716
0.760840	1.614768
0.760937	1.607827
0.761035	1.606276
0.761133	1.609131
0.761230	1.612043
0.761328	1.615382
0.761426	1.617879
0.761523	1.620833
0.761621	1.622984
0.761719	1.626537
0.761816	1.628601
0.761914	1.632928
0.762012	1.635130
0.762109	1.640732
0.762207	1.643626
0.762305	1.653501
0.762402	1.657368
0.762500	1.670930
0.762598	1.641690
0.762695	1.620476
0.762793	1.631142
0.762891	1.608260
0.762988	1.599779
0.763086	1.585352
0.763184	1.577294
0.763281	1.567924
0.763379	1.570116
0.763477	1.574582
0.763574	1.571303
0.763672	1.576875
0.763770	1.582197
0.763867	1.601503
0.763965	1.605996
0.764062	1.612949
0.764160	1.618355
0.764258	1.623671
0.764355	1.628659
0.764453	1.633310
0.764551	1.638677
0.764648	1.644030
0.764746	1.650367
0.764844	1.652538
0.764941	1.661607
0.765039	1.662121
0.765137	1.658267
0.765234	1.645099
0.765332	1.629890
0.765430	1.629513
0.765527	1.619462
0.765625	1.604910
0.765723	1.579392
0.765820	1.576922
0.765918	1.595162
0.766016	1.603377
0.766113	1.610112
0.766211	1.614541
0.766309	1.618649
0.766406	1.622109
0.766504	1.625486
0.766602	1.629129
0.766699	1.632954
0.766797	1.637858
0.766895	1.643272
0.766992	1.650601
0.767090	1.656636
0.767187	1.649246
0.767285	1.632146
0.767383	1.655386
0.767480	1.660194
0.767578	1.637086
0.767676	1.620956
0.767773	1.593256
0.767871	1.587770
0.767969	1.583046
0.768066	1.572760
0.768164	1.566969
0.768262	1.575428
0.768359	1.588366
0.768457	1.601671
0.768555	1.608374
0.768652	1.613133
0.768750	1.616515
0.768848	1.620760
0.768945	1.624114
0.769043	1.628323
0.769141	1.631873
0.769238	1.636445
0.769336	1.639529
0.769434	1.642837
0.769531	1.640337
0.769629	1.634404
0.769727	1.634587
0.769824	1.641219
0.769922	1.629484
0.770020	1.612740
0.770117	1.615056
0.770215	1.595522
0.770312	1.578161
0.770410	1.580213
0.770508	1.571612
0.770605	1.562733
0.770703	1.557646
0.770801	1.568746
0.770898	1.595864
0.770996	1.607227
0.771094	1.609796
0.771191	1.614215
0.771289	1.619270
0.771387	1.623979
0.771484	1.628320
0.771582	1.633164
0.771680	1.637785
0.771777	1.643689
0.771875	1.647493
0.771973	1.653631
0.772070	1.645526
0.772168	1.630683
0.772266	1.622328
0.772363	1.616682
0.772461	1.613033
0.772559	1.601425
0.772656	1.594439
0.772754	1.586091
0.772852	1.580617
0.772949	1.567128
0.773047	1.576371
0.773145	1.605082
0.773242	1.621634
0.773340	1.622193
0.773437	1.619588
0.773535	1.621778
0.773633	1.623460
0.773730	1.626644
0.773828	1.629077
0.773926	1.632700
0.774023	1.636133
0.774121	1.641831
0.774219	1.649141
0.774316	1.650044
0.774414	1.639540
0.774512	1.638985
0.774609	1.629462
0.774707	1.626811
0.774805	1.633507
0.774902	1.621100
0.775000	1.600210
0.775098	1.595123
0.775195	1.588907
0.775293	1.591555
0.775391	1.612765
0.775488	1.611148
0.775586	1.609879
0.775684	1.612661
0.775781	1.615558
0.775879	1.618406
0.775977	1.621393
0.776074	1.624544
0.776172	1.627885
0.776270	1.631752
0.776367	1.636397
0.776465	1.641655
0.776562	1.647820
0.776660	1.654257
0.776758	1.658244
0.776855	1.660935
0.776953	1.657772
0.777051	1.638644
0.777148	1.615972
0.777246	1.578513
0.777344	1.559127
0.777441	1.576573
0.777539	1.565051
0.777637	1.564309
0.777734	1.574857
0.777832	1.582845
0.777930	1.594739
0.778027	1.602875
0.778125	1.608991
0.778223	1.613547
0.778320	1.617450
0.778418	1.620822
0.778516	1.624252
0.778613	1.627805
0.778711	1.631452
0.778809	1.636259
0.778906	1.641820
0.779004	1.654278
0.779102	1.667050
0.779199	1.650537
0.779297	1.661789
0.779395	1.646562
0.779492	1.627167
0.779590	1.623527
0.779687	1.614478
0.779785	1.596547
0.779883	1.602355
0.779980	1.611201
0.780078	1.610633
0.780176	1.609245
0.780273	1.605041
0.780371	1.605805
0.780469	1.608628
0.780566	1.612529
0.780664	1.616387
0.780762	1.620264
0.780859	1.624263
0.780957	1.628097
0.781055	1.632705
0.781152	1.637004
0.781250	1.642380
0.781348	1.646895
0.781445	1.654147
0.781543	1.668481
0.781641	1.666310
0.781738	1.627115
0.781836	1.598582
0.781934	1.582152
0.782031	1.582840
0.782129	1.604259
0.782227	1.592983
0.782324	1.585211
0.782422	1.586787
0.782520	1.570257
0.782617	1.586124
0.782715	1.607241
0.782812	1.608219
0.782910	1.615459
0.783008	1.615239
0.783105	1.619669
0.783203	1.622556
0.783301	1.628151
0.783398	1.631952
0.783496	1.637266
0.783594	1.642026
0.783691	1.649355
0.783789	1.654648
0.783887	1.651610
0.783984	1.632199
0.784082	1.614748
0.784180	1.613497
0.784277	1.621981
0.784375	1.611226
0.784473	1.590138
0.784570	1.562747
0.784668	1.541669
0.784766	1.586833
0.784863	1.594811
0.784961	1.597000
0.785059	1.606121
0.785156	1.610858
0.785254	1.615624
0.785352	1.618458
0.785449	1.621627
0.785547	1.624159
0.785645	1.627212
0.785742	1.630135
0.785840	1.633640
0.785937	1.637574
0.786035	1.642135
0.786133	1.647474
0.786230	1.653675
0.786328	1.662354
0.786426	1.667098
0.786523	1.653708
0.786621	1.634305
0.786719	1.643240
0.786816	1.636294
0.786914	1.623154
0.787012	1.618924
0.787109	1.611801
0.787207	1.614688
0.787305	1.607595
0.787402	1.607910
0.787500	1.613851
0.787598	1.616532
0.787695	1.618664
0.787793	1.620803
0.787891	1.622862
0.787988	1.625528
0.788086	1.627719
0.788184	1.630958
0.788281	1.633306
0.788379	1.637206
0.788477	1.639650
0.788574	1.644696
0.788672	1.652741
0.788770	1.673150
0.788867	1.648849
0.788965	1.627794
0.789062	1.625033
0.789160	1.598431
0.789258	1.596324
0.789355	1.604712
0.789453	1.637430
0.789551	1.632925
0.789648	1.608562
0.789746	1.621708
0.789844	1.623072
0.789941	1.615528
0.790039	1.616065
0.790137	1.617614
0.790234	1.620447
0.790332	1.623222
0.790430	1.625745
0.790527	1.628628
0.790625	1.629946
0.790723	1.630678
0.790820	1.624321
0.790918	1.604216
0.791016	1.549862
0.791113	1.542959
0.791211	1.586782
0.791309	1.602004
0.791406	1.622199
0.791504	1.645351
0.791602	1.627879
0.791699	1.623853
0.791797	1.631068
0.791895	1.631529
0.791992	1.622510
0.792090	1.608385
0.792187	1.604908
0.792285	1.604721
0.792383	1.607551
0.792480	1.611303
0.792578	1.615337
0.792676	1.620360
0.792773	1.624501
0.792871	1.631464
0.792969	1.637300
0.793066	1.651532
0.793164	1.659442
0.793262	1.669396
0.793359	1.646333
0.793457	1.619110
0.793555	1.630810
0.793652	1.616645
0.793750	1.602338
0.793848	1.591110
0.793945	1.599368
0.794043	1.595637
0.794141	1.572570
0.794238	1.539057
0.794336	1.542592
0.794434	1.561723
0.794531	1.578439
0.794629	1.587264
0.794727	1.604733
0.794824	1.610688
0.794922	1.617694
0.795020	1.620895
0.795117	1.625973
0.795215	1.628989
0.795312	1.633757
0.795410	1.636663
0.795508	1.640606
0.795605	1.641797
0.795703	1.643802
0.795801	1.642775
0.795898	1.647023
0.795996	1.651975
0.796094	1.655122
0.796191	1.657254
0.796289	1.649313
0.796387	1.631417
0.796484	1.616654
0.796582	1.608209
0.796680	1.592254
0.796777	1.582895
0.796875	1.600336
0.796973	1.611996
0.797070	1.616177
0.797168	1.618068
0.797266	1.618048
0.797363	1.618948
0.797461	1.620144
0.797559	1.622653
0.797656	1.625035
0.797754	1.628378
0.797852	1.631460
0.797949	1.635198
0.798047	1.638713
0.798145	1.642420
0.798242	1.645757
0.798340	1.650289
0.798437	1.652214
0.798535	1.633227
0.798633	1.596491
0.798730	1.612335
0.798828	1.651652
0.798926	1.637491
0.799023	1.621139
0.799121	1.615470
0.799219	1.599824
0.799316	1.589117
0.799414	1.604323
0.799512	1.605827
0.799609	1.609375
0.799707	1.613062
0.799805	1.618102
0.799902	1.621749
0.800000	1.626409
0.800098	1.630421
0.800195	1.635819
0.800293	1.640727
0.800391	1.645810
0.800488	1.645726
0.800586	1.640305
0.800684	1.636903
0.800781	1.626406
0.800879	1.638958
0.800977	1.618115
0.801074	1.612612
0.801172	1.604925
0.801270	1.596693
0.801367	1.574724
0.801465	1.544804
0.801562	1.546497
0.801660	1.546097
0.801758	1.574451
0.801855	1.577328
0.801953	1.599886
0.802051	1.609662
0.802148	1.616542
0.802246	1.621183
0.802344	1.626121
0.802441	1.630136
0.802539	1.634717
0.802637	1.638707
0.802734	1.643231
0.802832	1.647804
0.802930	1.653797
0.803027	1.657245
0.803125	1.654129
0.803223	1.647483
0.803320	1.641655
0.803418	1.645746
0.803516	1.633826
0.803613	1.582534
0.803711	1.592441
0.803809	1.605162
0.803906	1.603493
0.804004	1.606236
0.804102	1.604979
0.804199	1.606797
0.804297	1.609035
0.804395	1.613544
0.804492	1.616985
0.804590	1.621265
0.804687	1.624651
0.804785	1.628958
0.804883	1.633058
0.804980	1.638659
0.805078	1.644537
0.805176	1.651823
0.805273	1.657895
0.805371	1.667217
0.805469	1.657411
0.805566	1.645899
0.805664	1.644823
0.805762	1.617167
0.805859	1.605179
0.805957	1.613453
0.806055	1.612853
0.806152	1.591769
0.806250	1.598650
0.806348	1.610319
0.806445	1.609272
0.806543	1.611005
0.806641	1.610986
0.806738	1.614065
0.806836	1.616100
0.806934	1.619301
0.807031	1.621361
0.807129	1.623939
0.807227	1.625593
0.807324	1.627120
0.807422	1.627967
0.807520	1.626258
0.807617	1.622516
0.807715	1.596251
0.807812	1.571599
0.807910	1.663190
0.808008	1.653139
0.808105	1.637605
0.808203	1.628174
0.808301	1.615238
0.808398	1.627823
0.808496	1.620512
0.808594	1.612537
0.808691	1.597015
0.808789	1.597205
0.808887	1.613198
0.808984	1.606109
0.809082	1.598961
0.809180	1.603425
0.809277	1.607776
0.809375	1.612710
0.809473	1.617868
0.809570	1.621862
0.809668	1.627625
0.809766	1.631347
0.809863	1.639589
0.809961	1.644834
0.810059	1.660134
0.810156	1.654568
0.810254	1.675000
0.810352	1.698206
0.810449	1.674768
0.810547	1.647822
0.810645	1.621624
0.810742	1.617158
0.810840	1.612008
0.810937	1.587341
0.811035	1.580556
0.811133	1.605101
0.811230	1.589974
0.811328	1.591832
0.811426	1.597838
0.811523	1.597726
0.811621	1.606886
0.811719	1.612177
0.811816	1.618188
0.811914	1.622459
0.812012	1.627567
0.812109	1.632023
0.812207	1.637980
0.812305	1.643602
0.812402	1.651970
0.812500	1.657262
0.812598	1.641299
0.812695	1.651543
0.812793	1.644547
0.812891	1.640788
0.812988	1.629090
0.813086	1.621786
0.813184	1.625461
0.813281	1.624820
0.813379	1.620838
0.813477	1.611884
0.813574	1.607214
0.813672	1.601999
0.813770	1.606961
0.813867	1.611116
0.813965	1.615240
0.814062	1.618326
0.814160	1.621965
0.814258	1.624472
0.814355	1.627967
0.814453	1.630679
0.814551	1.634775
0.814648	1.637883
0.814746	1.643108
0.814844	1.646580
0.814941	1.651773
0.815039	1.657515
0.815137	1.678505
0.815234	1.659218
0.815332	1.633648
0.815430	1.613115
0.815527	1.604178
0.815625	1.598145
0.815723	1.589576
0.815820	1.568437
0.815918	1.552103
0.816016	1.570861
0.816113	1.574125
0.816211	1.585077
0.816309	1.595592
0.816406	1.603609
0.816504	1.609401
0.816602	1.614568
0.816699	1.618860
0.816797	1.622859
0.816895	1.626377
0.816992	1.630028
0.817090	1.633869
0.817187	1.638318
0.817285	1.644157
0.817383	1.650360
0.817480	1.652777
0.817578	1.645522
0.817676	1.625975
0.817773	1.600772
0.817871	1.586328
0.817969	1.575679
0.818066	1.568632
0.818164	1.560249
0.818262	1.539989
0.818359	1.547126
0.818457	1.585604
0.818555	1.601101
0.818652	1.604805
0.818750	1.606729
0.818848	1.610598
0.818945	1.615491
0.819043	1.619899
0.819141	1.624848
0.819238	1.629786
0.819336	1.635902
0.819434	1.643241
0.819531	1.652695
0.819629	1.661564
0.819727	1.664422
0.819824	1.648720
0.819922	1.636486
0.820020	1.641003
0.820117	1.612642
0.820215	1.609725
0.820312	1.608555
0.820410	1.610045
0.820508	1.599697
0.820605	1.608926
0.820703	1.615269
0.820801	1.611490
0.820898	1.613457
0.820996	1.611817
0.821094	1.614328
0.821191	1.615158
0.821289	1.618486
0.821387	1.620636
0.821484	1.624064
0.821582	1.626716
0.821680	1.630709
0.821777	1.634415
0.821875	1.639925
0.821973	1.645663
0.822070	1.651031
0.822168	1.653018
0.822266	1.654345
0.822363	1.650189
0.822461	1.643466
0.822559	1.633923
0.822656	1.628702
0.822754	1.610934
0.822852	1.564830
0.822949	1.523503
0.823047	1.531753
0.823145	1.534965
0.823242	1.553052
0.823340	1.576391
0.823437	1.581543
0.823535	1.593396
0.823633	1.600463
0.823730	1.609594
0.823828	1.614126
0.823926	1.620856
0.824023	1.623503
0.824121	1.629958
0.824219	1.632566
0.824316	1.642311
0.824414	1.647473
0.824512	1.666307
0.824609	1.666495
0.824707	1.661556
0.824805	1.645888
0.824902	1.621083
0.825000	1.586117
0.825098	1.589882
0.825195	1.601848
0.825293	1.581283
0.825391	1.583544
0.825488	1.580920
0.825586	1.589496
0.825684	1.598819
0.825781	1.606966
0.825879	1.610932
0.825977	1.615563
0.826074	1.618416
0.826172	1.622874
0.826270	1.626284
0.826367	1.631458
0.826465	1.635694
0.826562	1.641530
0.826660	1.645308
0.826758	1.648265
0.826855	1.643836
0.826953	1.645903
0.827051	1.622862
0.827148	1.574859
0.827246	1.570156
0.827344	1.608401
0.827441	1.619056
0.827539	1.584908
0.827637	1.559091
0.827734	1.542680
0.827832	1.555719
0.827930	1.561472
0.828027	1.581648
0.828125	1.601886
0.828223	1.608348
0.828320	1.614179
0.828418	1.618142
0.828516	1.622300
0.828613	1.626764
0.828711	1.631087
0.828809	1.637990
0.828906	1.645131
0.829004	1.669314
0.829102	1.681107
0.829199	1.659796
0.829297	1.640021
0.829395	1.631822
0.829492	1.622524
0.829590	1.596993
0.829687	1.593363
0.829785	1.614802
0.829883	1.620441
0.829980	1.608958
0.830078	1.605493
0.830176	1.610648
0.830273	1.611782
0.830371	1.608471
0.830469	1.611756
0.830566	1.614524
0.830664	1.617174
0.830762	1.620167
0.830859	1.622842
0.830957	1.626584
0.831055	1.629824
0.831152	1.635316
0.831250	1.640297
0.831348	1.651322
0.831445	1.662300
0.831543	1.671330
0.831641	1.683510
0.831738	1.664732
0.831836	1.667646
0.831934	1.672606
0.832031	1.644257
0.832129	1.608064
0.832227	1.591772
0.832324	1.575434
0.832422	1.571241
0.832520	1.568025
0.832617	1.569904
0.832715	1.562577
0.832812	1.576833
0.832910	1.599250
0.833008	1.604477
0.833105	1.611490
0.833203	1.615740
0.833301	1.620495
0.833398	1.623926
0.833496	1.627971
0.833594	1.631228
0.833691	1.635467
0.833789	1.639567
0.833887	1.645350
0.833984	1.651810
0.834082	1.663475
0.834180	1.670963
0.834277	1.650240
0.834375	1.642684
0.834473	1.638903
0.834570	1.630612
0.834668	1.626651
0.834766	1.621120
0.834863	1.618906
0.834961	1.618788
0.835059	1.618790
0.835156	1.617994
0.835254	1.617720
0.835352	1.617930
0.835449	1.619293
0.835547	1.621067
0.835645	1.623514
0.835742	1.626272
0.835840	1.630049
0.835937	1.634654
0.836035	1.641808
0.836133	1.650258
0.836230	1.660181
0.836328	1.654733
0.836426	1.661059
0.836523	1.668572
0.836621	1.660894
0.836719	1.657452
0.836816	1.633341
0.836914	1.619054
0.837012	1.598113
0.837109	1.596633
0.837207	1.621622
0.837305	1.610517
0.837402	1.608824
0.837500	1.610258
0.837598	1.612670
0.837695	1.614614
0.837793	1.617032
0.837891	1.619216
0.837988	1.621716
0.838086	1.623926
0.838184	1.626613
0.838281	1.629537
0.838379	1.633470
0.838477	1.638984
0.838574	1.644550
0.838672	1.659161
0.838770	1.638321
0.838867	1.611084
0.838965	1.610857
0.839062	1.618766
0.839160	1.613087
0.839258	1.616111
0.839355	1.602198
0.839453	1.590334
0.839551	1.567659
0.839648	1.545222
0.839746	1.586162
0.839844	1.595559
0.839941	1.593106
0.840039	1.603837
0.840137	1.607676
0.840234	1.610559
0.840332	1.613581
0.840430	1.617897
0.840527	1.621608
0.840625	1.625706
0.840723	1.629801
0.840820	1.634597
0.840918	1.640769
0.841016	1.648334
0.841113	1.654729
0.841211	1.645345
0.841309	1.636614
0.841406	1.634144
0.841504	1.615612
0.841602	1.625203
0.841699	1.626628
0.841797	1.608689
0.841895	1.597339
0.841992	1.585711
0.842090	1.573963
0.842187	1.565583
0.842285	1.566481
0.842383	1.580836
0.842480	1.596350
0.842578	1.604662
0.842676	1.611372
0.842773	1.616071
0.842871	1.620552
0.842969	1.624360
0.843066	1.627909
0.843164	1.631462
0.843262	1.634692
0.843359	1.638178
0.843457	1.640841
0.843555	1.644276
0.843652	1.646635
0.843750	1.654611
0.843848	1.657440
0.843945	1.653564
0.844043	1.650958
0.844141	1.648126
0.844238	1.640510
0.844336	1.635466
0.844434	1.628416
0.844531	1.626569
0.844629	1.635854
0.844727	1.633771
0.844824	1.629028
0.844922	1.623345
0.845020	1.617483
0.845117	1.615847
0.845215	1.619157
0.845312	1.621886
0.845410	1.625910
0.845508	1.629227
0.845605	1.634012
0.845703	1.637830
0.845801	1.643433
0.845898	1.646383
0.845996	1.650864
0.846094	1.645027
0.846191	1.630988
0.846289	1.630102
0.846387	1.621158
0.846484	1.606702
0.846582	1.593537
0.846680	1.584493
0.846777	1.595651
0.846875	1.606003
0.846973	1.605153
0.847070	1.622448
0.847168	1.614694
0.847266	1.604634
0.847363	1.612752
0.847461	1.615285
0.847559	1.620235
0.847656	1.622691
0.847754	1.626716
0.847852	1.629327
0.847949	1.633369
0.848047	1.636481
0.848145	1.641234
0.848242	1.644797
0.848340	1.648633
0.848437	1.640289
0.848535	1.628875
0.848633	1.623879
0.848730	1.629675
0.848828	1.620635
0.848926	1.602768
0.849023	1.577789
0.849121	1.576210
0.849219	1.561309
0.849316	1.558635
0.849414	1.561843
0.849512	1.564956
0.849609	1.581096
0.849707	1.598549
0.849805	1.604279
0.849902	1.608068
0.850000	1.613592
0.850098	1.617940
0.850195	1.624009
0.850293	1.627955
0.850391	1.633680
0.850488	1.637007
0.850586	1.642224
0.850684	1.641568
0.850781	1.639588
0.850879	1.622040
0.850977	1.598923
0.851074	1.581017
0.851172	1.586537
0.851270	1.604952
0.851367	1.616346
0.851465	1.613592
0.851562	1.579062
0.851660	1.568537
0.851758	1.544460
0.851855	1.548396
0.851953	1.580461
0.852051	1.549571
0.852148	1.535692
0.852246	1.592036
0.852344	1.612379
0.852441	1.621085
0.852539	1.626510
0.852637	1.632269
0.852734	1.637564
0.852832	1.644248
0.852930	1.650093
0.853027	1.655282
0.853125	1.655703
0.853223	1.651036
0.853320	1.644997
0.853418	1.642468
0.853516	1.632372
0.853613	1.612629
0.853711	1.599767
0.853809	1.612340
0.853906	1.604062
0.854004	1.598995
0.854102	1.612283
0.854199	1.613079
0.854297	1.616945
0.854395	1.617802
0.854492	1.619873
0.854590	1.620786
0.854687	1.622724
0.854785	1.624781
0.854883	1.627417
0.854980	1.630528
0.855078	1.633786
0.855176	1.637845
0.855273	1.641576
0.855371	1.645974
0.855469	1.647142
0.855566	1.642565
0.855664	1.619727
0.855762	1.626060
0.855859	1.620082
0.855957	1.633817
0.856055	1.650830
0.856152	1.621497
0.856250	1.609889
0.856348	1.583505
0.856445	1.560329
0.856543	1.542772
0.856641	1.565308
0.856738	1.589416
0.856836	1.597546
0.856934	1.605380
0.857031	1.610447
0.857129	1.615579
0.857227	1.619635
0.857324	1.623818
0.857422	1.627690
0.857520	1.631771
0.857617	1.636323
0.857715	1.641051
0.857812	1.648467
0.857910	1.646889
0.858008	1.636348
0.858105	1.650648
0.858203	1.652189
0.858301	1.639230
0.858398	1.634672
0.858496	1.611984
0.858594	1.603316
0.858691	1.602424
0.858789	1.611958
0.858887	1.602180
0.858984	1.606931
0.859082	1.614561
0.859180	1.616380
0.859277	1.617127
0.859375	1.618255
0.859473	1.620365
0.859570	1.622843
0.859668	1.626061
0.859766	1.629246
0.859863	1.633282
0.859961	1.637605
0.860059	1.643388
0.860156	1.649099
0.860254	1.655496
0.860352	1.656407
0.860449	1.648840
0.860547	1.645931
0.860645	1.650262
0.860742	1.647878
0.860840	1.636297
0.860937	1.620792
0.861035	1.606746
0.861133	1.607158
0.861230	1.593081
0.861328	1.596871
0.861426	1.607579
0.861523	1.604863
0.861621	1.604787
0.861719	1.607889
0.861816	1.612363
0.861914	1.616815
0.862012	1.621270
0.862109	1.625246
0.862207	1.629553
0.862305	1.633611
0.862402	1.638771
0.862500	1.644557
0.862598	1.653978
0.862695	1.663976
0.862793	1.666639
0.862891	1.668981
0.862988	1.655313
0.863086	1.630410
0.863184	1.618145
0.863281	1.614802
0.863379	1.601864
0.863477	1.593483
0.863574	1.588267
0.863672	1.601260
0.863770	1.622960
0.863867	1.612445
0.863965	1.609686
0.864062	1.613234
0.864160	1.615540
0.864258	1.619303
0.864355	1.621985
0.864453	1.625598
0.864551	1.628276
0.864648	1.632402
0.864746	1.635335
0.864844	1.640076
0.864941	1.642502
0.865039	1.647152
0.865137	1.642919
0.865234	1.628965
0.865332	1.628584
0.865430	1.646542
0.865527	1.659164
0.865625	1.647387
0.865723	1.605909
0.865820	1.606071
0.865918	1.587602
0.866016	1.582393
0.866113	1.599275
0.866211	1.605035
0.866309	1.612369
0.866406	1.614485
0.866504	1.617290
0.866602	1.619273
0.866699	1.622250
0.866797	1.624859
0.866895	1.628127
0.866992	1.631890
0.867090	1.636608
0.867187	1.643296
0.867285	1.650978
0.867383	1.661334
0.867480	1.663263
0.867578	1.647474
0.867676	1.631832
0.867773	1.634866
0.867871	1.633190
0.867969	1.618630
0.868066	1.614290
0.868164	1.611087
0.868262	1.602478
0.868359	1.601064
0.868457	1.605675
0.868555	1.607978
0.868652	1.611544
0.868750	1.613921
0.868848	1.617161
0.868945	1.619007
0.869043	1.622224
0.869141	1.623957
0.869238	1.627633
0.869336	1.629338
0.869434	1.634072
0.869531	1.636453
0.869629	1.643597
0.869727	1.646837
0.869824	1.656423
0.869922	1.638479
0.870020	1.654925
0.870117	1.665416
0.870215	1.635017
0.870312	1.639328
0.870410	1.621954
0.870508	1.609006
0.870605	1.597596
0.870703	1.587182
0.870801	1.576882
0.870898	1.579075
0.870996	1.586547
0.871094	1.598423
0.871191	1.606406
0.871289	1.612156
0.871387	1.616165
0.871484	1.620246
0.871582	1.623885
0.871680	1.627490
0.871777	1.631417
0.871875	1.635426
0.871973	1.640641
0.872070	1.645766
0.872168	1.652593
0.872266	1.656847
0.872363	1.656788
0.872461	1.650334
0.872559	1.625435
0.872656	1.628232
0.872754	1.604616
0.872852	1.611136
0.872949	1.614818
0.873047	1.616997
0.873145	1.615917
0.873242	1.614665
0.873340	1.616123
0.873437	1.615158
0.873535	1.612594
0.873633	1.612104
0.873730	1.615332
0.873828	1.617812
0.873926	1.621836
0.874023	1.624495
0.874121	1.628972
0.874219	1.631506
0.874316	1.636315
0.874414	1.638202
0.874512	1.642935
0.874609	1.644105
0.874707	1.651246
0.874805	1.629383
0.874902	1.638047
0.875000	1.649427
0.875098	1.649607
0.875195	1.642633
0.875293	1.627762
0.875391	1.633170
0.875488	1.629079
0.875586	1.624026
0.875684	1.620069
0.875781	1.620914
0.875879	1.621681
0.875977	1.623983
0.876074	1.624912
0.876172	1.626951
0.876270	1.628368
0.876367	1.631141
0.876465	1.633577
0.876562	1.637509
0.876660	1.641702
0.876758	1.647689
0.876855	1.654606
0.876953	1.670997
0.877051	1.665783
0.877148	1.637407
0.877246	1.618040
0.877344	1.649201
0.877441	1.635710
0.877539	1.627178
0.877637	1.626949
0.877734	1.625180
0.877832	1.625388
0.877930	1.618668
0.878027	1.618480
0.878125	1.619075
0.878223	1.622315
0.878320	1.622167
0.878418	1.623073
0.878516	1.622731
0.878613	1.625109
0.878711	1.625575
0.878809	1.628912
0.878906	1.629791
0.879004	1.634767
0.879102	1.636695
0.879199	1.644938
0.879297	1.648207
0.879395	1.664568
0.879492	1.639939
0.879590	1.645918
0.879687	1.653376
0.879785	1.620844
0.879883	1.615706
0.879980	1.637762
0.880078	1.651812
0.880176	1.631013
0.880273	1.627206
0.880371	1.623058
0.880469	1.617443
0.880566	1.616477
0.880664	1.617154
0.880762	1.618998
0.880859	1.621176
0.880957	1.624272
0.881055	1.626921
0.881152	1.630839
0.881250	1.633683
0.881348	1.638505
0.881445	1.640816
0.881543	1.645029
0.881641	1.644953
0.881738	1.643839
0.881836	1.626310
0.881934	1.615620
0.882031	1.565193
0.882129	1.590990
0.882227	1.621038
0.882324	1.602599
0.882422	1.588611
0.882520	1.586356
0.882617	1.588521
0.882715	1.579925
0.882812	1.554982
0.882910	1.583444
0.883008	1.610210
0.883105	1.610413
0.883203	1.612842
0.883301	1.613825
0.883398	1.620104
0.883496	1.624444
0.883594	1.631339
0.883691	1.636978
0.883789	1.644907
0.883887	1.653352
0.883984	1.666417
0.884082	1.671961
0.884180	1.654538
0.884277	1.622858
0.884375	1.603314
0.884473	1.609683
0.884570	1.614652
0.884668	1.608791
0.884766	1.605372
0.884863	1.610175
0.884961	1.619773
0.885059	1.621734
0.885156	1.624344
0.885254	1.619170
0.885352	1.610109
0.885449	1.609518
0.885547	1.611929
0.885645	1.614805
0.885742	1.618160
0.885840	1.621070
0.885937	1.624663
0.886035	1.627509
0.886133	1.631514
0.886230	1.634828
0.886328	1.640252
0.886426	1.646623
0.886523	1.659082
0.886621	1.646982
0.886719	1.660493
0.886816	1.658061
0.886914	1.643184
0.887012	1.610258
0.887109	1.601656
0.887207	1.602175
0.887305	1.578389
0.887402	1.581182
0.887500	1.595677
0.887598	1.596034
0.887695	1.624056
0.887793	1.644348
0.887891	1.632053
0.887988	1.627456
0.888086	1.621980
0.888184	1.623098
0.888281	1.623967
0.888379	1.627522
0.888477	1.629942
0.888574	1.633724
0.888672	1.636763
0.888770	1.640989
0.888867	1.644698
0.888965	1.649658
0.889062	1.651700
0.889160	1.647721
0.889258	1.641460
0.889355	1.638268
0.889453	1.634218
0.889551	1.628679
0.889648	1.626002
0.889746	1.626576
0.889844	1.626628
0.889941	1.623820
0.890039	1.620914
0.890137	1.619899
0.890234	1.620419
0.890332	1.621755
0.890430	1.623774
0.890527	1.626140
0.890625	1.628938
0.890723	1.631987
0.890820	1.635304
0.890918	1.638563
0.891016	1.641859
0.891113	1.644733
0.891211	1.647939
0.891309	1.651336
0.891406	1.654544
0.891504	1.652768
0.891602	1.645862
0.891699	1.639583
0.891797	1.636261
0.891895	1.634519
0.891992	1.630420
0.892090	1.625406
0.892187	1.619042
0.892285	1.620361
0.892383	1.621571
0.892480	1.622673
0.892578	1.623362
0.892676	1.624487
0.892773	1.625586
0.892871	1.627192
0.892969	1.628839
0.893066	1.631295
0.893164	1.634080
0.893262	1.638538
0.893359	1.644267
0.893457	1.653008
0.893555	1.660100
0.893652	1.667890
0.893750	1.665537
0.893848	1.659163
0.893945	1.652359
0.894043	1.630537
0.894141	1.609321
0.894238	1.598485
0.894336	1.593664
0.894434	1.593951
0.894531	1.587601
0.894629	1.583059
0.894727	1.586889
0.894824	1.596381
0.894922	1.603817
0.895020	1.609297
0.895117	1.613589
0.895215	1.616841
0.895312	1.620437
0.895410	1.623173
0.895508	1.627043
0.895605	1.629665
0.895703	1.634422
0.895801	1.638040
0.895898	1.645636
0.895996	1.652215
0.896094	1.661945
0.896191	1.647990
0.896289	1.640387
0.896387	1.631525
0.896484	1.623153
0.896582	1.595126
0.896680	1.581815
0.896777	1.580452
0.896875	1.584085
0.896973	1.577990
0.897070	1.568421
0.897168	1.566650
0.897266	1.582392
0.897363	1.606216
0.897461	1.608527
0.897559	1.605090
0.897656	1.610705
0.897754	1.616303
0.897852	1.619939
0.897949	1.624093
0.898047	1.628176
0.898145	1.631373
0.898242	1.635214
0.898340	1.637195
0.898437	1.640529
0.898535	1.640892
0.898633	1.644209
0.898730	1.642098
0.898828	1.642000
0.898926	1.632992
0.899023	1.632657
0.899121	1.612830
0.899219	1.650006
0.899316	1.645090
0.899414	1.634221
0.899512	1.643385
0.899609	1.629153
0.899707	1.646754
0.899805	1.625743
0.899902	1.626941
0.900000	1.623511
0.900098	1.628028
0.900195	1.628421
0.900293	1.633808
0.900391	1.636761
0.900488	1.643896
0.900586	1.649976
0.900684	1.658259
0.900781	1.661475
0.900879	1.658613
0.900977	1.644043
0.901074	1.631969
0.901172	1.622376
0.901270	1.617893
0.901367	1.616112
0.901465	1.609754
0.901562	1.600412
0.901660	1.603200
0.901758	1.611185
0.901855	1.619845
0.901953	1.620239
0.902051	1.617176
0.902148	1.616963
0.902246	1.618771
0.902344	1.620426
0.902441	1.622555
0.902539	1.624460
0.902637	1.627121
0.902734	1.629700
0.902832	1.633449
0.902930	1.636888
0.903027	1.640505
0.903125	1.639665
0.903223	1.634521
0.903320	1.628140
0.903418	1.642670
0.903516	1.654799
0.903613	1.640379
0.903711	1.622069
0.903809	1.609152
0.903906	1.619338
0.904004	1.631448
0.904102	1.599965
0.904199	1.607989
0.904297	1.618932
0.904395	1.624482
0.904492	1.619139
0.904590	1.616242
0.904687	1.614764
0.904785	1.614553
0.904883	1.620288
0.904980	1.623239
0.905078	1.629247
0.905176	1.632755
0.905273	1.640329
0.905371	1.645510
0.905469	1.656534
0.905566	1.643341
0.905664	1.617720
0.905762	1.627090
0.905859	1.616815
0.905957	1.619226
0.906055	1.623656
0.906152	1.613511
0.906250	1.590161
0.906348	1.602395
0.906445	1.600519
0.906543	1.593242
0.906641	1.601087
0.906738	1.605619
0.906836	1.610781
0.906934	1.614206
0.907031	1.617789
0.907129	1.620512
0.907227	1.623060
0.907324	1.625778
0.907422	1.628280
0.907520	1.631772
0.907617	1.634722
0.907715	1.639507
0.907812	1.643299
0.907910	1.650247
0.908008	1.655155
0.908105	1.656440
0.908203	1.643798
0.908301	1.642407
0.908398	1.634233
0.908496	1.639055
0.908594	1.614135
0.908691	1.605338
0.908789	1.618213
0.908887	1.636896
0.908984	1.627844
0.909082	1.603652
0.909180	1.605861
0.909277	1.609569
0.909375	1.613650
0.909473	1.616042
0.909570	1.620015
0.909668	1.622685
0.909766	1.626481
0.909863	1.629794
0.909961	1.634084
0.910059	1.639245
0.910156	1.646222
0.910254	1.654278
0.910352	1.651524
0.910449	1.643952
0.910547	1.631471
0.910645	1.640170
0.910742	1.627835
0.910840	1.613583
0.910937	1.617377
0.911035	1.613193
0.911133	1.631351
0.911230	1.618979
0.911328	1.615316
0.911426	1.620378
0.911523	1.621224
0.911621	1.623024
0.911719	1.622481
0.911816	1.624426
0.911914	1.624441
0.912012	1.626472
0.912109	1.628320
0.912207	1.632162
0.912305	1.636455
0.912402	1.643182
0.912500	1.651394
0.912598	1.661421
0.912695	1.668040
0.912793	1.670052
0.912891	1.661842
0.912988	1.645258
0.913086	1.631003
0.913184	1.626946
0.913281	1.619102
0.913379	1.607377
0.913477	1.593338
0.913574	1.577748
0.913672	1.573785
0.913770	1.582492
0.913867	1.591739
0.913965	1.603218
0.914062	1.608500
0.914160	1.613137
0.914258	1.616485
0.914355	1.620776
0.914453	1.624404
0.914551	1.628865
0.914648	1.633211
0.914746	1.638414
0.914844	1.643324
0.914941	1.647851
0.915039	1.649120
0.915137	1.648063
0.915234	1.645515
0.915332	1.645146
0.915430	1.645492
0.915527	1.648206
0.915625	1.640235
0.915723	1.627207
0.915820	1.618992
0.915918	1.620017
0.916016	1.620239
0.916113	1.624068
0.916211	1.621989
0.916309	1.620338
0.916406	1.623117
0.916504	1.623522
0.916602	1.625387
0.916699	1.626838
0.916797	1.629225
0.916895	1.631472
0.916992	1.634649
0.917090	1.637812
0.917187	1.640830
0.917285	1.642703
0.917383	1.643551
0.917480	1.643312
0.917578	1.642626
0.917676	1.642134
0.917773	1.642332
0.917871	1.642512
0.917969	1.639485
0.918066	1.637590
0.918164	1.634886
0.918262	1.637411
0.918359	1.633965
0.918457	1.623522
0.918555	1.623040
0.918652	1.623022
0.918750	1.624166
0.918848	1.624564
0.918945	1.625467
0.919043	1.625612
0.919141	1.626844
0.919238	1.627616
0.919336	1.629481
0.919434	1.630080
0.919531	1.631373
0.919629	1.629098
0.919727	1.624327
0.919824	1.601565
0.919922	1.578715
0.920020	1.581348
0.920117	1.573995
0.920215	1.596342
0.920312	1.603407
0.920410	1.571451
0.920508	1.590900
0.920605	1.608862
0.920703	1.587777
0.920801	1.583637
0.920898	1.591931
0.920996	1.601305
0.921094	1.614307
0.921191	1.627295
0.921289	1.602592
0.921387	1.583799
0.921484	1.593377
0.921582	1.606418
0.921680	1.618253
0.921777	1.626266
0.921875	1.634337
0.921973	1.639999
0.922070	1.646485
0.922168	1.649450
0.922266	1.655848
0.922363	1.639841
0.922461	1.629092
0.922559	1.630692
0.922656	1.632457
0.922754	1.627298
0.922852	1.625349
0.922949	1.618978
0.923047	1.619516
0.923145	1.604275
0.923242	1.601870
0.923340	1.614586
0.923437	1.614058
0.923535	1.618345
0.923633	1.619026
0.923730	1.622380
0.923828	1.623610
0.923926	1.626794
0.924023	1.628724
0.924121	1.632120
0.924219	1.634828
0.924316	1.638455
0.924414	1.641175
0.924512	1.644186
0.924609	1.645911
0.924707	1.648072
0.924805	1.650604
0.924902	1.652052
0.925000	1.647170
0.925098	1.642602
0.925195	1.637376
0.925293	1.636536
0.925391	1.634601
0.925488	1.632131
0.925586	1.627653
0.925684	1.622718
0.925781	1.621568
0.925879	1.621838
0.925977	1.622631
0.926074	1.623482
0.926172	1.624598
0.926270	1.626190
0.926367	1.628081
0.926465	1.630460
0.926562	1.632825
0.926660	1.635901
0.926758	1.638637
0.926855	1.642391
0.926953	1.646769
0.927051	1.656269
0.927148	1.664080
0.927246	1.657703
0.927344	1.649916
0.927441	1.630346
0.927539	1.610093
0.927637	1.606688
0.927734	1.585009
0.927832	1.576614
0.927930	1.574145
0.928027	1.589037
0.928125	1.595133
0.928223	1.605112
0.928320	1.610171
0.928418	1.613917
0.928516	1.617493
0.928613	1.620262
0.928711	1.623895
0.928809	1.626427
0.928906	1.630488
0.929004	1.632747
0.929102	1.637619
0.929199	1.638997
0.929297	1.642268
0.929395	1.629646
0.929492	1.622971
0.929590	1.596149
0.929687	1.601135
0.929785	1.610870
0.929883	1.611412
0.929980	1.603138
0.930078	1.607149
0.930176	1.596234
0.930273	1.583827
0.930371	1.584457
0.930469	1.563437
0.930566	1.567263
0.930664	1.574185
0.930762	1.563605
0.930859	1.586148
0.930957	1.605905
0.931055	1.610484
0.931152	1.618536
0.931250	1.622521
0.931348	1.628223
0.931445	1.632569
0.931543	1.637992
0.931641	1.642657
0.931738	1.647354
0.931836	1.650312
0.931934	1.655781
0.932031	1.649904
0.932129	1.633065
0.932227	1.646678
0.932324	1.632708
0.932422	1.636435
0.932520	1.615853
0.932617	1.628371
0.932715	1.633310
0.932812	1.601889
0.932910	1.618254
0.933008	1.615084
0.933105	1.610925
0.933203	1.609196
0.933301	1.613657
0.933398	1.615805
0.933496	1.621291
0.933594	1.624099
0.933691	1.630108
0.933789	1.634113
0.933887	1.641381
0.933984	1.648863
0.934082	1.670708
0.934180	1.669584
0.934277	1.676763
0.934375	1.659533
0.934473	1.642967
0.934570	1.644926
0.934668	1.629899
0.934766	1.602311
0.934863	1.588274
0.934961	1.608976
0.935059	1.597112
0.935156	1.600822
0.935254	1.606114
0.935352	1.611416
0.935449	1.614366
0.935547	1.618528
0.935645	1.620224
0.935742	1.622612
0.935840	1.622851
0.935937	1.624781
0.936035	1.625325
0.936133	1.628391
0.936230	1.630176
0.936328	1.634994
0.936426	1.637960
0.936523	1.645120
0.936621	1.649309
0.936719	1.650995
0.936816	1.628037
0.936914	1.621612
0.937012	1.639838
0.937109	1.640474
0.937207	1.625685
0.937305	1.619198
0.937402	1.603390
0.937500	1.585256
0.937598	1.590660
0.937695	1.598297
0.937793	1.601647
0.937891	1.603049
0.937988	1.613846
0.938086	1.616908
0.938184	1.616069
0.938281	1.618757
0.938379	1.620797
0.938477	1.625570
0.938574	1.627628
0.938672	1.634940
0.938770	1.640096
0.938867	1.653267
0.938965	1.654188
0.939062	1.683766
0.939160	1.662455
0.939258	1.638418
0.939355	1.652874
0.939453	1.633028
0.939551	1.634792
0.939648	1.614608
0.939746	1.602454
0.939844	1.589130
0.939941	1.585188
0.940039	1.581464
0.940137	1.582995
0.940234	1.588762
0.940332	1.601602
0.940430	1.607003
0.940527	1.611560
0.940625	1.614491
0.940723	1.618643
0.940820	1.622463
0.940918	1.626613
0.941016	1.631616
0.941113	1.636788
0.941211	1.647038
0.941309	1.656009
0.941406	1.668900
0.941504	1.676190
0.941602	1.651579
0.941699	1.648965
0.941797	1.643871
0.941895	1.631381
0.941992	1.619770
0.942090	1.629171
0.942187	1.633028
0.942285	1.622699
0.942383	1.619115
0.942480	1.620078
0.942578	1.618263
0.942676	1.612819
0.942773	1.614729
0.942871	1.615734
0.942969	1.617919
0.943066	1.620128
0.943164	1.623548
0.943262	1.627529
0.943359	1.631694
0.943457	1.636920
0.943555	1.641810
0.943652	1.648356
0.943750	1.653746
0.943848	1.662691
0.943945	1.665320
0.944043	1.662447
0.944141	1.660122
0.944238	1.647614
0.944336	1.633490
0.944434	1.623741
0.944531	1.613146
0.944629	1.618190
0.944727	1.604384
0.944824	1.588029
0.944922	1.609712
0.945020	1.610458
0.945117	1.614255
0.945215	1.615422
0.945312	1.619624
0.945410	1.621169
0.945508	1.625244
0.945605	1.627138
0.945703	1.631741
0.945801	1.634241
0.945898	1.639713
0.945996	1.642480
0.946094	1.648608
0.946191	1.650381
0.946289	1.657771
0.946387	1.653303
0.946484	1.641213
0.946582	1.640164
0.946680	1.631401
0.946777	1.610255
0.946875	1.610224
0.946973	1.617466
0.947070	1.596218
0.947168	1.592527
0.947266	1.599036
0.947363	1.605666
0.947461	1.608677
0.947559	1.618113
0.947656	1.618926
0.947754	1.620930
0.947852	1.621782
0.947949	1.625285
0.948047	1.627330
0.948145	1.630704
0.948242	1.633014
0.948340	1.636702
0.948437	1.639260
0.948535	1.643396
0.948633	1.646231
0.948730	1.651003
0.948828	1.654334
0.948926	1.657428
0.949023	1.655417
0.949121	1.648493
0.949219	1.634802
0.949316	1.627909
0.949414	1.616142
0.949512	1.597352
0.949609	1.600423
0.949707	1.610344
0.949805	1.628763
0.949902	1.635379
0.950000	1.627215
0.950098	1.624949
0.950195	1.621429
0.950293	1.621691
0.950391	1.622974
0.950488	1.626068
0.950586	1.629597
0.950684	1.634365
0.950781	1.639896
0.950879	1.646732
0.950977	1.654745
0.951074	1.658344
0.951172	1.658164
0.951270	1.668580
0.951367	1.657885
0.951465	1.636436
0.951562	1.637443
0.951660	1.621732
0.951758	1.610475
0.951855	1.617373
0.951953	1.627331
0.952051	1.615715
0.952148	1.617395
0.952246	1.619086
0.952344	1.620662
0.952441	1.620228
0.952539	1.621471
0.952637	1.622930
0.952734	1.625806
0.952832	1.628352
0.952930	1.632144
0.953027	1.635528
0.953125	1.640267
0.953223	1.642911
0.953320	1.644303
0.953418	1.602719
0.953516	1.567763
0.953613	1.605371
0.953711	1.611690
0.953809	1.601339
0.953906	1.609218
0.954004	1.615726
0.954102	1.588397
0.954199	1.568753
0.954297	1.541968
0.954395	1.533809
0.954492	1.571626
0.954590	1.587305
0.954687	1.599826
0.954785	1.606942
0.954883	1.613809
0.954980	1.618453
0.955078	1.622631
0.955176	1.626818
0.955273	1.630236
0.955371	1.635216
0.955469	1.638132
0.955566	1.644003
0.955664	1.646061
0.955762	1.653571
0.955859	1.642792
0.955957	1.632725
0.956055	1.628933
0.956152	1.626674
0.956250	1.630910
0.956348	1.611022
0.956445	1.608014
0.956543	1.597535
0.956641	1.593278
0.956738	1.608039
0.956836	1.608968
0.956934	1.606748
0.957031	1.615275
0.957129	1.618015
0.957227	1.620594
0.957324	1.620877
0.957422	1.623270
0.957520	1.625348
0.957617	1.629091
0.957715	1.632262
0.957812	1.636760
0.957910	1.640364
0.958008	1.644589
0.958105	1.643825
0.958203	1.628259
0.958301	1.627247
0.958398	1.662229
0.958496	1.653376
0.958594	1.635288
0.958691	1.627450
0.958789	1.617580
0.958887	1.612695
0.958984	1.619059
0.959082	1.632937
0.959180	1.622465
0.959277	1.621377
0.959375	1.618765
0.959473	1.618960
0.959570	1.619820
0.959668	1.622168
0.959766	1.624523
0.959863	1.627671
0.959961	1.631018
0.960059	1.635023
0.960156	1.639910
0.960254	1.645321
0.960352	1.650572
0.960449	1.655047
0.960547	1.653551
0.960645	1.631509
0.960742	1.631483
0.960840	1.628073
0.960937	1.614627
0.961035	1.597608
0.961133	1.571313
0.961230	1.577014
0.961328	1.595348
0.961426	1.598763
0.961523	1.597651
0.961621	1.603567
0.961719	1.608551
0.961816	1.613264
0.961914	1.617577
0.962012	1.621025
0.962109	1.625044
0.962207	1.628215
0.962305	1.633070
0.962402	1.636630
0.962500	1.643575
0.962598	1.648995
0.962695	1.660933
0.962793	1.660552
0.962891	1.664919
0.962988	1.655653
0.963086	1.665919
0.963184	1.654160
0.963281	1.628114
0.963379	1.619137
0.963477	1.608306
0.963574	1.599210
0.963672	1.585822
0.963770	1.593822
0.963867	1.592301
0.963965	1.595499
0.964062	1.602865
0.964160	1.606087
0.964258	1.609790
0.964355	1.614567
0.964453	1.618956
0.964551	1.623395
0.964648	1.627632
0.964746	1.632788
0.964844	1.638459
0.964941	1.654468
0.965039	1.669149
0.965137	1.628565
0.965234	1.642312
0.965332	1.647437
0.965430	1.648996
0.965527	1.645577
0.965625	1.614863
0.965723	1.601601
0.965820	1.594726
0.965918	1.584152
0.966016	1.565547
0.966113	1.549321
0.966211	1.548714
0.966309	1.559523
0.966406	1.580898
0.966504	1.596013
0.966602	1.604300
0.966699	1.611130
0.966797	1.615414
0.966895	1.620390
0.966992	1.623677
0.967090	1.628823
0.967187	1.632235
0.967285	1.638563
0.967383	1.642193
0.967480	1.652681
0.967578	1.655935
0.967676	1.655526
0.967773	1.652853
0.967871	1.637971
0.967969	1.636616
0.968066	1.612183
0.968164	1.593820
0.968262	1.589172
0.968359	1.587974
0.968457	1.583657
0.968555	1.581836
0.968652	1.592852
0.968750	1.604703
0.968848	1.601075
0.968945	1.604876
0.969043	1.609594
0.969141	1.613801
0.969238	1.616745
0.969336	1.619349
0.969434	1.623845
0.969531	1.627679
0.969629	1.634825
0.969727	1.639838
0.969824	1.650640
0.969922	1.646046
0.970020	1.656461
0.970117	1.671975
0.970215	1.644569
0.970312	1.626019
0.970410	1.621757
0.970508	1.613052
0.970605	1.605258
0.970703	1.601150
0.970801	1.602950
0.970898	1.616318
0.970996	1.606186
0.971094	1.600709
0.971191	1.600780
0.971289	1.600475
0.971387	1.606507
0.971484	1.610875
0.971582	1.615039
0.971680	1.617930
0.971777	1.621750
0.971875	1.624823
0.971973	1.629196
0.972070	1.632925
0.972168	1.639384
0.972266	1.645429
0.972363	1.652575
0.972461	1.652399
0.972559	1.658989
0.972656	1.673288
0.972754	1.661082
0.972852	1.630775
0.972949	1.616867
0.973047	1.605383
0.973145	1.595538
0.973242	1.584948
0.973340	1.576141
0.973437	1.564123
0.973535	1.560632
0.973633	1.571201
0.973730	1.582437
0.973828	1.598267
0.973926	1.606077
0.974023	1.612989
0.974121	1.617248
0.974219	1.622371
0.974316	1.625664
0.974414	1.630276
0.974512	1.633235
0.974609	1.638296
0.974707	1.641450
0.974805	1.648263
0.974902	1.652612
0.975000	1.652178
0.975098	1.627693
0.975195	1.595052
0.975293	1.608922
0.975391	1.625616
0.975488	1.614733
0.975586	1.580537
0.975684	1.553732
0.975781	1.531275
0.975879	1.514125
0.975977	1.511163
0.976074	1.513823
0.976172	1.513770
0.976270	1.538002
0.976367	1.572249
0.976465	1.591977

