LabVIEW Measurement	
Writer_Version	2
Reader_Version	2
Separator	Tab
Decimal_Separator	.
Multi_Headings	Yes
X_Columns	One
Time_Pref	Absolute
Operator	W-Tunnel
Date	1904/01/01
Time	01:00:00
***End_of_Header***	
	
Channels	1	
Samples	10000	
Date	2024/05/17	
Time	18:32:16.592048456249705844	
Y_Unit_Label	Volts	
X_Dimension	Time	
X0	0.0000000000000000E+0	
Delta_X	9.765625E-5	
***End_of_Header***		
X_Value	Voltage	Comment
0.000000	1.526963
9.765625E-5	1.546698
0.000195	1.529389
0.000293	1.488432
0.000391	1.504113
0.000488	1.521757
0.000586	1.506464
0.000684	1.506097
0.000781	1.504971
0.000879	1.511872
0.000977	1.530507
0.001074	1.533888
0.001172	1.520636
0.001270	1.510182
0.001367	1.504767
0.001465	1.500875
0.001562	1.519499
0.001660	1.536404
0.001758	1.539360
0.001855	1.527509
0.001953	1.513339
0.002051	1.504930
0.002148	1.492912
0.002246	1.516992
0.002344	1.538550
0.002441	1.528384
0.002539	1.524340
0.002637	1.513242
0.002734	1.517492
0.002832	1.520450
0.002930	1.507902
0.003027	1.498293
0.003125	1.508986
0.003223	1.517155
0.003320	1.512053
0.003418	1.523091
0.003516	1.546715
0.003613	1.534335
0.003711	1.519620
0.003809	1.500152
0.003906	1.480787
0.004004	1.489348
0.004102	1.520338
0.004199	1.546299
0.004297	1.561117
0.004395	1.587199
0.004492	1.597049
0.004590	1.590549
0.004687	1.594684
0.004785	1.591539
0.004883	1.585857
0.004980	1.590325
0.005078	1.593302
0.005176	1.610574
0.005273	1.606959
0.005371	1.620934
0.005469	1.614467
0.005566	1.609010
0.005664	1.602463
0.005762	1.606715
0.005859	1.613727
0.005957	1.619668
0.006055	1.610794
0.006152	1.587762
0.006250	1.588295
0.006348	1.585819
0.006445	1.617162
0.006543	1.630430
0.006641	1.625860
0.006738	1.604113
0.006836	1.602811
0.006934	1.612507
0.007031	1.625523
0.007129	1.646206
0.007227	1.649592
0.007324	1.634749
0.007422	1.620019
0.007520	1.622516
0.007617	1.621256
0.007715	1.610150
0.007812	1.597435
0.007910	1.599275
0.008008	1.618924
0.008105	1.633563
0.008203	1.613969
0.008301	1.611423
0.008398	1.609081
0.008496	1.594684
0.008594	1.616362
0.008691	1.616277
0.008789	1.590542
0.008887	1.567692
0.008984	1.548102
0.009082	1.521081
0.009180	1.507520
0.009277	1.499709
0.009375	1.494607
0.009473	1.495416
0.009570	1.502062
0.009668	1.557425
0.009766	1.576262
0.009863	1.573037
0.009961	1.545920
0.010059	1.537840
0.010156	1.570616
0.010254	1.579493
0.010352	1.577889
0.010449	1.569308
0.010547	1.565923
0.010645	1.560072
0.010742	1.558036
0.010840	1.546909
0.010937	1.556740
0.011035	1.584678
0.011133	1.583156
0.011230	1.554838
0.011328	1.546575
0.011426	1.532077
0.011523	1.518508
0.011621	1.536214
0.011719	1.542010
0.011816	1.548544
0.011914	1.573536
0.012012	1.579956
0.012109	1.579766
0.012207	1.567395
0.012305	1.576801
0.012402	1.546144
0.012500	1.512869
0.012598	1.488335
0.012695	1.461884
0.012793	1.470980
0.012891	1.491145
0.012988	1.492167
0.013086	1.484773
0.013184	1.492883
0.013281	1.469235
0.013379	1.429409
0.013477	1.398881
0.013574	1.426843
0.013672	1.471303
0.013770	1.492722
0.013867	1.512416
0.013965	1.516404
0.014062	1.511165
0.014160	1.509571
0.014258	1.513433
0.014355	1.509736
0.014453	1.522529
0.014551	1.549255
0.014648	1.556560
0.014746	1.547662
0.014844	1.537518
0.014941	1.560475
0.015039	1.599922
0.015137	1.614773
0.015234	1.578035
0.015332	1.565849
0.015430	1.557713
0.015527	1.554132
0.015625	1.542348
0.015723	1.529633
0.015820	1.557191
0.015918	1.570067
0.016016	1.547893
0.016113	1.516829
0.016211	1.500394
0.016309	1.492326
0.016406	1.507436
0.016504	1.532221
0.016602	1.532959
0.016699	1.533332
0.016797	1.543367
0.016895	1.545516
0.016992	1.546937
0.017090	1.548862
0.017187	1.519705
0.017285	1.518902
0.017383	1.520852
0.017480	1.576407
0.017578	1.615856
0.017676	1.600256
0.017773	1.577097
0.017871	1.545492
0.017969	1.555499
0.018066	1.607887
0.018164	1.554322
0.018262	1.460992
0.018359	1.468220
0.018457	1.456398
0.018555	1.481067
0.018652	1.547427
0.018750	1.615707
0.018848	1.628521
0.018945	1.605342
0.019043	1.587921
0.019141	1.581468
0.019238	1.586192
0.019336	1.583704
0.019434	1.573649
0.019531	1.567592
0.019629	1.556492
0.019727	1.556749
0.019824	1.546996
0.019922	1.535306
0.020020	1.487182
0.020117	1.457605
0.020215	1.471190
0.020312	1.493567
0.020410	1.486870
0.020508	1.502558
0.020605	1.528183
0.020703	1.522114
0.020801	1.526632
0.020898	1.536086
0.020996	1.551875
0.021094	1.557843
0.021191	1.547212
0.021289	1.524311
0.021387	1.480621
0.021484	1.477626
0.021582	1.522804
0.021680	1.543314
0.021777	1.553636
0.021875	1.562511
0.021973	1.527758
0.022070	1.505515
0.022168	1.512953
0.022266	1.509789
0.022363	1.497614
0.022461	1.502490
0.022559	1.531013
0.022656	1.550528
0.022754	1.519763
0.022852	1.494462
0.022949	1.492482
0.023047	1.497935
0.023145	1.495359
0.023242	1.472098
0.023340	1.476931
0.023437	1.490724
0.023535	1.483139
0.023633	1.482540
0.023730	1.481555
0.023828	1.480433
0.023926	1.500868
0.024023	1.502416
0.024121	1.487630
0.024219	1.472107
0.024316	1.450300
0.024414	1.426793
0.024512	1.407582
0.024609	1.404426
0.024707	1.412301
0.024805	1.417309
0.024902	1.417895
0.025000	1.407568
0.025098	1.382145
0.025195	1.353177
0.025293	1.331159
0.025391	1.320871
0.025488	1.327103
0.025586	1.345839
0.025684	1.362239
0.025781	1.377476
0.025879	1.401272
0.025977	1.421744
0.026074	1.435880
0.026172	1.436668
0.026270	1.425440
0.026367	1.417899
0.026465	1.404013
0.026562	1.384851
0.026660	1.391031
0.026758	1.412406
0.026855	1.413915
0.026953	1.425348
0.027051	1.433787
0.027148	1.416981
0.027246	1.409379
0.027344	1.424729
0.027441	1.435564
0.027539	1.431702
0.027637	1.417353
0.027734	1.403477
0.027832	1.407352
0.027930	1.416133
0.028027	1.417897
0.028125	1.420366
0.028223	1.414791
0.028320	1.404605
0.028418	1.391105
0.028516	1.381600
0.028613	1.383557
0.028711	1.391440
0.028809	1.400806
0.028906	1.407823
0.029004	1.408863
0.029102	1.404178
0.029199	1.397289
0.029297	1.390420
0.029395	1.382995
0.029492	1.374633
0.029590	1.364236
0.029687	1.365354
0.029785	1.382691
0.029883	1.400204
0.029980	1.398006
0.030078	1.385803
0.030176	1.369275
0.030273	1.356384
0.030371	1.351637
0.030469	1.351030
0.030566	1.352176
0.030664	1.358469
0.030762	1.367365
0.030859	1.370192
0.030957	1.368788
0.031055	1.367365
0.031152	1.366089
0.031250	1.372642
0.031348	1.389622
0.031445	1.397372
0.031543	1.390355
0.031641	1.374787
0.031738	1.358078
0.031836	1.346972
0.031934	1.343882
0.032031	1.349297
0.032129	1.360807
0.032227	1.376421
0.032324	1.392577
0.032422	1.403281
0.032520	1.401254
0.032617	1.389519
0.032715	1.376326
0.032812	1.369883
0.032910	1.362598
0.033008	1.370106
0.033105	1.388414
0.033203	1.392236
0.033301	1.390077
0.033398	1.386580
0.033496	1.386401
0.033594	1.385781
0.033691	1.386188
0.033789	1.385922
0.033887	1.385123
0.033984	1.384208
0.034082	1.385824
0.034180	1.389282
0.034277	1.393291
0.034375	1.392522
0.034473	1.397523
0.034570	1.420496
0.034668	1.438761
0.034766	1.442933
0.034863	1.439852
0.034961	1.436046
0.035059	1.428917
0.035156	1.413580
0.035254	1.389829
0.035352	1.352474
0.035449	1.322303
0.035547	1.310867
0.035645	1.293600
0.035742	1.275528
0.035840	1.288482
0.035937	1.344411
0.036035	1.383086
0.036133	1.390739
0.036230	1.390262
0.036328	1.368508
0.036426	1.332042
0.036523	1.345097
0.036621	1.365968
0.036719	1.354929
0.036816	1.333893
0.036914	1.315493
0.037012	1.315894
0.037109	1.335817
0.037207	1.384162
0.037305	1.382465
0.037402	1.357395
0.037500	1.339034
0.037598	1.324032
0.037695	1.315721
0.037793	1.327601
0.037891	1.336034
0.037988	1.316319
0.038086	1.314071
0.038184	1.414543
0.038281	1.453705
0.038379	1.479586
0.038477	1.548042
0.038574	1.562519
0.038672	1.553130
0.038770	1.558494
0.038867	1.552959
0.038965	1.562836
0.039062	1.580621
0.039160	1.589933
0.039258	1.553161
0.039355	1.545716
0.039453	1.582337
0.039551	1.579029
0.039648	1.561921
0.039746	1.547771
0.039844	1.558116
0.039941	1.551401
0.040039	1.543896
0.040137	1.544459
0.040234	1.534954
0.040332	1.525943
0.040430	1.556250
0.040527	1.595576
0.040625	1.605812
0.040723	1.600437
0.040820	1.603210
0.040918	1.616418
0.041016	1.620253
0.041113	1.607416
0.041211	1.656139
0.041309	1.659773
0.041406	1.651094
0.041504	1.649517
0.041602	1.637777
0.041699	1.625003
0.041797	1.596162
0.041895	1.573962
0.041992	1.554399
0.042090	1.539798
0.042187	1.542350
0.042285	1.594551
0.042383	1.644861
0.042480	1.624888
0.042578	1.637012
0.042676	1.635789
0.042773	1.623981
0.042871	1.628970
0.042969	1.619369
0.043066	1.606721
0.043164	1.592891
0.043262	1.594284
0.043359	1.602098
0.043457	1.627874
0.043555	1.645264
0.043652	1.627888
0.043750	1.612576
0.043848	1.547577
0.043945	1.522368
0.044043	1.522269
0.044141	1.541346
0.044238	1.551732
0.044336	1.565985
0.044434	1.569088
0.044531	1.548625
0.044629	1.472882
0.044727	1.467571
0.044824	1.489853
0.044922	1.478753
0.045020	1.454163
0.045117	1.433966
0.045215	1.445755
0.045312	1.489096
0.045410	1.526873
0.045508	1.529435
0.045605	1.519298
0.045703	1.508300
0.045801	1.484232
0.045898	1.480743
0.045996	1.501373
0.046094	1.517967
0.046191	1.532854
0.046289	1.540303
0.046387	1.532982
0.046484	1.535630
0.046582	1.553845
0.046680	1.538416
0.046777	1.530663
0.046875	1.539285
0.046973	1.554475
0.047070	1.584026
0.047168	1.579173
0.047266	1.547295
0.047363	1.526825
0.047461	1.530134
0.047559	1.525233
0.047656	1.521316
0.047754	1.539664
0.047852	1.515654
0.047949	1.495380
0.048047	1.508391
0.048145	1.528313
0.048242	1.543605
0.048340	1.557338
0.048437	1.557855
0.048535	1.549633
0.048633	1.547197
0.048730	1.513916
0.048828	1.405897
0.048926	1.382999
0.049023	1.527459
0.049121	1.529810
0.049219	1.551580
0.049316	1.548154
0.049414	1.546230
0.049512	1.562454
0.049609	1.557548
0.049707	1.554384
0.049805	1.555210
0.049902	1.516381
0.050000	1.524058
0.050098	1.506758
0.050195	1.476278
0.050293	1.411894
0.050391	1.379788
0.050488	1.430908
0.050586	1.419735
0.050684	1.355850
0.050781	1.376037
0.050879	1.433306
0.050977	1.440806
0.051074	1.428374
0.051172	1.410967
0.051270	1.410262
0.051367	1.422677
0.051465	1.424426
0.051562	1.420538
0.051660	1.422290
0.051758	1.435115
0.051855	1.468224
0.051953	1.507010
0.052051	1.522588
0.052148	1.569268
0.052246	1.605928
0.052344	1.595908
0.052441	1.600563
0.052539	1.581369
0.052637	1.588795
0.052734	1.589862
0.052832	1.589564
0.052930	1.597821
0.053027	1.616877
0.053125	1.609310
0.053223	1.603959
0.053320	1.607951
0.053418	1.581921
0.053516	1.584151
0.053613	1.591542
0.053711	1.576764
0.053809	1.569596
0.053906	1.572896
0.054004	1.560497
0.054102	1.548818
0.054199	1.552674
0.054297	1.521902
0.054395	1.505018
0.054492	1.518125
0.054590	1.511357
0.054687	1.481306
0.054785	1.478756
0.054883	1.483039
0.054980	1.477558
0.055078	1.459644
0.055176	1.471605
0.055273	1.435029
0.055371	1.414876
0.055469	1.443240
0.055566	1.455437
0.055664	1.437164
0.055762	1.420494
0.055859	1.414975
0.055957	1.427450
0.056055	1.484727
0.056152	1.489359
0.056250	1.512762
0.056348	1.514995
0.056445	1.509699
0.056543	1.507067
0.056641	1.495418
0.056738	1.494661
0.056836	1.462528
0.056934	1.441893
0.057031	1.440121
0.057129	1.444233
0.057227	1.451909
0.057324	1.467326
0.057422	1.500722
0.057520	1.560454
0.057617	1.577437
0.057715	1.570886
0.057812	1.577068
0.057910	1.586258
0.058008	1.550938
0.058105	1.549163
0.058203	1.581534
0.058301	1.577671
0.058398	1.584169
0.058496	1.556733
0.058594	1.530849
0.058691	1.489765
0.058789	1.503293
0.058887	1.511642
0.058984	1.521762
0.059082	1.544579
0.059180	1.553988
0.059277	1.562870
0.059375	1.566507
0.059473	1.562663
0.059570	1.529589
0.059668	1.490431
0.059766	1.593871
0.059863	1.649313
0.059961	1.658076
0.060059	1.667622
0.060156	1.667108
0.060254	1.649317
0.060352	1.646796
0.060449	1.638232
0.060547	1.628080
0.060645	1.603136
0.060742	1.605564
0.060840	1.611565
0.060937	1.613413
0.061035	1.618711
0.061133	1.620330
0.061230	1.673480
0.061328	1.641009
0.061426	1.657351
0.061523	1.654778
0.061621	1.636826
0.061719	1.624345
0.061816	1.600453
0.061914	1.581907
0.062012	1.584388
0.062109	1.591569
0.062207	1.563837
0.062305	1.553741
0.062402	1.574468
0.062500	1.576673
0.062598	1.593146
0.062695	1.615738
0.062793	1.594471
0.062891	1.598369
0.062988	1.567952
0.063086	1.547675
0.063184	1.586482
0.063281	1.593159
0.063379	1.592601
0.063477	1.593883
0.063574	1.560360
0.063672	1.530883
0.063770	1.509282
0.063867	1.513936
0.063965	1.518399
0.064062	1.506321
0.064160	1.482330
0.064258	1.468044
0.064355	1.468343
0.064453	1.453175
0.064551	1.517038
0.064648	1.522158
0.064746	1.453043
0.064844	1.418144
0.064941	1.412489
0.065039	1.413180
0.065137	1.430165
0.065234	1.459887
0.065332	1.467581
0.065430	1.474218
0.065527	1.519592
0.065625	1.543809
0.065723	1.536214
0.065820	1.529189
0.065918	1.512547
0.066016	1.514011
0.066113	1.516046
0.066211	1.519113
0.066309	1.503989
0.066406	1.517154
0.066504	1.520187
0.066602	1.536298
0.066699	1.555840
0.066797	1.558917
0.066895	1.554657
0.066992	1.536859
0.067090	1.544728
0.067187	1.538663
0.067285	1.524438
0.067383	1.527582
0.067480	1.540029
0.067578	1.541174
0.067676	1.566006
0.067773	1.575900
0.067871	1.580559
0.067969	1.574464
0.068066	1.557071
0.068164	1.558559
0.068262	1.569378
0.068359	1.580012
0.068457	1.585116
0.068555	1.588715
0.068652	1.570442
0.068750	1.567665
0.068848	1.568092
0.068945	1.550966
0.069043	1.550855
0.069141	1.554412
0.069238	1.564871
0.069336	1.563848
0.069434	1.539973
0.069531	1.508258
0.069629	1.519028
0.069727	1.585645
0.069824	1.595427
0.069922	1.560175
0.070020	1.545232
0.070117	1.541852
0.070215	1.534489
0.070312	1.524554
0.070410	1.546471
0.070508	1.592342
0.070605	1.584366
0.070703	1.558958
0.070801	1.526872
0.070898	1.518678
0.070996	1.520865
0.071094	1.507431
0.071191	1.518414
0.071289	1.517612
0.071387	1.512889
0.071484	1.520051
0.071582	1.526415
0.071680	1.507405
0.071777	1.503344
0.071875	1.516801
0.071973	1.516216
0.072070	1.500250
0.072168	1.546664
0.072266	1.589526
0.072363	1.607661
0.072461	1.602582
0.072559	1.594987
0.072656	1.607455
0.072754	1.612434
0.072852	1.615576
0.072949	1.613641
0.073047	1.609183
0.073145	1.606848
0.073242	1.607097
0.073340	1.601737
0.073437	1.603341
0.073535	1.616752
0.073633	1.624837
0.073730	1.604405
0.073828	1.622809
0.073926	1.601708
0.074023	1.600503
0.074121	1.599602
0.074219	1.577243
0.074316	1.564629
0.074414	1.558147
0.074512	1.558404
0.074609	1.582709
0.074707	1.615353
0.074805	1.632758
0.074902	1.610245
0.075000	1.612634
0.075098	1.607220
0.075195	1.568166
0.075293	1.588912
0.075391	1.615552
0.075488	1.613706
0.075586	1.615807
0.075684	1.629756
0.075781	1.636871
0.075879	1.612941
0.075977	1.601518
0.076074	1.587970
0.076172	1.564199
0.076270	1.531463
0.076367	1.557080
0.076465	1.580570
0.076562	1.591805
0.076660	1.589036
0.076758	1.544040
0.076855	1.531466
0.076953	1.504560
0.077051	1.476091
0.077148	1.463494
0.077246	1.445704
0.077344	1.409028
0.077441	1.418503
0.077539	1.442244
0.077637	1.400185
0.077734	1.434568
0.077832	1.429043
0.077930	1.427123
0.078027	1.449582
0.078125	1.468414
0.078223	1.472600
0.078320	1.469659
0.078418	1.458887
0.078516	1.469454
0.078613	1.473562
0.078711	1.466595
0.078809	1.459699
0.078906	1.451424
0.079004	1.444025
0.079102	1.467189
0.079199	1.508770
0.079297	1.526654
0.079395	1.536057
0.079492	1.521024
0.079590	1.537751
0.079687	1.519467
0.079785	1.498825
0.079883	1.497536
0.079980	1.477941
0.080078	1.465879
0.080176	1.440448
0.080273	1.426459
0.080371	1.426540
0.080469	1.446099
0.080566	1.441155
0.080664	1.425410
0.080762	1.424219
0.080859	1.429035
0.080957	1.425690
0.081055	1.415399
0.081152	1.388033
0.081250	1.429754
0.081348	1.470943
0.081445	1.471952
0.081543	1.471134
0.081641	1.470147
0.081738	1.471775
0.081836	1.470801
0.081934	1.464925
0.082031	1.450989
0.082129	1.454403
0.082227	1.463824
0.082324	1.462696
0.082422	1.458527
0.082520	1.460931
0.082617	1.456689
0.082715	1.458881
0.082812	1.477850
0.082910	1.499893
0.083008	1.510615
0.083105	1.497315
0.083203	1.491837
0.083301	1.495341
0.083398	1.500894
0.083496	1.518710
0.083594	1.544280
0.083691	1.574587
0.083789	1.584232
0.083887	1.585328
0.083984	1.606548
0.084082	1.601842
0.084180	1.592359
0.084277	1.587255
0.084375	1.588670
0.084473	1.591081
0.084570	1.597006
0.084668	1.604090
0.084766	1.608654
0.084863	1.613445
0.084961	1.619463
0.085059	1.615413
0.085156	1.613265
0.085254	1.615041
0.085352	1.614902
0.085449	1.601942
0.085547	1.590351
0.085645	1.588360
0.085742	1.604736
0.085840	1.586970
0.085937	1.574323
0.086035	1.584136
0.086133	1.587106
0.086230	1.597291
0.086328	1.606341
0.086426	1.633972
0.086523	1.647639
0.086621	1.637607
0.086719	1.607100
0.086816	1.579560
0.086914	1.570325
0.087012	1.569063
0.087109	1.549907
0.087207	1.560990
0.087305	1.573161
0.087402	1.553847
0.087500	1.550876
0.087598	1.562300
0.087695	1.578234
0.087793	1.564141
0.087891	1.568603
0.087988	1.566808
0.088086	1.551166
0.088184	1.562538
0.088281	1.560495
0.088379	1.566603
0.088477	1.586548
0.088574	1.572548
0.088672	1.549155
0.088770	1.560145
0.088867	1.577010
0.088965	1.576684
0.089062	1.574485
0.089160	1.535662
0.089258	1.514986
0.089355	1.483086
0.089453	1.441149
0.089551	1.398662
0.089648	1.397551
0.089746	1.412807
0.089844	1.420071
0.089941	1.430066
0.090039	1.440030
0.090137	1.432726
0.090234	1.405180
0.090332	1.397943
0.090430	1.421449
0.090527	1.447797
0.090625	1.446942
0.090723	1.421202
0.090820	1.407773
0.090918	1.416677
0.091016	1.424087
0.091113	1.436688
0.091211	1.447465
0.091309	1.452921
0.091406	1.455396
0.091504	1.443813
0.091602	1.429377
0.091699	1.425376
0.091797	1.427307
0.091895	1.431859
0.091992	1.425361
0.092090	1.411048
0.092187	1.395385
0.092285	1.368595
0.092383	1.299763
0.092480	1.279496
0.092578	1.353472
0.092676	1.364147
0.092773	1.326534
0.092871	1.310418
0.092969	1.363019
0.093066	1.397736
0.093164	1.427565
0.093262	1.472722
0.093359	1.494175
0.093457	1.503198
0.093555	1.504338
0.093652	1.473541
0.093750	1.486845
0.093848	1.500308
0.093945	1.495331
0.094043	1.479412
0.094141	1.452318
0.094238	1.465938
0.094336	1.502703
0.094434	1.514019
0.094531	1.519866
0.094629	1.520671
0.094727	1.511082
0.094824	1.511459
0.094922	1.518902
0.095020	1.544277
0.095117	1.542441
0.095215	1.560796
0.095312	1.578057
0.095410	1.576474
0.095508	1.545142
0.095605	1.534665
0.095703	1.505562
0.095801	1.477927
0.095898	1.452534
0.095996	1.469730
0.096094	1.495078
0.096191	1.500923
0.096289	1.494428
0.096387	1.477198
0.096484	1.466476
0.096582	1.462915
0.096680	1.463384
0.096777	1.458450
0.096875	1.442928
0.096973	1.433405
0.097070	1.425734
0.097168	1.408251
0.097266	1.425764
0.097363	1.461391
0.097461	1.457207
0.097559	1.436057
0.097656	1.425744
0.097754	1.432370
0.097852	1.440043
0.097949	1.449834
0.098047	1.449897
0.098145	1.455095
0.098242	1.443316
0.098340	1.446810
0.098437	1.455862
0.098535	1.462600
0.098633	1.470933
0.098730	1.478934
0.098828	1.469015
0.098926	1.460679
0.099023	1.472355
0.099121	1.486694
0.099219	1.508334
0.099316	1.515494
0.099414	1.508596
0.099512	1.487731
0.099609	1.486571
0.099707	1.491818
0.099805	1.476272
0.099902	1.483185
0.100000	1.497990
0.100098	1.477346
0.100195	1.458335
0.100293	1.458635
0.100391	1.496896
0.100488	1.511852
0.100586	1.511706
0.100684	1.503051
0.100781	1.511346
0.100879	1.513028
0.100977	1.500072
0.101074	1.506385
0.101172	1.502697
0.101270	1.498772
0.101367	1.484187
0.101465	1.494532
0.101562	1.495443
0.101660	1.493281
0.101758	1.483127
0.101855	1.492626
0.101953	1.491637
0.102051	1.495010
0.102148	1.503962
0.102246	1.506528
0.102344	1.490972
0.102441	1.474182
0.102539	1.466511
0.102637	1.460511
0.102734	1.448717
0.102832	1.433283
0.102930	1.434575
0.103027	1.446389
0.103125	1.457324
0.103223	1.471807
0.103320	1.465361
0.103418	1.446316
0.103516	1.447001
0.103613	1.456326
0.103711	1.467958
0.103809	1.478942
0.103906	1.487720
0.104004	1.493578
0.104102	1.501324
0.104199	1.507093
0.104297	1.497193
0.104395	1.490033
0.104492	1.482807
0.104590	1.479213
0.104687	1.475335
0.104785	1.470847
0.104883	1.464728
0.104980	1.460586
0.105078	1.449981
0.105176	1.437181
0.105273	1.424615
0.105371	1.410065
0.105469	1.387955
0.105566	1.359346
0.105664	1.332369
0.105762	1.321582
0.105859	1.332222
0.105957	1.358191
0.106055	1.373423
0.106152	1.387409
0.106250	1.428725
0.106348	1.410951
0.106445	1.381075
0.106543	1.372790
0.106641	1.368359
0.106738	1.357898
0.106836	1.338260
0.106934	1.318745
0.107031	1.318397
0.107129	1.335612
0.107227	1.350047
0.107324	1.370633
0.107422	1.397028
0.107520	1.389854
0.107617	1.377099
0.107715	1.375121
0.107812	1.380364
0.107910	1.353817
0.108008	1.323758
0.108105	1.355978
0.108203	1.414424
0.108301	1.426841
0.108398	1.436971
0.108496	1.452858
0.108594	1.453360
0.108691	1.440155
0.108789	1.411555
0.108887	1.388251
0.108984	1.377431
0.109082	1.374954
0.109180	1.387136
0.109277	1.389339
0.109375	1.396857
0.109473	1.414103
0.109570	1.436173
0.109668	1.468413
0.109766	1.469330
0.109863	1.433981
0.109961	1.397685
0.110059	1.388532
0.110156	1.405884
0.110254	1.412368
0.110352	1.390999
0.110449	1.389797
0.110547	1.386519
0.110645	1.369017
0.110742	1.353728
0.110840	1.353564
0.110937	1.370624
0.111035	1.394579
0.111133	1.453196
0.111230	1.495690
0.111328	1.496175
0.111426	1.470938
0.111523	1.462416
0.111621	1.451898
0.111719	1.497407
0.111816	1.509050
0.111914	1.488185
0.112012	1.481889
0.112109	1.519518
0.112207	1.543089
0.112305	1.559355
0.112402	1.554465
0.112500	1.554562
0.112598	1.553876
0.112695	1.561543
0.112793	1.564777
0.112891	1.546202
0.112988	1.520285
0.113086	1.527862
0.113184	1.545009
0.113281	1.550525
0.113379	1.569741
0.113477	1.580327
0.113574	1.603490
0.113672	1.588690
0.113770	1.590595
0.113867	1.610981
0.113965	1.603387
0.114062	1.622664
0.114160	1.619786
0.114258	1.604058
0.114355	1.609325
0.114453	1.614046
0.114551	1.610096
0.114648	1.617951
0.114746	1.634290
0.114844	1.630122
0.114941	1.628479
0.115039	1.631703
0.115137	1.632866
0.115234	1.622140
0.115332	1.604190
0.115430	1.599171
0.115527	1.598290
0.115625	1.608638
0.115723	1.610904
0.115820	1.603438
0.115918	1.611134
0.116016	1.635673
0.116113	1.641716
0.116211	1.622855
0.116309	1.620773
0.116406	1.616152
0.116504	1.605131
0.116602	1.590180
0.116699	1.587896
0.116797	1.583477
0.116895	1.576357
0.116992	1.572991
0.117090	1.567747
0.117187	1.557881
0.117285	1.546771
0.117383	1.533235
0.117480	1.523092
0.117578	1.504527
0.117676	1.511455
0.117773	1.561231
0.117871	1.575906
0.117969	1.601875
0.118066	1.624254
0.118164	1.621716
0.118262	1.625018
0.118359	1.627149
0.118457	1.616557
0.118555	1.588974
0.118652	1.565740
0.118750	1.573835
0.118848	1.590302
0.118945	1.574595
0.119043	1.599888
0.119141	1.582575
0.119238	1.582894
0.119336	1.582188
0.119434	1.577802
0.119531	1.574834
0.119629	1.562086
0.119727	1.558046
0.119824	1.557010
0.119922	1.510764
0.120020	1.443200
0.120117	1.381155
0.120215	1.315307
0.120312	1.261321
0.120410	1.251633
0.120508	1.265945
0.120605	1.280324
0.120703	1.300436
0.120801	1.334251
0.120898	1.361930
0.120996	1.379132
0.121094	1.396209
0.121191	1.414474
0.121289	1.421415
0.121387	1.409152
0.121484	1.388021
0.121582	1.366696
0.121680	1.367967
0.121777	1.397545
0.121875	1.425813
0.121973	1.430083
0.122070	1.431047
0.122168	1.449905
0.122266	1.488809
0.122363	1.524061
0.122461	1.527918
0.122559	1.519418
0.122656	1.477741
0.122754	1.490269
0.122852	1.497019
0.122949	1.452956
0.123047	1.429668
0.123145	1.417408
0.123242	1.444101
0.123340	1.456843
0.123437	1.460530
0.123535	1.466846
0.123633	1.445762
0.123730	1.422288
0.123828	1.405872
0.123926	1.405392
0.124023	1.415507
0.124121	1.410079
0.124219	1.416451
0.124316	1.437748
0.124414	1.457992
0.124512	1.463075
0.124609	1.470935
0.124707	1.485597
0.124805	1.477064
0.124902	1.483517
0.125000	1.501335
0.125098	1.502019
0.125195	1.500029
0.125293	1.489381
0.125391	1.475565
0.125488	1.466122
0.125586	1.467628
0.125684	1.465673
0.125781	1.467412
0.125879	1.476700
0.125977	1.477707
0.126074	1.476926
0.126172	1.497784
0.126270	1.513872
0.126367	1.513381
0.126465	1.504591
0.126562	1.522961
0.126660	1.542793
0.126758	1.528606
0.126855	1.527689
0.126953	1.555506
0.127051	1.562092
0.127148	1.563121
0.127246	1.583061
0.127344	1.589603
0.127441	1.608996
0.127539	1.628649
0.127637	1.613669
0.127734	1.580147
0.127832	1.600873
0.127930	1.582716
0.128027	1.560586
0.128125	1.546750
0.128223	1.568583
0.128320	1.567232
0.128418	1.540312
0.128516	1.523213
0.128613	1.543820
0.128711	1.565585
0.128809	1.589095
0.128906	1.578835
0.129004	1.572273
0.129102	1.564154
0.129199	1.549556
0.129297	1.551572
0.129395	1.552270
0.129492	1.547056
0.129590	1.535746
0.129687	1.546513
0.129785	1.551765
0.129883	1.536855
0.129980	1.537162
0.130078	1.540063
0.130176	1.538311
0.130273	1.552519
0.130371	1.547871
0.130469	1.535021
0.130566	1.531772
0.130664	1.525162
0.130762	1.509213
0.130859	1.501058
0.130957	1.498545
0.131055	1.484689
0.131152	1.475032
0.131250	1.477779
0.131348	1.475588
0.131445	1.460613
0.131543	1.437491
0.131641	1.404567
0.131738	1.372619
0.131836	1.391411
0.131934	1.480550
0.132031	1.554869
0.132129	1.580718
0.132227	1.585487
0.132324	1.587597
0.132422	1.571655
0.132520	1.576266
0.132617	1.576430
0.132715	1.551822
0.132812	1.504399
0.132910	1.478363
0.133008	1.474283
0.133105	1.509637
0.133203	1.547704
0.133301	1.547935
0.133398	1.526939
0.133496	1.528177
0.133594	1.506769
0.133691	1.495595
0.133789	1.527102
0.133887	1.524185
0.133984	1.520964
0.134082	1.501834
0.134180	1.475603
0.134277	1.445492
0.134375	1.428488
0.134473	1.416721
0.134570	1.407176
0.134668	1.404202
0.134766	1.425976
0.134863	1.443457
0.134961	1.425330
0.135059	1.396377
0.135156	1.382040
0.135254	1.413072
0.135352	1.428720
0.135449	1.433145
0.135547	1.421215
0.135645	1.475605
0.135742	1.556085
0.135840	1.547923
0.135937	1.534821
0.136035	1.527986
0.136133	1.541949
0.136230	1.519679
0.136328	1.504056
0.136426	1.503798
0.136523	1.521548
0.136621	1.538148
0.136719	1.518570
0.136816	1.503599
0.136914	1.475025
0.137012	1.453142
0.137109	1.446775
0.137207	1.466918
0.137305	1.488933
0.137402	1.513635
0.137500	1.516804
0.137598	1.495117
0.137695	1.493435
0.137793	1.476840
0.137891	1.446887
0.137988	1.424809
0.138086	1.400677
0.138184	1.382301
0.138281	1.366051
0.138379	1.351732
0.138477	1.337815
0.138574	1.316830
0.138672	1.291196
0.138770	1.271464
0.138867	1.308720
0.138965	1.357006
0.139062	1.370376
0.139160	1.390982
0.139258	1.398915
0.139355	1.385127
0.139453	1.368785
0.139551	1.400079
0.139648	1.446193
0.139746	1.464668
0.139844	1.442069
0.139941	1.390986
0.140039	1.358196
0.140137	1.490065
0.140234	1.503212
0.140332	1.501172
0.140430	1.570120
0.140527	1.476819
0.140625	1.486170
0.140723	1.508527
0.140820	1.491900
0.140918	1.520982
0.141016	1.480165
0.141113	1.514310
0.141211	1.524719
0.141309	1.529735
0.141406	1.520318
0.141504	1.497246
0.141602	1.481406
0.141699	1.465899
0.141797	1.462208
0.141895	1.499876
0.141992	1.427506
0.142090	1.421994
0.142187	1.386938
0.142285	1.417996
0.142383	1.467034
0.142480	1.462542
0.142578	1.499849
0.142676	1.471001
0.142773	1.461016
0.142871	1.442250
0.142969	1.432965
0.143066	1.422613
0.143164	1.429249
0.143262	1.433806
0.143359	1.399209
0.143457	1.392425
0.143555	1.442745
0.143652	1.462818
0.143750	1.455997
0.143848	1.451469
0.143945	1.420334
0.144043	1.359978
0.144141	1.380833
0.144238	1.397860
0.144336	1.421838
0.144434	1.423989
0.144531	1.437010
0.144629	1.442162
0.144727	1.464695
0.144824	1.499275
0.144922	1.541595
0.145020	1.551054
0.145117	1.520265
0.145215	1.498492
0.145312	1.488515
0.145410	1.511669
0.145508	1.505202
0.145605	1.475825
0.145703	1.451011
0.145801	1.440333
0.145898	1.412323
0.145996	1.359365
0.146094	1.341773
0.146191	1.361867
0.146289	1.360276
0.146387	1.377752
0.146484	1.403954
0.146582	1.424692
0.146680	1.440053
0.146777	1.454358
0.146875	1.460109
0.146973	1.460925
0.147070	1.476202
0.147168	1.500577
0.147266	1.510756
0.147363	1.500960
0.147461	1.483790
0.147559	1.473021
0.147656	1.474776
0.147754	1.492661
0.147852	1.515995
0.147949	1.518662
0.148047	1.525936
0.148145	1.535681
0.148242	1.562012
0.148340	1.592060
0.148437	1.611047
0.148535	1.628288
0.148633	1.617764
0.148730	1.619772
0.148828	1.620194
0.148926	1.621013
0.149023	1.631476
0.149121	1.645740
0.149219	1.648731
0.149316	1.649606
0.149414	1.644933
0.149512	1.650989
0.149609	1.621730
0.149707	1.615988
0.149805	1.622484
0.149902	1.632693
0.150000	1.626236
0.150098	1.606696
0.150195	1.600008
0.150293	1.583483
0.150391	1.564582
0.150488	1.562333
0.150586	1.571870
0.150684	1.580210
0.150781	1.578674
0.150879	1.562423
0.150977	1.576816
0.151074	1.565602
0.151172	1.549876
0.151270	1.557718
0.151367	1.550213
0.151465	1.558406
0.151562	1.600581
0.151660	1.617346
0.151758	1.630698
0.151855	1.648518
0.151953	1.655605
0.152051	1.657015
0.152148	1.642196
0.152246	1.627799
0.152344	1.628954
0.152441	1.635844
0.152539	1.621730
0.152637	1.630481
0.152734	1.631325
0.152832	1.616942
0.152930	1.606270
0.153027	1.611413
0.153125	1.617366
0.153223	1.603674
0.153320	1.581690
0.153418	1.588049
0.153516	1.593055
0.153613	1.600474
0.153711	1.600015
0.153809	1.587429
0.153906	1.573849
0.154004	1.548447
0.154102	1.542209
0.154199	1.551830
0.154297	1.600976
0.154395	1.608822
0.154492	1.606313
0.154590	1.621030
0.154687	1.626256
0.154785	1.621190
0.154883	1.647858
0.154980	1.659552
0.155078	1.643512
0.155176	1.628778
0.155273	1.624567
0.155371	1.622180
0.155469	1.641579
0.155566	1.644240
0.155664	1.652832
0.155762	1.644267
0.155859	1.649957
0.155957	1.675401
0.156055	1.659131
0.156152	1.647582
0.156250	1.612534
0.156348	1.574258
0.156445	1.564354
0.156543	1.569057
0.156641	1.595556
0.156738	1.618174
0.156836	1.603803
0.156934	1.585679
0.157031	1.624607
0.157129	1.594620
0.157227	1.579913
0.157324	1.579786
0.157422	1.575770
0.157520	1.576479
0.157617	1.554730
0.157715	1.495195
0.157812	1.493631
0.157910	1.505870
0.158008	1.491713
0.158105	1.499432
0.158203	1.514562
0.158301	1.499359
0.158398	1.511010
0.158496	1.504341
0.158594	1.498212
0.158691	1.537916
0.158789	1.595306
0.158887	1.595090
0.158984	1.577929
0.159082	1.561350
0.159180	1.579100
0.159277	1.596905
0.159375	1.585101
0.159473	1.583121
0.159570	1.576978
0.159668	1.574248
0.159766	1.563329
0.159863	1.549360
0.159961	1.561945
0.160059	1.602922
0.160156	1.599471
0.160254	1.632197
0.160352	1.632824
0.160449	1.614094
0.160547	1.600501
0.160645	1.611723
0.160742	1.626066
0.160840	1.615787
0.160937	1.609604
0.161035	1.602542
0.161133	1.591198
0.161230	1.571205
0.161328	1.579494
0.161426	1.551640
0.161523	1.526765
0.161621	1.536393
0.161719	1.548288
0.161816	1.556611
0.161914	1.527319
0.162012	1.509067
0.162109	1.541269
0.162207	1.540676
0.162305	1.533041
0.162402	1.525411
0.162500	1.517241
0.162598	1.516328
0.162695	1.504328
0.162793	1.494353
0.162891	1.496590
0.162988	1.498153
0.163086	1.490383
0.163184	1.475803
0.163281	1.466199
0.163379	1.464800
0.163477	1.462335
0.163574	1.462889
0.163672	1.461241
0.163770	1.462184
0.163867	1.463018
0.163965	1.457548
0.164062	1.450898
0.164160	1.450245
0.164258	1.470572
0.164355	1.481475
0.164453	1.489023
0.164551	1.473648
0.164648	1.445976
0.164746	1.464717
0.164844	1.467122
0.164941	1.453727
0.165039	1.478983
0.165137	1.472013
0.165234	1.481491
0.165332	1.480853
0.165430	1.458131
0.165527	1.433988
0.165625	1.419100
0.165723	1.426700
0.165820	1.446396
0.165918	1.449475
0.166016	1.441811
0.166113	1.438638
0.166211	1.446652
0.166309	1.461690
0.166406	1.457154
0.166504	1.447304
0.166602	1.447147
0.166699	1.448868
0.166797	1.450650
0.166895	1.455922
0.166992	1.459777
0.167090	1.455410
0.167187	1.454351
0.167285	1.448506
0.167383	1.433267
0.167480	1.420906
0.167578	1.408804
0.167676	1.416000
0.167773	1.443186
0.167871	1.431983
0.167969	1.382458
0.168066	1.351606
0.168164	1.332939
0.168262	1.328333
0.168359	1.336050
0.168457	1.356386
0.168555	1.370635
0.168652	1.361890
0.168750	1.350248
0.168848	1.363064
0.168945	1.411488
0.169043	1.479530
0.169141	1.493222
0.169238	1.466362
0.169336	1.427012
0.169434	1.391649
0.169531	1.386947
0.169629	1.391428
0.169727	1.401413
0.169824	1.410209
0.169922	1.411577
0.170020	1.415108
0.170117	1.416617
0.170215	1.413571
0.170312	1.406602
0.170410	1.400044
0.170508	1.394584
0.170605	1.387198
0.170703	1.388892
0.170801	1.395035
0.170898	1.389857
0.170996	1.386510
0.171094	1.389370
0.171191	1.395590
0.171289	1.414205
0.171387	1.446540
0.171484	1.486719
0.171582	1.536795
0.171680	1.580773
0.171777	1.585213
0.171875	1.568381
0.171973	1.556918
0.172070	1.561045
0.172168	1.563941
0.172266	1.545247
0.172363	1.513964
0.172461	1.501140
0.172559	1.503039
0.172656	1.510099
0.172754	1.504739
0.172852	1.509851
0.172949	1.498880
0.173047	1.474762
0.173145	1.512821
0.173242	1.507031
0.173340	1.492158
0.173437	1.506282
0.173535	1.531501
0.173633	1.515407
0.173730	1.448881
0.173828	1.447210
0.173926	1.565683
0.174023	1.539009
0.174121	1.520854
0.174219	1.492308
0.174316	1.530953
0.174414	1.516633
0.174512	1.490212
0.174609	1.521486
0.174707	1.532179
0.174805	1.550185
0.174902	1.566788
0.175000	1.571297
0.175098	1.564891
0.175195	1.559382
0.175293	1.554120
0.175391	1.516705
0.175488	1.494533
0.175586	1.529748
0.175684	1.540136
0.175781	1.534473
0.175879	1.528007
0.175977	1.509276
0.176074	1.502670
0.176172	1.497429
0.176270	1.499408
0.176367	1.508249
0.176465	1.528029
0.176562	1.553957
0.176660	1.589112
0.176758	1.584203
0.176855	1.581521
0.176953	1.585900
0.177051	1.574411
0.177148	1.553460
0.177246	1.535034
0.177344	1.527723
0.177441	1.529924
0.177539	1.525496
0.177637	1.507057
0.177734	1.514832
0.177832	1.534497
0.177930	1.586739
0.178027	1.615984
0.178125	1.596829
0.178223	1.559507
0.178320	1.564556
0.178418	1.553896
0.178516	1.553140
0.178613	1.549144
0.178711	1.542010
0.178809	1.520729
0.178906	1.514957
0.179004	1.509391
0.179102	1.488805
0.179199	1.473735
0.179297	1.479846
0.179395	1.492928
0.179492	1.500602
0.179590	1.496528
0.179687	1.507646
0.179785	1.492103
0.179883	1.493725
0.179980	1.526745
0.180078	1.502869
0.180176	1.500839
0.180273	1.502094
0.180371	1.515686
0.180469	1.526632
0.180566	1.527050
0.180664	1.524323
0.180762	1.544649
0.180859	1.542375
0.180957	1.542494
0.181055	1.536164
0.181152	1.523748
0.181250	1.493351
0.181348	1.435564
0.181445	1.385904
0.181543	1.379572
0.181641	1.410382
0.181738	1.421533
0.181836	1.428342
0.181934	1.427464
0.182031	1.415485
0.182129	1.385687
0.182227	1.379905
0.182324	1.391769
0.182422	1.414116
0.182520	1.401608
0.182617	1.426915
0.182715	1.470947
0.182812	1.488976
0.182910	1.516261
0.183008	1.523024
0.183105	1.510720
0.183203	1.517453
0.183301	1.519212
0.183398	1.499292
0.183496	1.484694
0.183594	1.481798
0.183691	1.488722
0.183789	1.487039
0.183887	1.488221
0.183984	1.476243
0.184082	1.489792
0.184180	1.480996
0.184277	1.496290
0.184375	1.518663
0.184473	1.494618
0.184570	1.486382
0.184668	1.513120
0.184766	1.498661
0.184863	1.467912
0.184961	1.455515
0.185059	1.449263
0.185156	1.447473
0.185254	1.452421
0.185352	1.461932
0.185449	1.475133
0.185547	1.512562
0.185645	1.554331
0.185742	1.534607
0.185840	1.507134
0.185937	1.527113
0.186035	1.522149
0.186133	1.514276
0.186230	1.545374
0.186328	1.587711
0.186426	1.541719
0.186523	1.562828
0.186621	1.614867
0.186719	1.627573
0.186816	1.638985
0.186914	1.639521
0.187012	1.630653
0.187109	1.627445
0.187207	1.634787
0.187305	1.644299
0.187402	1.638673
0.187500	1.635639
0.187598	1.621792
0.187695	1.598754
0.187793	1.579289
0.187891	1.554282
0.187988	1.547101
0.188086	1.562366
0.188184	1.577789
0.188281	1.567239
0.188379	1.564410
0.188477	1.582941
0.188574	1.589233
0.188672	1.588405
0.188770	1.585455
0.188867	1.574688
0.188965	1.563549
0.189062	1.563404
0.189160	1.592411
0.189258	1.600911
0.189355	1.610227
0.189453	1.625815
0.189551	1.614485
0.189648	1.607257
0.189746	1.618566
0.189844	1.594351
0.189941	1.581065
0.190039	1.568799
0.190137	1.578802
0.190234	1.586972
0.190332	1.567167
0.190430	1.542531
0.190527	1.560855
0.190625	1.550771
0.190723	1.554446
0.190820	1.565748
0.190918	1.558019
0.191016	1.533451
0.191113	1.517585
0.191211	1.519442
0.191309	1.490507
0.191406	1.478224
0.191504	1.467472
0.191602	1.457002
0.191699	1.447012
0.191797	1.434044
0.191895	1.452248
0.191992	1.520623
0.192090	1.534897
0.192187	1.516000
0.192285	1.509623
0.192383	1.547365
0.192480	1.561765
0.192578	1.552195
0.192676	1.551968
0.192773	1.554121
0.192871	1.557616
0.192969	1.563034
0.193066	1.566733
0.193164	1.547203
0.193262	1.532828
0.193359	1.524635
0.193457	1.533558
0.193555	1.531783
0.193652	1.508608
0.193750	1.500577
0.193848	1.480020
0.193945	1.450792
0.194043	1.428593
0.194141	1.436801
0.194238	1.465545
0.194336	1.495258
0.194434	1.500001
0.194531	1.488453
0.194629	1.484468
0.194727	1.468856
0.194824	1.458962
0.194922	1.454461
0.195020	1.456704
0.195117	1.460851
0.195215	1.475785
0.195312	1.507386
0.195410	1.506789
0.195508	1.484483
0.195605	1.429873
0.195703	1.434354
0.195801	1.434031
0.195898	1.423810
0.195996	1.421513
0.196094	1.421237
0.196191	1.433715
0.196289	1.444581
0.196387	1.445900
0.196484	1.440124
0.196582	1.432829
0.196680	1.441682
0.196777	1.429354
0.196875	1.428766
0.196973	1.445049
0.197070	1.441834
0.197168	1.426924
0.197266	1.402098
0.197363	1.372897
0.197461	1.353994
0.197559	1.341726
0.197656	1.328758
0.197754	1.337216
0.197852	1.385631
0.197949	1.432112
0.198047	1.442242
0.198145	1.448586
0.198242	1.448980
0.198340	1.443681
0.198437	1.472835
0.198535	1.482418
0.198633	1.460394
0.198730	1.435917
0.198828	1.451214
0.198926	1.479801
0.199023	1.476834
0.199121	1.482512
0.199219	1.512038
0.199316	1.515904
0.199414	1.452402
0.199512	1.466422
0.199609	1.484545
0.199707	1.476098
0.199805	1.503602
0.199902	1.521690
0.200000	1.461243
0.200098	1.447208
0.200195	1.500759
0.200293	1.468261
0.200391	1.410530
0.200488	1.381526
0.200586	1.371490
0.200684	1.439159
0.200781	1.477797
0.200879	1.488653
0.200977	1.495278
0.201074	1.497522
0.201172	1.499223
0.201270	1.498952
0.201367	1.517801
0.201465	1.516538
0.201562	1.490227
0.201660	1.459891
0.201758	1.432802
0.201855	1.405771
0.201953	1.381180
0.202051	1.359601
0.202148	1.332908
0.202246	1.293349
0.202344	1.313659
0.202441	1.403785
0.202539	1.457374
0.202637	1.478983
0.202734	1.481868
0.202832	1.480840
0.202930	1.495128
0.203027	1.498382
0.203125	1.481590
0.203223	1.431790
0.203320	1.405415
0.203418	1.413517
0.203516	1.409084
0.203613	1.412769
0.203711	1.414991
0.203809	1.407709
0.203906	1.393253
0.204004	1.364341
0.204102	1.341636
0.204199	1.364317
0.204297	1.386555
0.204395	1.391595
0.204492	1.379424
0.204590	1.376519
0.204687	1.391054
0.204785	1.404800
0.204883	1.419613
0.204980	1.430550
0.205078	1.435944
0.205176	1.451870
0.205273	1.497135
0.205371	1.537127
0.205469	1.529000
0.205566	1.503960
0.205664	1.480978
0.205762	1.467889
0.205859	1.469966
0.205957	1.488974
0.206055	1.503437
0.206152	1.496103
0.206250	1.517263
0.206348	1.539983
0.206445	1.526750
0.206543	1.524597
0.206641	1.521050
0.206738	1.538477
0.206836	1.556805
0.206934	1.561781
0.207031	1.550939
0.207129	1.550781
0.207227	1.571148
0.207324	1.580765
0.207422	1.585401
0.207520	1.588521
0.207617	1.567674
0.207715	1.543511
0.207812	1.547491
0.207910	1.548588
0.208008	1.594252
0.208105	1.627605
0.208203	1.585798
0.208301	1.568921
0.208398	1.582530
0.208496	1.551287
0.208594	1.537548
0.208691	1.531974
0.208789	1.542320
0.208887	1.539074
0.208984	1.522984
0.209082	1.497450
0.209180	1.483542
0.209277	1.487307
0.209375	1.488696
0.209473	1.481516
0.209570	1.459377
0.209668	1.449085
0.209766	1.449234
0.209863	1.446779
0.209961	1.463206
0.210059	1.488410
0.210156	1.472895
0.210254	1.467913
0.210352	1.477558
0.210449	1.473818
0.210547	1.472399
0.210645	1.463098
0.210742	1.457863
0.210840	1.457631
0.210937	1.449389
0.211035	1.457720
0.211133	1.490351
0.211230	1.518708
0.211328	1.506493
0.211426	1.492852
0.211523	1.546424
0.211621	1.565991
0.211719	1.533170
0.211816	1.523911
0.211914	1.538462
0.212012	1.560577
0.212109	1.561418
0.212207	1.583109
0.212305	1.603171
0.212402	1.592964
0.212500	1.615773
0.212598	1.616274
0.212695	1.569140
0.212793	1.552765
0.212891	1.573271
0.212988	1.555606
0.213086	1.558650
0.213184	1.591891
0.213281	1.590445
0.213379	1.586731
0.213477	1.574761
0.213574	1.574652
0.213672	1.573725
0.213770	1.592558
0.213867	1.592106
0.213965	1.580761
0.214062	1.575255
0.214160	1.568208
0.214258	1.582713
0.214355	1.574846
0.214453	1.557995
0.214551	1.556373
0.214648	1.563839
0.214746	1.553469
0.214844	1.534834
0.214941	1.513576
0.215039	1.523160
0.215137	1.551862
0.215234	1.526439
0.215332	1.506339
0.215430	1.497925
0.215527	1.510318
0.215625	1.510395
0.215723	1.528597
0.215820	1.499990
0.215918	1.496576
0.216016	1.517048
0.216113	1.534129
0.216211	1.535588
0.216309	1.521098
0.216406	1.521124
0.216504	1.528448
0.216602	1.538727
0.216699	1.579865
0.216797	1.608013
0.216895	1.605760
0.216992	1.602073
0.217090	1.593355
0.217187	1.605319
0.217285	1.620191
0.217383	1.611016
0.217480	1.603470
0.217578	1.601075
0.217676	1.596032
0.217773	1.631299
0.217871	1.627232
0.217969	1.608406
0.218066	1.592639
0.218164	1.581258
0.218262	1.568318
0.218359	1.556383
0.218457	1.543791
0.218555	1.520394
0.218652	1.539149
0.218750	1.535608
0.218848	1.505323
0.218945	1.485209
0.219043	1.478098
0.219141	1.473457
0.219238	1.468657
0.219336	1.454942
0.219434	1.441161
0.219531	1.442558
0.219629	1.462445
0.219727	1.459988
0.219824	1.486737
0.219922	1.483356
0.220020	1.480600
0.220117	1.483186
0.220215	1.483857
0.220312	1.494644
0.220410	1.480802
0.220508	1.490455
0.220605	1.496615
0.220703	1.497484
0.220801	1.504944
0.220898	1.510141
0.220996	1.510475
0.221094	1.508633
0.221191	1.518389
0.221289	1.525326
0.221387	1.508615
0.221484	1.478639
0.221582	1.485617
0.221680	1.501729
0.221777	1.496577
0.221875	1.498770
0.221973	1.511497
0.222070	1.509130
0.222168	1.516138
0.222266	1.519982
0.222363	1.510236
0.222461	1.491210
0.222559	1.478373
0.222656	1.476110
0.222754	1.470366
0.222852	1.447406
0.222949	1.442618
0.223047	1.447252
0.223145	1.436297
0.223242	1.433509
0.223340	1.430065
0.223437	1.447055
0.223535	1.456073
0.223633	1.457504
0.223730	1.468088
0.223828	1.480965
0.223926	1.495199
0.224023	1.503837
0.224121	1.513868
0.224219	1.517981
0.224316	1.517068
0.224414	1.516871
0.224512	1.508293
0.224609	1.500499
0.224707	1.505216
0.224805	1.502993
0.224902	1.498350
0.225000	1.507181
0.225098	1.512428
0.225195	1.488977
0.225293	1.445840
0.225391	1.430243
0.225488	1.419810
0.225586	1.413492
0.225684	1.412980
0.225781	1.410215
0.225879	1.402200
0.225977	1.381661
0.226074	1.357269
0.226172	1.359822
0.226270	1.392658
0.226367	1.417484
0.226465	1.448861
0.226562	1.484509
0.226660	1.508679
0.226758	1.498470
0.226855	1.484868
0.226953	1.468291
0.227051	1.431830
0.227148	1.420258
0.227246	1.419226
0.227344	1.428458
0.227441	1.422260
0.227539	1.419343
0.227637	1.430271
0.227734	1.449621
0.227832	1.467935
0.227930	1.482689
0.228027	1.525255
0.228125	1.527040
0.228223	1.514501
0.228320	1.518774
0.228418	1.513908
0.228516	1.552856
0.228613	1.560409
0.228711	1.539106
0.228809	1.521111
0.228906	1.516096
0.229004	1.510286
0.229102	1.504158
0.229199	1.506664
0.229297	1.502623
0.229395	1.495227
0.229492	1.524053
0.229590	1.519038
0.229687	1.505562
0.229785	1.510712
0.229883	1.500932
0.229980	1.478643
0.230078	1.462956
0.230176	1.443996
0.230273	1.424485
0.230371	1.436804
0.230469	1.471286
0.230566	1.491308
0.230664	1.490878
0.230762	1.486936
0.230859	1.492571
0.230957	1.501066
0.231055	1.508208
0.231152	1.524042
0.231250	1.525888
0.231348	1.534950
0.231445	1.540817
0.231543	1.545713
0.231641	1.537001
0.231738	1.514344
0.231836	1.502356
0.231934	1.485310
0.232031	1.467944
0.232129	1.460110
0.232227	1.473238
0.232324	1.492689
0.232422	1.532990
0.232520	1.527797
0.232617	1.498927
0.232715	1.497901
0.232812	1.470939
0.232910	1.447602
0.233008	1.498376
0.233105	1.532357
0.233203	1.531117
0.233301	1.515770
0.233398	1.496038
0.233496	1.479842
0.233594	1.469214
0.233691	1.463299
0.233789	1.470769
0.233887	1.490519
0.233984	1.499589
0.234082	1.501622
0.234180	1.516668
0.234277	1.525491
0.234375	1.520132
0.234473	1.514512
0.234570	1.505082
0.234668	1.526920
0.234766	1.538018
0.234863	1.523260
0.234961	1.519866
0.235059	1.535285
0.235156	1.572935
0.235254	1.580955
0.235352	1.564249
0.235449	1.553128
0.235547	1.502158
0.235645	1.475194
0.235742	1.488444
0.235840	1.479200
0.235937	1.467819
0.236035	1.477871
0.236133	1.471457
0.236230	1.436467
0.236328	1.411285
0.236426	1.408471
0.236523	1.399074
0.236621	1.408603
0.236719	1.422657
0.236816	1.417220
0.236914	1.394018
0.237012	1.365104
0.237109	1.324879
0.237207	1.288360
0.237305	1.302534
0.237402	1.327676
0.237500	1.297678
0.237598	1.298498
0.237695	1.363221
0.237793	1.402568
0.237891	1.410438
0.237988	1.396268
0.238086	1.358494
0.238184	1.305150
0.238281	1.264864
0.238379	1.311376
0.238477	1.417896
0.238574	1.442068
0.238672	1.459719
0.238770	1.478161
0.238867	1.499109
0.238965	1.512497
0.239062	1.523193
0.239160	1.533090
0.239258	1.528098
0.239355	1.510520
0.239453	1.513882
0.239551	1.505911
0.239648	1.528574
0.239746	1.547185
0.239844	1.546921
0.239941	1.549963
0.240039	1.546543
0.240137	1.541340
0.240234	1.519602
0.240332	1.506039
0.240430	1.497118
0.240527	1.493554
0.240625	1.491422
0.240723	1.503555
0.240820	1.518159
0.240918	1.509277
0.241016	1.499983
0.241113	1.494620
0.241211	1.495149
0.241309	1.483277
0.241406	1.483301
0.241504	1.500014
0.241602	1.507902
0.241699	1.514492
0.241797	1.512281
0.241895	1.491045
0.241992	1.460786
0.242090	1.452576
0.242187	1.458716
0.242285	1.466655
0.242383	1.466032
0.242480	1.479298
0.242578	1.505384
0.242676	1.511992
0.242773	1.510954
0.242871	1.520464
0.242969	1.515622
0.243066	1.502410
0.243164	1.467524
0.243262	1.430687
0.243359	1.427280
0.243457	1.435576
0.243555	1.440250
0.243652	1.441585
0.243750	1.439341
0.243848	1.428639
0.243945	1.413403
0.244043	1.403063
0.244141	1.404613
0.244238	1.408229
0.244336	1.405832
0.244434	1.387878
0.244531	1.370110
0.244629	1.369034
0.244727	1.379621
0.244824	1.377907
0.244922	1.376598
0.245020	1.390767
0.245117	1.390298
0.245215	1.387843
0.245312	1.386425
0.245410	1.392823
0.245508	1.396674
0.245605	1.379707
0.245703	1.338642
0.245801	1.292395
0.245898	1.259354
0.245996	1.253735
0.246094	1.273921
0.246191	1.297604
0.246289	1.328566
0.246387	1.368130
0.246484	1.395076
0.246582	1.419024
0.246680	1.443759
0.246777	1.486819
0.246875	1.553645
0.246973	1.593020
0.247070	1.585721
0.247168	1.557156
0.247266	1.558056
0.247363	1.554773
0.247461	1.547168
0.247559	1.545893
0.247656	1.556758
0.247754	1.551459
0.247852	1.544821
0.247949	1.538989
0.248047	1.546818
0.248145	1.585240
0.248242	1.621935
0.248340	1.605521
0.248437	1.609230
0.248535	1.628407
0.248633	1.613114
0.248730	1.635218
0.248828	1.634229
0.248926	1.634129
0.249023	1.639210
0.249121	1.649136
0.249219	1.640944
0.249316	1.625004
0.249414	1.620084
0.249512	1.643334
0.249609	1.654085
0.249707	1.648934
0.249805	1.635904
0.249902	1.620360
0.250000	1.609315
0.250098	1.605229
0.250195	1.596724
0.250293	1.593563
0.250391	1.575831
0.250488	1.572183
0.250586	1.566600
0.250684	1.558389
0.250781	1.557828
0.250879	1.566972
0.250977	1.561103
0.251074	1.549864
0.251172	1.548009
0.251270	1.554191
0.251367	1.557074
0.251465	1.556694
0.251562	1.553018
0.251660	1.549327
0.251758	1.548670
0.251855	1.544798
0.251953	1.552090
0.252051	1.563980
0.252148	1.546065
0.252246	1.534145
0.252344	1.556322
0.252441	1.574484
0.252539	1.574653
0.252637	1.550681
0.252734	1.532183
0.252832	1.514116
0.252930	1.532549
0.253027	1.543349
0.253125	1.518906
0.253223	1.532714
0.253320	1.543621
0.253418	1.535722
0.253516	1.503068
0.253613	1.470978
0.253711	1.436861
0.253809	1.412385
0.253906	1.418528
0.254004	1.416346
0.254102	1.411120
0.254199	1.400407
0.254297	1.380292
0.254395	1.370997
0.254492	1.366010
0.254590	1.369919
0.254687	1.381916
0.254785	1.396194
0.254883	1.410205
0.254980	1.414373
0.255078	1.418234
0.255176	1.406406
0.255273	1.398779
0.255371	1.403066
0.255469	1.400029
0.255566	1.397257
0.255664	1.390520
0.255762	1.381797
0.255859	1.374106
0.255957	1.380571
0.256055	1.398188
0.256152	1.422064
0.256250	1.436158
0.256348	1.447214
0.256445	1.440450
0.256543	1.410557
0.256641	1.384472
0.256738	1.381809
0.256836	1.385945
0.256934	1.393843
0.257031	1.390743
0.257129	1.400564
0.257227	1.416863
0.257324	1.400984
0.257422	1.366651
0.257520	1.342296
0.257617	1.326054
0.257715	1.306760
0.257812	1.290048
0.257910	1.284876
0.258008	1.299668
0.258105	1.321480
0.258203	1.329559
0.258301	1.325250
0.258398	1.319129
0.258496	1.310398
0.258594	1.296610
0.258691	1.280140
0.258789	1.258664
0.258887	1.239669
0.258984	1.226851
0.259082	1.266180
0.259180	1.348834
0.259277	1.403251
0.259375	1.415032
0.259473	1.427172
0.259570	1.456135
0.259668	1.484347
0.259766	1.490102
0.259863	1.482476
0.259961	1.470745
0.260059	1.497740
0.260156	1.523047
0.260254	1.531956
0.260352	1.525422
0.260449	1.500294
0.260547	1.480644
0.260645	1.488963
0.260742	1.544291
0.260840	1.578946
0.260937	1.560837
0.261035	1.536197
0.261133	1.487625
0.261230	1.454143
0.261328	1.439856
0.261426	1.432655
0.261523	1.430653
0.261621	1.388708
0.261719	1.366269
0.261816	1.367789
0.261914	1.360977
0.262012	1.328471
0.262109	1.348851
0.262207	1.406692
0.262305	1.471712
0.262402	1.497021
0.262500	1.500872
0.262598	1.507511
0.262695	1.526841
0.262793	1.547498
0.262891	1.527449
0.262988	1.498906
0.263086	1.493454
0.263184	1.485035
0.263281	1.478379
0.263379	1.462436
0.263477	1.460297
0.263574	1.437035
0.263672	1.475901
0.263770	1.487386
0.263867	1.547734
0.263965	1.621902
0.264062	1.613808
0.264160	1.625721
0.264258	1.643373
0.264355	1.629289
0.264453	1.598119
0.264551	1.583597
0.264648	1.554241
0.264746	1.514958
0.264844	1.538493
0.264941	1.585020
0.265039	1.647661
0.265137	1.637583
0.265234	1.625330
0.265332	1.625021
0.265430	1.618354
0.265527	1.586908
0.265625	1.572255
0.265723	1.568843
0.265820	1.595898
0.265918	1.606744
0.266016	1.621296
0.266113	1.631415
0.266211	1.619345
0.266309	1.612414
0.266406	1.610439
0.266504	1.602263
0.266602	1.601231
0.266699	1.588237
0.266797	1.586272
0.266895	1.595655
0.266992	1.594856
0.267090	1.603408
0.267187	1.591681
0.267285	1.587714
0.267383	1.565676
0.267480	1.552378
0.267578	1.538264
0.267676	1.530535
0.267773	1.540912
0.267871	1.579227
0.267969	1.602404
0.268066	1.591047
0.268164	1.576975
0.268262	1.544767
0.268359	1.551463
0.268457	1.548596
0.268555	1.545549
0.268652	1.523332
0.268750	1.505034
0.268848	1.508093
0.268945	1.517738
0.269043	1.554254
0.269141	1.540853
0.269238	1.545081
0.269336	1.569907
0.269434	1.566378
0.269531	1.568456
0.269629	1.551974
0.269727	1.554550
0.269824	1.567417
0.269922	1.574859
0.270020	1.521558
0.270117	1.522333
0.270215	1.548803
0.270312	1.507323
0.270410	1.480495
0.270508	1.492570
0.270605	1.490795
0.270703	1.488279
0.270801	1.520055
0.270898	1.523999
0.270996	1.481677
0.271094	1.465418
0.271191	1.494719
0.271289	1.522933
0.271387	1.581513
0.271484	1.581061
0.271582	1.581370
0.271680	1.593270
0.271777	1.591718
0.271875	1.588453
0.271973	1.583444
0.272070	1.558376
0.272168	1.511419
0.272266	1.471016
0.272363	1.466097
0.272461	1.477093
0.272559	1.487153
0.272656	1.465919
0.272754	1.488671
0.272852	1.513189
0.272949	1.510262
0.273047	1.500141
0.273145	1.503300
0.273242	1.503778
0.273340	1.496466
0.273437	1.503183
0.273535	1.513268
0.273633	1.501863
0.273730	1.495972
0.273828	1.481402
0.273926	1.496800
0.274023	1.503643
0.274121	1.494535
0.274219	1.500594
0.274316	1.508190
0.274414	1.498791
0.274512	1.465612
0.274609	1.445654
0.274707	1.425491
0.274805	1.405018
0.274902	1.399545
0.275000	1.408479
0.275098	1.422206
0.275195	1.438376
0.275293	1.457023
0.275391	1.472935
0.275488	1.479869
0.275586	1.486339
0.275684	1.493158
0.275781	1.496781
0.275879	1.488127
0.275977	1.472977
0.276074	1.473061
0.276172	1.478079
0.276270	1.466038
0.276367	1.453574
0.276465	1.437248
0.276562	1.407561
0.276660	1.381471
0.276758	1.369733
0.276855	1.368994
0.276953	1.361358
0.277051	1.347220
0.277148	1.334852
0.277246	1.317826
0.277344	1.295765
0.277441	1.276309
0.277539	1.274713
0.277637	1.279086
0.277734	1.285602
0.277832	1.314340
0.277930	1.353406
0.278027	1.364108
0.278125	1.322387
0.278223	1.273512
0.278320	1.257210
0.278418	1.264460
0.278516	1.267440
0.278613	1.271935
0.278711	1.281334
0.278809	1.302190
0.278906	1.314894
0.279004	1.314077
0.279102	1.307824
0.279199	1.302163
0.279297	1.297874
0.279395	1.298573
0.279492	1.306253
0.279590	1.320428
0.279687	1.333480
0.279785	1.336416
0.279883	1.331587
0.279980	1.335518
0.280078	1.351666
0.280176	1.370106
0.280273	1.389661
0.280371	1.412260
0.280469	1.451290
0.280566	1.487659
0.280664	1.489556
0.280762	1.458451
0.280859	1.427067
0.280957	1.402283
0.281055	1.377229
0.281152	1.359636
0.281250	1.345747
0.281348	1.332415
0.281445	1.322544
0.281543	1.319352
0.281641	1.315282
0.281738	1.304720
0.281836	1.287044
0.281934	1.269850
0.282031	1.267589
0.282129	1.287015
0.282227	1.311730
0.282324	1.327855
0.282422	1.339391
0.282520	1.351493
0.282617	1.366272
0.282715	1.386635
0.282812	1.402799
0.282910	1.404678
0.283008	1.397406
0.283105	1.388702
0.283203	1.378642
0.283301	1.368677
0.283398	1.359537
0.283496	1.355404
0.283594	1.358717
0.283691	1.364980
0.283789	1.369062
0.283887	1.364926
0.283984	1.352077
0.284082	1.335385
0.284180	1.320376
0.284277	1.307284
0.284375	1.296657
0.284473	1.290708
0.284570	1.285430
0.284668	1.282490
0.284766	1.292540
0.284863	1.318459
0.284961	1.362696
0.285059	1.400924
0.285156	1.397759
0.285254	1.372257
0.285352	1.367251
0.285449	1.374310
0.285547	1.389245
0.285645	1.409373
0.285742	1.413081
0.285840	1.409735
0.285937	1.395655
0.286035	1.366644
0.286133	1.341699
0.286230	1.364968
0.286328	1.400973
0.286426	1.403260
0.286523	1.405188
0.286621	1.421174
0.286719	1.442009
0.286816	1.449116
0.286914	1.459754
0.287012	1.470299
0.287109	1.445160
0.287207	1.422763
0.287305	1.451631
0.287402	1.490076
0.287500	1.487399
0.287598	1.491078
0.287695	1.504391
0.287793	1.516995
0.287891	1.517832
0.287988	1.522341
0.288086	1.517708
0.288184	1.550132
0.288281	1.577684
0.288379	1.568833
0.288477	1.564619
0.288574	1.523706
0.288672	1.499028
0.288770	1.490934
0.288867	1.496275
0.288965	1.490404
0.289062	1.476331
0.289160	1.461664
0.289258	1.452197
0.289355	1.481352
0.289453	1.477169
0.289551	1.448359
0.289648	1.439265
0.289746	1.407970
0.289844	1.369961
0.289941	1.338445
0.290039	1.323526
0.290137	1.329115
0.290234	1.338411
0.290332	1.335826
0.290430	1.333282
0.290527	1.344034
0.290625	1.367946
0.290723	1.379682
0.290820	1.374692
0.290918	1.375145
0.291016	1.378285
0.291113	1.404937
0.291211	1.443321
0.291309	1.429552
0.291406	1.459158
0.291504	1.474025
0.291602	1.466863
0.291699	1.458113
0.291797	1.460994
0.291895	1.461818
0.291992	1.472563
0.292090	1.493641
0.292187	1.522192
0.292285	1.535208
0.292383	1.536631
0.292480	1.527629
0.292578	1.515771
0.292676	1.501818
0.292773	1.486381
0.292871	1.463445
0.292969	1.452722
0.293066	1.465715
0.293164	1.491530
0.293262	1.475607
0.293359	1.458359
0.293457	1.427430
0.293555	1.406738
0.293652	1.394116
0.293750	1.418212
0.293848	1.467985
0.293945	1.523014
0.294043	1.562382
0.294141	1.540856
0.294238	1.534285
0.294336	1.548334
0.294434	1.544728
0.294531	1.528932
0.294629	1.523305
0.294727	1.517076
0.294824	1.521460
0.294922	1.513986
0.295020	1.483921
0.295117	1.460995
0.295215	1.452375
0.295312	1.462580
0.295410	1.467453
0.295508	1.482714
0.295605	1.493901
0.295703	1.523869
0.295801	1.555915
0.295898	1.566807
0.295996	1.562997
0.296094	1.538995
0.296191	1.517280
0.296289	1.510116
0.296387	1.503963
0.296484	1.494259
0.296582	1.488664
0.296680	1.487069
0.296777	1.493245
0.296875	1.504034
0.296973	1.503413
0.297070	1.517970
0.297168	1.524572
0.297266	1.515859
0.297363	1.508079
0.297461	1.512330
0.297559	1.513950
0.297656	1.495845
0.297754	1.468344
0.297852	1.436057
0.297949	1.404058
0.298047	1.360672
0.298145	1.311416
0.298242	1.303164
0.298340	1.354889
0.298437	1.385438
0.298535	1.399844
0.298633	1.401283
0.298730	1.395291
0.298828	1.388602
0.298926	1.422458
0.299023	1.480044
0.299121	1.489161
0.299219	1.488412
0.299316	1.485738
0.299414	1.495659
0.299512	1.508404
0.299609	1.516394
0.299707	1.505152
0.299805	1.476265
0.299902	1.438011
0.300000	1.434723
0.300098	1.454601
0.300195	1.463801
0.300293	1.452601
0.300391	1.434337
0.300488	1.427696
0.300586	1.443874
0.300684	1.446701
0.300781	1.436038
0.300879	1.429061
0.300977	1.420048
0.301074	1.403740
0.301172	1.380233
0.301270	1.356367
0.301367	1.334458
0.301465	1.321639
0.301562	1.321475
0.301660	1.336547
0.301758	1.355234
0.301855	1.367030
0.301953	1.371375
0.302051	1.370627
0.302148	1.361574
0.302246	1.347497
0.302344	1.324672
0.302441	1.291843
0.302539	1.266215
0.302637	1.261388
0.302734	1.261205
0.302832	1.257013
0.302930	1.253230
0.303027	1.273083
0.303125	1.295175
0.303223	1.341307
0.303320	1.390645
0.303418	1.430025
0.303516	1.452019
0.303613	1.446651
0.303711	1.447524
0.303809	1.440169
0.303906	1.425079
0.304004	1.402267
0.304102	1.394828
0.304199	1.376692
0.304297	1.374914
0.304395	1.381412
0.304492	1.378671
0.304590	1.371596
0.304687	1.382780
0.304785	1.399274
0.304883	1.406610
0.304980	1.400786
0.305078	1.407310
0.305176	1.444675
0.305273	1.464569
0.305371	1.460485
0.305469	1.455558
0.305566	1.447515
0.305664	1.437593
0.305762	1.421780
0.305859	1.409021
0.305957	1.400955
0.306055	1.407200
0.306152	1.412733
0.306250	1.409738
0.306348	1.409184
0.306445	1.390883
0.306543	1.376248
0.306641	1.363952
0.306738	1.355694
0.306836	1.350319
0.306934	1.348455
0.307031	1.344452
0.307129	1.336847
0.307227	1.322239
0.307324	1.306806
0.307422	1.294684
0.307520	1.284069
0.307617	1.274506
0.307715	1.265875
0.307812	1.256779
0.307910	1.248287
0.308008	1.242165
0.308105	1.240048
0.308203	1.240362
0.308301	1.240028
0.308398	1.238008
0.308496	1.234457
0.308594	1.230178
0.308691	1.225754
0.308789	1.221973
0.308887	1.219286
0.308984	1.218254
0.309082	1.218997
0.309180	1.221635
0.309277	1.226708
0.309375	1.234640
0.309473	1.246328
0.309570	1.261100
0.309668	1.279000
0.309766	1.299426
0.309863	1.318912
0.309961	1.338182
0.310059	1.358715
0.310156	1.378930
0.310254	1.395828
0.310352	1.408287
0.310449	1.419651
0.310547	1.426748
0.310645	1.420634
0.310742	1.400478
0.310840	1.381077
0.310937	1.372575
0.311035	1.367145
0.311133	1.354902
0.311230	1.345592
0.311328	1.312756
0.311426	1.288706
0.311523	1.284833
0.311621	1.277198
0.311719	1.281277
0.311816	1.298462
0.311914	1.300866
0.312012	1.292339
0.312109	1.300304
0.312207	1.321965
0.312305	1.335107
0.312402	1.343757
0.312500	1.332216
0.312598	1.315899
0.312695	1.357114
0.312793	1.362352
0.312891	1.360325
0.312988	1.359448
0.313086	1.360187
0.313184	1.362778
0.313281	1.377331
0.313379	1.388796
0.313477	1.393666
0.313574	1.395589
0.313672	1.394253
0.313770	1.353142
0.313867	1.322848
0.313965	1.360235
0.314062	1.360506
0.314160	1.319383
0.314258	1.291529
0.314355	1.287599
0.314453	1.308834
0.314551	1.333220
0.314648	1.370564
0.314746	1.392410
0.314844	1.400899
0.314941	1.453455
0.315039	1.487370
0.315137	1.504548
0.315234	1.509383
0.315332	1.510932
0.315430	1.527379
0.315527	1.536658
0.315625	1.524737
0.315723	1.515512
0.315820	1.514100
0.315918	1.503959
0.316016	1.515341
0.316113	1.525542
0.316211	1.514094
0.316309	1.498309
0.316406	1.484091
0.316504	1.478541
0.316602	1.489508
0.316699	1.484235
0.316797	1.462131
0.316895	1.452856
0.316992	1.438607
0.317090	1.426335
0.317187	1.423910
0.317285	1.422010
0.317383	1.419405
0.317480	1.418279
0.317578	1.422607
0.317676	1.427279
0.317773	1.433505
0.317871	1.427534
0.317969	1.416554
0.318066	1.440825
0.318164	1.467895
0.318262	1.449516
0.318359	1.435249
0.318457	1.450165
0.318555	1.482851
0.318652	1.504921
0.318750	1.521316
0.318848	1.515504
0.318945	1.498312
0.319043	1.497145
0.319141	1.502373
0.319238	1.494786
0.319336	1.476422
0.319434	1.455320
0.319531	1.430596
0.319629	1.440527
0.319727	1.472705
0.319824	1.480763
0.319922	1.471838
0.320020	1.452010
0.320117	1.417522
0.320215	1.393301
0.320312	1.406704
0.320410	1.424883
0.320508	1.432104
0.320605	1.464801
0.320703	1.484964
0.320801	1.499291
0.320898	1.495995
0.320996	1.485572
0.321094	1.495533
0.321191	1.507476
0.321289	1.503076
0.321387	1.512323
0.321484	1.535181
0.321582	1.501377
0.321680	1.502294
0.321777	1.518847
0.321875	1.511987
0.321973	1.488202
0.322070	1.474153
0.322168	1.473840
0.322266	1.478950
0.322363	1.477424
0.322461	1.510180
0.322559	1.539570
0.322656	1.537706
0.322754	1.554139
0.322852	1.549895
0.322949	1.536380
0.323047	1.529909
0.323145	1.529520
0.323242	1.517079
0.323340	1.531029
0.323437	1.544770
0.323535	1.551007
0.323633	1.532938
0.323730	1.559248
0.323828	1.574396
0.323926	1.592560
0.324023	1.590540
0.324121	1.570236
0.324219	1.542605
0.324316	1.544182
0.324414	1.584169
0.324512	1.562959
0.324609	1.544354
0.324707	1.528918
0.324805	1.536006
0.324902	1.523935
0.325000	1.511500
0.325098	1.532116
0.325195	1.531564
0.325293	1.542159
0.325391	1.568819
0.325488	1.571635
0.325586	1.577459
0.325684	1.600489
0.325781	1.562514
0.325879	1.549645
0.325977	1.571172
0.326074	1.557174
0.326172	1.543076
0.326270	1.558740
0.326367	1.577202
0.326465	1.557338
0.326562	1.567402
0.326660	1.573214
0.326758	1.558478
0.326855	1.532363
0.326953	1.533730
0.327051	1.507257
0.327148	1.496801
0.327246	1.503485
0.327344	1.523438
0.327441	1.513119
0.327539	1.493304
0.327637	1.519765
0.327734	1.544576
0.327832	1.536741
0.327930	1.508102
0.328027	1.502323
0.328125	1.498835
0.328223	1.486428
0.328320	1.473141
0.328418	1.462439
0.328516	1.453696
0.328613	1.447792
0.328711	1.444963
0.328809	1.438379
0.328906	1.426230
0.329004	1.415922
0.329102	1.417761
0.329199	1.434160
0.329297	1.441132
0.329395	1.436094
0.329492	1.424913
0.329590	1.414606
0.329687	1.404731
0.329785	1.391703
0.329883	1.377901
0.329980	1.364815
0.330078	1.353494
0.330176	1.344498
0.330273	1.333921
0.330371	1.317858
0.330469	1.297075
0.330566	1.273071
0.330664	1.248564
0.330762	1.244069
0.330859	1.262401
0.330957	1.293199
0.331055	1.328227
0.331152	1.368988
0.331250	1.407015
0.331348	1.444575
0.331445	1.467547
0.331543	1.483625
0.331641	1.497386
0.331738	1.508717
0.331836	1.512466
0.331934	1.520041
0.332031	1.518531
0.332129	1.508447
0.332227	1.460441
0.332324	1.480672
0.332422	1.523378
0.332520	1.521070
0.332617	1.554140
0.332715	1.543350
0.332812	1.567901
0.332910	1.590184
0.333008	1.607764
0.333105	1.621662
0.333203	1.598927
0.333301	1.570610
0.333398	1.550501
0.333496	1.574647
0.333594	1.570327
0.333691	1.569606
0.333789	1.563838
0.333887	1.554783
0.333984	1.530975
0.334082	1.484379
0.334180	1.455875
0.334277	1.474523
0.334375	1.495677
0.334473	1.516131
0.334570	1.534953
0.334668	1.520618
0.334766	1.516638
0.334863	1.513546
0.334961	1.515927
0.335059	1.522665
0.335156	1.521354
0.335254	1.471318
0.335352	1.496073
0.335449	1.507503
0.335547	1.501586
0.335645	1.523988
0.335742	1.534962
0.335840	1.525974
0.335937	1.515603
0.336035	1.524566
0.336133	1.518675
0.336230	1.506486
0.336328	1.508452
0.336426	1.492852
0.336523	1.477691
0.336621	1.477972
0.336719	1.478959
0.336816	1.470305
0.336914	1.458127
0.337012	1.449783
0.337109	1.429957
0.337207	1.400281
0.337305	1.382697
0.337402	1.370492
0.337500	1.357173
0.337598	1.365434
0.337695	1.362820
0.337793	1.351457
0.337891	1.337051
0.337988	1.363768
0.338086	1.406504
0.338184	1.412871
0.338281	1.400527
0.338379	1.398303
0.338477	1.397906
0.338574	1.398941
0.338672	1.392113
0.338770	1.363804
0.338867	1.336345
0.338965	1.312924
0.339062	1.269020
0.339160	1.249622
0.339258	1.292580
0.339355	1.340638
0.339453	1.345711
0.339551	1.341741
0.339648	1.316566
0.339746	1.292184
0.339844	1.280613
0.339941	1.363013
0.340039	1.453923
0.340137	1.483488
0.340234	1.505914
0.340332	1.464040
0.340430	1.415757
0.340527	1.381796
0.340625	1.393483
0.340723	1.415801
0.340820	1.423974
0.340918	1.402985
0.341016	1.408896
0.341113	1.448090
0.341211	1.421182
0.341309	1.399703
0.341406	1.413896
0.341504	1.422659
0.341602	1.402134
0.341699	1.385107
0.341797	1.380391
0.341895	1.394145
0.341992	1.433180
0.342090	1.428451
0.342187	1.395060
0.342285	1.403073
0.342383	1.423307
0.342480	1.455986
0.342578	1.509923
0.342676	1.530963
0.342773	1.533317
0.342871	1.537094
0.342969	1.514357
0.343066	1.484892
0.343164	1.470567
0.343262	1.464294
0.343359	1.469562
0.343457	1.461436
0.343555	1.441594
0.343652	1.422690
0.343750	1.413149
0.343848	1.411622
0.343945	1.431390
0.344043	1.470900
0.344141	1.510689
0.344238	1.541157
0.344336	1.537303
0.344434	1.495765
0.344531	1.466571
0.344629	1.446255
0.344727	1.432539
0.344824	1.432638
0.344922	1.435364
0.345020	1.422068
0.345117	1.395255
0.345215	1.395720
0.345312	1.425411
0.345410	1.430533
0.345508	1.425961
0.345605	1.428667
0.345703	1.443634
0.345801	1.464746
0.345898	1.475414
0.345996	1.491867
0.346094	1.487992
0.346191	1.461935
0.346289	1.435033
0.346387	1.424097
0.346484	1.424755
0.346582	1.422274
0.346680	1.413634
0.346777	1.405254
0.346875	1.401563
0.346973	1.398653
0.347070	1.399601
0.347168	1.416936
0.347266	1.436160
0.347363	1.443858
0.347461	1.459377
0.347559	1.461568
0.347656	1.438839
0.347754	1.421883
0.347852	1.422597
0.347949	1.422161
0.348047	1.432086
0.348145	1.426847
0.348242	1.437245
0.348340	1.459585
0.348437	1.465778
0.348535	1.486901
0.348633	1.492079
0.348730	1.479982
0.348828	1.480412
0.348926	1.484384
0.349023	1.483751
0.349121	1.496433
0.349219	1.515601
0.349316	1.529582
0.349414	1.523607
0.349512	1.510406
0.349609	1.491580
0.349707	1.469877
0.349805	1.457478
0.349902	1.456878
0.350000	1.466620
0.350098	1.485266
0.350195	1.502372
0.350293	1.524194
0.350391	1.511898
0.350488	1.505128
0.350586	1.508738
0.350684	1.491267
0.350781	1.483789
0.350879	1.479812
0.350977	1.478801
0.351074	1.466951
0.351172	1.453501
0.351270	1.472193
0.351367	1.490961
0.351465	1.485745
0.351562	1.479978
0.351660	1.478687
0.351758	1.464524
0.351855	1.442134
0.351953	1.444238
0.352051	1.453299
0.352148	1.460912
0.352246	1.429357
0.352344	1.378868
0.352441	1.327548
0.352539	1.324426
0.352637	1.370547
0.352734	1.410475
0.352832	1.425022
0.352930	1.437023
0.353027	1.452961
0.353125	1.477228
0.353223	1.434473
0.353320	1.397072
0.353418	1.407523
0.353516	1.419559
0.353613	1.440528
0.353711	1.461987
0.353809	1.480179
0.353906	1.474438
0.354004	1.465186
0.354102	1.458199
0.354199	1.439067
0.354297	1.437891
0.354395	1.457377
0.354492	1.463374
0.354590	1.488053
0.354687	1.457068
0.354785	1.441214
0.354883	1.459394
0.354980	1.470684
0.355078	1.477713
0.355176	1.463390
0.355273	1.451430
0.355371	1.453847
0.355469	1.458256
0.355566	1.445157
0.355664	1.441221
0.355762	1.437026
0.355859	1.418927
0.355957	1.399561
0.356055	1.393731
0.356152	1.409221
0.356250	1.425170
0.356348	1.431387
0.356445	1.421404
0.356543	1.398206
0.356641	1.411182
0.356738	1.435197
0.356836	1.454013
0.356934	1.463622
0.357031	1.430733
0.357129	1.427040
0.357227	1.457183
0.357324	1.444593
0.357422	1.482906
0.357520	1.517232
0.357617	1.519373
0.357715	1.521993
0.357812	1.529009
0.357910	1.529879
0.358008	1.535053
0.358105	1.544560
0.358203	1.530635
0.358301	1.552714
0.358398	1.551853
0.358496	1.530013
0.358594	1.514889
0.358691	1.506855
0.358789	1.472054
0.358887	1.459347
0.358984	1.509310
0.359082	1.566691
0.359180	1.580813
0.359277	1.573562
0.359375	1.567233
0.359473	1.577800
0.359570	1.581271
0.359668	1.561673
0.359766	1.535027
0.359863	1.572290
0.359961	1.573914
0.360059	1.573314
0.360156	1.588158
0.360254	1.538370
0.360352	1.493901
0.360449	1.480754
0.360547	1.489775
0.360645	1.469286
0.360742	1.523161
0.360840	1.542232
0.360937	1.549903
0.361035	1.560032
0.361133	1.558302
0.361230	1.560239
0.361328	1.551858
0.361426	1.548641
0.361523	1.513925
0.361621	1.518826
0.361719	1.522116
0.361816	1.521620
0.361914	1.544422
0.362012	1.554826
0.362109	1.567438
0.362207	1.551961
0.362305	1.554883
0.362402	1.579378
0.362500	1.597562
0.362598	1.616100
0.362695	1.620596
0.362793	1.618442
0.362891	1.603233
0.362988	1.563070
0.363086	1.575439
0.363184	1.575353
0.363281	1.564556
0.363379	1.566346
0.363477	1.559353
0.363574	1.537596
0.363672	1.567299
0.363770	1.532811
0.363867	1.559571
0.363965	1.576116
0.364062	1.535239
0.364160	1.485130
0.364258	1.525053
0.364355	1.572196
0.364453	1.598102
0.364551	1.620822
0.364648	1.615540
0.364746	1.620977
0.364844	1.602013
0.364941	1.600368
0.365039	1.592239
0.365137	1.600110
0.365234	1.561912
0.365332	1.541608
0.365430	1.537744
0.365527	1.507606
0.365625	1.503314
0.365723	1.540283
0.365820	1.594843
0.365918	1.569636
0.366016	1.561920
0.366113	1.521623
0.366211	1.503763
0.366309	1.510381
0.366406	1.499426
0.366504	1.498258
0.366602	1.502744
0.366699	1.514341
0.366797	1.528396
0.366895	1.523074
0.366992	1.520187
0.367090	1.531194
0.367187	1.518479
0.367285	1.516511
0.367383	1.517395
0.367480	1.509130
0.367578	1.493589
0.367676	1.459962
0.367773	1.414106
0.367871	1.394499
0.367969	1.392854
0.368066	1.394705
0.368164	1.399912
0.368262	1.407966
0.368359	1.408745
0.368457	1.397821
0.368555	1.407744
0.368652	1.419154
0.368750	1.428600
0.368848	1.428666
0.368945	1.410699
0.369043	1.398660
0.369141	1.396923
0.369238	1.442240
0.369336	1.466891
0.369434	1.479680
0.369531	1.473270
0.369629	1.502379
0.369727	1.493590
0.369824	1.474230
0.369922	1.492328
0.370020	1.503195
0.370117	1.504496
0.370215	1.487178
0.370312	1.475054
0.370410	1.463867
0.370508	1.454006
0.370605	1.444877
0.370703	1.440929
0.370801	1.417268
0.370898	1.376462
0.370996	1.329015
0.371094	1.319323
0.371191	1.359044
0.371289	1.393458
0.371387	1.398504
0.371484	1.401305
0.371582	1.405181
0.371680	1.413636
0.371777	1.424304
0.371875	1.440886
0.371973	1.446668
0.372070	1.434559
0.372168	1.446320
0.372266	1.461631
0.372363	1.452662
0.372461	1.416067
0.372559	1.396823
0.372656	1.405566
0.372754	1.409448
0.372852	1.415302
0.372949	1.422375
0.373047	1.434193
0.373145	1.448450
0.373242	1.464268
0.373340	1.483877
0.373437	1.489817
0.373535	1.480520
0.373633	1.479949
0.373730	1.493000
0.373828	1.537987
0.373926	1.624246
0.374023	1.646979
0.374121	1.671102
0.374219	1.660150
0.374316	1.664553
0.374414	1.665248
0.374512	1.670501
0.374609	1.673288
0.374707	1.664634
0.374805	1.653421
0.374902	1.627516
0.375000	1.614795
0.375098	1.649064
0.375195	1.665503
0.375293	1.661479
0.375391	1.666921
0.375488	1.658058
0.375586	1.680302
0.375684	1.695606
0.375781	1.687719
0.375879	1.683856
0.375977	1.698956
0.376074	1.688880
0.376172	1.684915
0.376270	1.695203
0.376367	1.694513
0.376465	1.670311
0.376562	1.661892
0.376660	1.664347
0.376758	1.666858
0.376855	1.650313
0.376953	1.632964
0.377051	1.610941
0.377148	1.603993
0.377246	1.634894
0.377344	1.658768
0.377441	1.634534
0.377539	1.602544
0.377637	1.634600
0.377734	1.659907
0.377832	1.644603
0.377930	1.632582
0.378027	1.631866
0.378125	1.628665
0.378223	1.618968
0.378320	1.602740
0.378418	1.595248
0.378516	1.582208
0.378613	1.569884
0.378711	1.586222
0.378809	1.592270
0.378906	1.597127
0.379004	1.599904
0.379102	1.595111
0.379199	1.579023
0.379297	1.569223
0.379395	1.566550
0.379492	1.586714
0.379590	1.596624
0.379687	1.587774
0.379785	1.599580
0.379883	1.589826
0.379980	1.579460
0.380078	1.553333
0.380176	1.534662
0.380273	1.543109
0.380371	1.581435
0.380469	1.596371
0.380566	1.626326
0.380664	1.647424
0.380762	1.609931
0.380859	1.597103
0.380957	1.589531
0.381055	1.556298
0.381152	1.537997
0.381250	1.541889
0.381348	1.571722
0.381445	1.581866
0.381543	1.564909
0.381641	1.549944
0.381738	1.554994
0.381836	1.565803
0.381934	1.525742
0.382031	1.492838
0.382129	1.486199
0.382227	1.500607
0.382324	1.518171
0.382422	1.536106
0.382520	1.519894
0.382617	1.495130
0.382715	1.474014
0.382812	1.459440
0.382910	1.441931
0.383008	1.421410
0.383105	1.399741
0.383203	1.395628
0.383301	1.411624
0.383398	1.422592
0.383496	1.435212
0.383594	1.450917
0.383691	1.467437
0.383789	1.482045
0.383887	1.473164
0.383984	1.475886
0.384082	1.468659
0.384180	1.454143
0.384277	1.441536
0.384375	1.428370
0.384473	1.426223
0.384570	1.427733
0.384668	1.437570
0.384766	1.451411
0.384863	1.454247
0.384961	1.457727
0.385059	1.461755
0.385156	1.467521
0.385254	1.466186
0.385352	1.465457
0.385449	1.473638
0.385547	1.470795
0.385645	1.456148
0.385742	1.446099
0.385840	1.453490
0.385937	1.453571
0.386035	1.450394
0.386133	1.456963
0.386230	1.461088
0.386328	1.451846
0.386426	1.454749
0.386523	1.445397
0.386621	1.433227
0.386719	1.432243
0.386816	1.458385
0.386914	1.484590
0.387012	1.467998
0.387109	1.474504
0.387207	1.466870
0.387305	1.488643
0.387402	1.486281
0.387500	1.454441
0.387598	1.457938
0.387695	1.479229
0.387793	1.513797
0.387891	1.547558
0.387988	1.543133
0.388086	1.542061
0.388184	1.548363
0.388281	1.544375
0.388379	1.539779
0.388477	1.522282
0.388574	1.497014
0.388672	1.482968
0.388770	1.480944
0.388867	1.472831
0.388965	1.492113
0.389062	1.492762
0.389160	1.479415
0.389258	1.467999
0.389355	1.463588
0.389453	1.448379
0.389551	1.448047
0.389648	1.443177
0.389746	1.438338
0.389844	1.441459
0.389941	1.428854
0.390039	1.382377
0.390137	1.362730
0.390234	1.382750
0.390332	1.398971
0.390430	1.409238
0.390527	1.432436
0.390625	1.453545
0.390723	1.409713
0.390820	1.343845
0.390918	1.356545
0.391016	1.378424
0.391113	1.400178
0.391211	1.405960
0.391309	1.386459
0.391406	1.408190
0.391504	1.387392
0.391602	1.361867
0.391699	1.338957
0.391797	1.322369
0.391895	1.371758
0.391992	1.391954
0.392090	1.371928
0.392187	1.371192
0.392285	1.375684
0.392383	1.366976
0.392480	1.385348
0.392578	1.415438
0.392676	1.392658
0.392773	1.365542
0.392871	1.363265
0.392969	1.365409
0.393066	1.345966
0.393164	1.331060
0.393262	1.317299
0.393359	1.304155
0.393457	1.292358
0.393555	1.297572
0.393652	1.309164
0.393750	1.308266
0.393848	1.299029
0.393945	1.292026
0.394043	1.294782
0.394141	1.306587
0.394238	1.320676
0.394336	1.322209
0.394434	1.330238
0.394531	1.348428
0.394629	1.364417
0.394727	1.383200
0.394824	1.393190
0.394922	1.390525
0.395020	1.380689
0.395117	1.365885
0.395215	1.341737
0.395312	1.323967
0.395410	1.324161
0.395508	1.328916
0.395605	1.321488
0.395703	1.311040
0.395801	1.305526
0.395898	1.321223
0.395996	1.349918
0.396094	1.367754
0.396191	1.368880
0.396289	1.362020
0.396387	1.347019
0.396484	1.340541
0.396582	1.358612
0.396680	1.365461
0.396777	1.355955
0.396875	1.341122
0.396973	1.319561
0.397070	1.298353
0.397168	1.302206
0.397266	1.315393
0.397363	1.313973
0.397461	1.319606
0.397559	1.358772
0.397656	1.398985
0.397754	1.392978
0.397852	1.345568
0.397949	1.299886
0.398047	1.273224
0.398145	1.270110
0.398242	1.290299
0.398340	1.318011
0.398437	1.327903
0.398535	1.316609
0.398633	1.291852
0.398730	1.269112
0.398828	1.292402
0.398926	1.380480
0.399023	1.424566
0.399121	1.439157
0.399219	1.458242
0.399316	1.470133
0.399414	1.474040
0.399512	1.480675
0.399609	1.492748
0.399707	1.491382
0.399805	1.485456
0.399902	1.477751
0.400000	1.473162
0.400098	1.467268
0.400195	1.462290
0.400293	1.456219
0.400391	1.453378
0.400488	1.454921
0.400586	1.471548
0.400684	1.488219
0.400781	1.512720
0.400879	1.528302
0.400977	1.538618
0.401074	1.537764
0.401172	1.532244
0.401270	1.536144
0.401367	1.527457
0.401465	1.537497
0.401562	1.545210
0.401660	1.533324
0.401758	1.518047
0.401855	1.508321
0.401953	1.505540
0.402051	1.520469
0.402148	1.529848
0.402246	1.535504
0.402344	1.527716
0.402441	1.515174
0.402539	1.524593
0.402637	1.557713
0.402734	1.570848
0.402832	1.566047
0.402930	1.585748
0.403027	1.629243
0.403125	1.630439
0.403223	1.606187
0.403320	1.620297
0.403418	1.618981
0.403516	1.594175
0.403613	1.591439
0.403711	1.568955
0.403809	1.542089
0.403906	1.528943
0.404004	1.540292
0.404102	1.554996
0.404199	1.530962
0.404297	1.530334
0.404395	1.536404
0.404492	1.498994
0.404590	1.503300
0.404687	1.519331
0.404785	1.506611
0.404883	1.511827
0.404980	1.496395
0.405078	1.501194
0.405176	1.492524
0.405273	1.494045
0.405371	1.488346
0.405469	1.484167
0.405566	1.458621
0.405664	1.395279
0.405762	1.354856
0.405859	1.347304
0.405957	1.362737
0.406055	1.370249
0.406152	1.373354
0.406250	1.366743
0.406348	1.358709
0.406445	1.401265
0.406543	1.436645
0.406641	1.426247
0.406738	1.400427
0.406836	1.375345
0.406934	1.380389
0.407031	1.368288
0.407129	1.355744
0.407227	1.333572
0.407324	1.352092
0.407422	1.381438
0.407520	1.372456
0.407617	1.332803
0.407715	1.334032
0.407812	1.338688
0.407910	1.327427
0.408008	1.317954
0.408105	1.305867
0.408203	1.296909
0.408301	1.300394
0.408398	1.314805
0.408496	1.326169
0.408594	1.326123
0.408691	1.316745
0.408789	1.310789
0.408887	1.320169
0.408984	1.329933
0.409082	1.367855
0.409180	1.414998
0.409277	1.419940
0.409375	1.401405
0.409473	1.368296
0.409570	1.357212
0.409668	1.353457
0.409766	1.340347
0.409863	1.384305
0.409961	1.425265
0.410059	1.425549
0.410156	1.423840
0.410254	1.460000
0.410352	1.469957
0.410449	1.452625
0.410547	1.421672
0.410645	1.380529
0.410742	1.413348
0.410840	1.443340
0.410937	1.388942
0.411035	1.368158
0.411133	1.369173
0.411230	1.351184
0.411328	1.376204
0.411426	1.405464
0.411523	1.388119
0.411621	1.370919
0.411719	1.335315
0.411816	1.314919
0.411914	1.331856
0.412012	1.319345
0.412109	1.310547
0.412207	1.345787
0.412305	1.415178
0.412402	1.430617
0.412500	1.462337
0.412598	1.481313
0.412695	1.482203
0.412793	1.483768
0.412891	1.466847
0.412988	1.428296
0.413086	1.420050
0.413184	1.414779
0.413281	1.414989
0.413379	1.473001
0.413477	1.480043
0.413574	1.488122
0.413672	1.550620
0.413770	1.555744
0.413867	1.503103
0.413965	1.427957
0.414062	1.396100
0.414160	1.420723
0.414258	1.441577
0.414355	1.430938
0.414453	1.478294
0.414551	1.544723
0.414648	1.540833
0.414746	1.485452
0.414844	1.477430
0.414941	1.482327
0.415039	1.475470
0.415137	1.466949
0.415234	1.451574
0.415332	1.459564
0.415430	1.482379
0.415527	1.503605
0.415625	1.521816
0.415723	1.507052
0.415820	1.476355
0.415918	1.452885
0.416016	1.458153
0.416113	1.460513
0.416211	1.461701
0.416309	1.442563
0.416406	1.434407
0.416504	1.430579
0.416602	1.434687
0.416699	1.435874
0.416797	1.431892
0.416895	1.449467
0.416992	1.468431
0.417090	1.481530
0.417187	1.468091
0.417285	1.445216
0.417383	1.433558
0.417480	1.431108
0.417578	1.422044
0.417676	1.416964
0.417773	1.405082
0.417871	1.391622
0.417969	1.384238
0.418066	1.368122
0.418164	1.345862
0.418262	1.325653
0.418359	1.338482
0.418457	1.367967
0.418555	1.380880
0.418652	1.385042
0.418750	1.388145
0.418848	1.394304
0.418945	1.399571
0.419043	1.402031
0.419141	1.397092
0.419238	1.388786
0.419336	1.380285
0.419434	1.371552
0.419531	1.364625
0.419629	1.368259
0.419727	1.380329
0.419824	1.380619
0.419922	1.362605
0.420020	1.331209
0.420117	1.295178
0.420215	1.275536
0.420312	1.275453
0.420410	1.294597
0.420508	1.314583
0.420605	1.330367
0.420703	1.347827
0.420801	1.352872
0.420898	1.324022
0.420996	1.293796
0.421094	1.323421
0.421191	1.360043
0.421289	1.344124
0.421387	1.328420
0.421484	1.315259
0.421582	1.323795
0.421680	1.342029
0.421777	1.361455
0.421875	1.386334
0.421973	1.403772
0.422070	1.377751
0.422168	1.339677
0.422266	1.318280
0.422363	1.317725
0.422461	1.334364
0.422559	1.329818
0.422656	1.326264
0.422754	1.358034
0.422852	1.388359
0.422949	1.389834
0.423047	1.392427
0.423145	1.396228
0.423242	1.403312
0.423340	1.406569
0.423437	1.411040
0.423535	1.413315
0.423633	1.420993
0.423730	1.432227
0.423828	1.447567
0.423926	1.448481
0.424023	1.456025
0.424121	1.462209
0.424219	1.462486
0.424316	1.476303
0.424414	1.468476
0.424512	1.455676
0.424609	1.454354
0.424707	1.478784
0.424805	1.514161
0.424902	1.520225
0.425000	1.509626
0.425098	1.502824
0.425195	1.501456
0.425293	1.492938
0.425391	1.482371
0.425488	1.480785
0.425586	1.477735
0.425684	1.469878
0.425781	1.462898
0.425879	1.454886
0.425977	1.450993
0.426074	1.459023
0.426172	1.465396
0.426270	1.452009
0.426367	1.448029
0.426465	1.456280
0.426562	1.456328
0.426660	1.479861
0.426758	1.517306
0.426855	1.513178
0.426953	1.526045
0.427051	1.547942
0.427148	1.505025
0.427246	1.525486
0.427344	1.610133
0.427441	1.600877
0.427539	1.616468
0.427637	1.635202
0.427734	1.644636
0.427832	1.602324
0.427930	1.586581
0.428027	1.626980
0.428125	1.616028
0.428223	1.600204
0.428320	1.596076
0.428418	1.577985
0.428516	1.549048
0.428613	1.549290
0.428711	1.563079
0.428809	1.551586
0.428906	1.519229
0.429004	1.496473
0.429102	1.515240
0.429199	1.539808
0.429297	1.548192
0.429395	1.530213
0.429492	1.497445
0.429590	1.506364
0.429687	1.510384
0.429785	1.512569
0.429883	1.525281
0.429980	1.535450
0.430078	1.546542
0.430176	1.532187
0.430273	1.509631
0.430371	1.483896
0.430469	1.511238
0.430566	1.533758
0.430664	1.532613
0.430762	1.535646
0.430859	1.502750
0.430957	1.503527
0.431055	1.517094
0.431152	1.538117
0.431250	1.528541
0.431348	1.538985
0.431445	1.583923
0.431543	1.600862
0.431641	1.607184
0.431738	1.597660
0.431836	1.578284
0.431934	1.564624
0.432031	1.535876
0.432129	1.554221
0.432227	1.550511
0.432324	1.539049
0.432422	1.542075
0.432520	1.542407
0.432617	1.536967
0.432715	1.519875
0.432812	1.507608
0.432910	1.500541
0.433008	1.497295
0.433105	1.492659
0.433203	1.492515
0.433301	1.508680
0.433398	1.506361
0.433496	1.489316
0.433594	1.494176
0.433691	1.525826
0.433789	1.553799
0.433887	1.573779
0.433984	1.574575
0.434082	1.583320
0.434180	1.601107
0.434277	1.590512
0.434375	1.567677
0.434473	1.566684
0.434570	1.559524
0.434668	1.559388
0.434766	1.556738
0.434863	1.537785
0.434961	1.541470
0.435059	1.570008
0.435156	1.593631
0.435254	1.596601
0.435352	1.589010
0.435449	1.594841
0.435547	1.597663
0.435645	1.594286
0.435742	1.585035
0.435840	1.583140
0.435937	1.588610
0.436035	1.594535
0.436133	1.596699
0.436230	1.562837
0.436328	1.532487
0.436426	1.531213
0.436523	1.494852
0.436621	1.491614
0.436719	1.517392
0.436816	1.541195
0.436914	1.533942
0.437012	1.519078
0.437109	1.494479
0.437207	1.495295
0.437305	1.505030
0.437402	1.532160
0.437500	1.564320
0.437598	1.611050
0.437695	1.632297
0.437793	1.623791
0.437891	1.577453
0.437988	1.562214
0.438086	1.606128
0.438184	1.556933
0.438281	1.527015
0.438379	1.505832
0.438477	1.495898
0.438574	1.486292
0.438672	1.487269
0.438770	1.513663
0.438867	1.502973
0.438965	1.469715
0.439062	1.476811
0.439160	1.476735
0.439258	1.451256
0.439355	1.442322
0.439453	1.439320
0.439551	1.460778
0.439648	1.519453
0.439746	1.543460
0.439844	1.519434
0.439941	1.501039
0.440039	1.478023
0.440137	1.458735
0.440234	1.443517
0.440332	1.422811
0.440430	1.407054
0.440527	1.415275
0.440625	1.424344
0.440723	1.421938
0.440820	1.412362
0.440918	1.407683
0.441016	1.407307
0.441113	1.412193
0.441211	1.416884
0.441309	1.416503
0.441406	1.418788
0.441504	1.418720
0.441602	1.409278
0.441699	1.380831
0.441797	1.349953
0.441895	1.349723
0.441992	1.357774
0.442090	1.350139
0.442187	1.325267
0.442285	1.311554
0.442383	1.317415
0.442480	1.341658
0.442578	1.370948
0.442676	1.375428
0.442773	1.359062
0.442871	1.337322
0.442969	1.330640
0.443066	1.347722
0.443164	1.323426
0.443262	1.314670
0.443359	1.348403
0.443457	1.348451
0.443555	1.345239
0.443652	1.337851
0.443750	1.355676
0.443848	1.376077
0.443945	1.368970
0.444043	1.346719
0.444141	1.346467
0.444238	1.343654
0.444336	1.350384
0.444434	1.379735
0.444531	1.388477
0.444629	1.415798
0.444727	1.424289
0.444824	1.408256
0.444922	1.373381
0.445020	1.374332
0.445117	1.360070
0.445215	1.342821
0.445312	1.349589
0.445410	1.345755
0.445508	1.366875
0.445605	1.442637
0.445703	1.432388
0.445801	1.421287
0.445898	1.485245
0.445996	1.471140
0.446094	1.455799
0.446191	1.448023
0.446289	1.410838
0.446387	1.380553
0.446484	1.432481
0.446582	1.470576
0.446680	1.433186
0.446777	1.363252
0.446875	1.358586
0.446973	1.411408
0.447070	1.411365
0.447168	1.396576
0.447266	1.413606
0.447363	1.421798
0.447461	1.466996
0.447559	1.455117
0.447656	1.398014
0.447754	1.350637
0.447852	1.327415
0.447949	1.354792
0.448047	1.349631
0.448145	1.332437
0.448242	1.342835
0.448340	1.367687
0.448437	1.376219
0.448535	1.354503
0.448633	1.358197
0.448730	1.355814
0.448828	1.334709
0.448926	1.313723
0.449023	1.337071
0.449121	1.375946
0.449219	1.414291
0.449316	1.459150
0.449414	1.466063
0.449512	1.471157
0.449609	1.482122
0.449707	1.495618
0.449805	1.504518
0.449902	1.516118
0.450000	1.535733
0.450098	1.555479
0.450195	1.573448
0.450293	1.586074
0.450391	1.586077
0.450488	1.581856
0.450586	1.574411
0.450684	1.559923
0.450781	1.531610
0.450879	1.516743
0.450977	1.519792
0.451074	1.518050
0.451172	1.525425
0.451270	1.512090
0.451367	1.487501
0.451465	1.487510
0.451562	1.491722
0.451660	1.495219
0.451758	1.531844
0.451855	1.526020
0.451953	1.488100
0.452051	1.480622
0.452148	1.488336
0.452246	1.488510
0.452344	1.481377
0.452441	1.478960
0.452539	1.475201
0.452637	1.475102
0.452734	1.468165
0.452832	1.435165
0.452930	1.444326
0.453027	1.461596
0.453125	1.456940
0.453223	1.439014
0.453320	1.411615
0.453418	1.385493
0.453516	1.384496
0.453613	1.375239
0.453711	1.342124
0.453809	1.338007
0.453906	1.358443
0.454004	1.416925
0.454102	1.494607
0.454199	1.526774
0.454297	1.529326
0.454395	1.494557
0.454492	1.443100
0.454590	1.414973
0.454687	1.426932
0.454785	1.459525
0.454883	1.504174
0.454980	1.552564
0.455078	1.579552
0.455176	1.588798
0.455273	1.593027
0.455371	1.578461
0.455469	1.575908
0.455566	1.588765
0.455664	1.587384
0.455762	1.583560
0.455859	1.582628
0.455957	1.579583
0.456055	1.582332
0.456152	1.572089
0.456250	1.586877
0.456348	1.565893
0.456445	1.550014
0.456543	1.518861
0.456641	1.480600
0.456738	1.465255
0.456836	1.473462
0.456934	1.509981
0.457031	1.541460
0.457129	1.565909
0.457227	1.581382
0.457324	1.580169
0.457422	1.576249
0.457520	1.572534
0.457617	1.570788
0.457715	1.558586
0.457812	1.526579
0.457910	1.497617
0.458008	1.526329
0.458105	1.547021
0.458203	1.540324
0.458301	1.506102
0.458398	1.504039
0.458496	1.511858
0.458594	1.505698
0.458691	1.488360
0.458789	1.469466
0.458887	1.441143
0.458984	1.445676
0.459082	1.462755
0.459180	1.470485
0.459277	1.478629
0.459375	1.504228
0.459473	1.520758
0.459570	1.499707
0.459668	1.477801
0.459766	1.460356
0.459863	1.445384
0.459961	1.440155
0.460059	1.465811
0.460156	1.485078
0.460254	1.479500
0.460352	1.466590
0.460449	1.462451
0.460547	1.460673
0.460645	1.428817
0.460742	1.411776
0.460840	1.462387
0.460937	1.475869
0.461035	1.485133
0.461133	1.505539
0.461230	1.491498
0.461328	1.490701
0.461426	1.499118
0.461523	1.513553
0.461621	1.515376
0.461719	1.507007
0.461816	1.493392
0.461914	1.482378
0.462012	1.488785
0.462109	1.490698
0.462207	1.501780
0.462305	1.519305
0.462402	1.526015
0.462500	1.536055
0.462598	1.551079
0.462695	1.527322
0.462793	1.528672
0.462891	1.571167
0.462988	1.582771
0.463086	1.574416
0.463184	1.564083
0.463281	1.556137
0.463379	1.554510
0.463477	1.544687
0.463574	1.534145
0.463672	1.531295
0.463770	1.517468
0.463867	1.494086
0.463965	1.504559
0.464062	1.535526
0.464160	1.541049
0.464258	1.537334
0.464355	1.549078
0.464453	1.572429
0.464551	1.577349
0.464648	1.581978
0.464746	1.571176
0.464844	1.575652
0.464941	1.571574
0.465039	1.552409
0.465137	1.542229
0.465234	1.526064
0.465332	1.515162
0.465430	1.521294
0.465527	1.552516
0.465625	1.558094
0.465723	1.565425
0.465820	1.579458
0.465918	1.600932
0.466016	1.600924
0.466113	1.543625
0.466211	1.573992
0.466309	1.577317
0.466406	1.592525
0.466504	1.624094
0.466602	1.585097
0.466699	1.603337
0.466797	1.646623
0.466895	1.638213
0.466992	1.611155
0.467090	1.608362
0.467187	1.611693
0.467285	1.604685
0.467383	1.585203
0.467480	1.568573
0.467578	1.595228
0.467676	1.635370
0.467773	1.625856
0.467871	1.601351
0.467969	1.589721
0.468066	1.576594
0.468164	1.569823
0.468262	1.538486
0.468359	1.546465
0.468457	1.561125
0.468555	1.566933
0.468652	1.577794
0.468750	1.576651
0.468848	1.573337
0.468945	1.583254
0.469043	1.582119
0.469141	1.536141
0.469238	1.504295
0.469336	1.505525
0.469434	1.505581
0.469531	1.487978
0.469629	1.476396
0.469727	1.504635
0.469824	1.508273
0.469922	1.505429
0.470020	1.495286
0.470117	1.535846
0.470215	1.540502
0.470312	1.555863
0.470410	1.576992
0.470508	1.538387
0.470605	1.536764
0.470703	1.530612
0.470801	1.496246
0.470898	1.505160
0.470996	1.545619
0.471094	1.543946
0.471191	1.537517
0.471289	1.509034
0.471387	1.483864
0.471484	1.454350
0.471582	1.402095
0.471680	1.381085
0.471777	1.406362
0.471875	1.405184
0.471973	1.381991
0.472070	1.365404
0.472168	1.347611
0.472266	1.352073
0.472363	1.380166
0.472461	1.376019
0.472559	1.384723
0.472656	1.410098
0.472754	1.408867
0.472852	1.393300
0.472949	1.371986
0.473047	1.365172
0.473145	1.368855
0.473242	1.386938
0.473340	1.410330
0.473437	1.423427
0.473535	1.434487
0.473633	1.442485
0.473730	1.440187
0.473828	1.420499
0.473926	1.398004
0.474023	1.370678
0.474121	1.347994
0.474219	1.338859
0.474316	1.337126
0.474414	1.336234
0.474512	1.335421
0.474609	1.333864
0.474707	1.331247
0.474805	1.325965
0.474902	1.315604
0.475000	1.300760
0.475098	1.283874
0.475195	1.267469
0.475293	1.254250
0.475391	1.247001
0.475488	1.245774
0.475586	1.245613
0.475684	1.240404
0.475781	1.229116
0.475879	1.213702
0.475977	1.202047
0.476074	1.199614
0.476172	1.210619
0.476270	1.231844
0.476367	1.257890
0.476465	1.276938
0.476562	1.291551
0.476660	1.299295
0.476758	1.328915
0.476855	1.389757
0.476953	1.430608
0.477051	1.460690
0.477148	1.484020
0.477246	1.491760
0.477344	1.481057
0.477441	1.459244
0.477539	1.416399
0.477637	1.360192
0.477734	1.313545
0.477832	1.348527
0.477930	1.391777
0.478027	1.422546
0.478125	1.453866
0.478223	1.480407
0.478320	1.497871
0.478418	1.486765
0.478516	1.440542
0.478613	1.405646
0.478711	1.479705
0.478809	1.519132
0.478906	1.544996
0.479004	1.557583
0.479102	1.512299
0.479199	1.458453
0.479297	1.484476
0.479395	1.494511
0.479492	1.495075
0.479590	1.497893
0.479687	1.483707
0.479785	1.461123
0.479883	1.462882
0.479980	1.468982
0.480078	1.465177
0.480176	1.447525
0.480273	1.452737
0.480371	1.453598
0.480469	1.486397
0.480566	1.468666
0.480664	1.472619
0.480762	1.479399
0.480859	1.466273
0.480957	1.438527
0.481055	1.471209
0.481152	1.522917
0.481250	1.499788
0.481348	1.509886
0.481445	1.511217
0.481543	1.532111
0.481641	1.552200
0.481738	1.559969
0.481836	1.566949
0.481934	1.582929
0.482031	1.585302
0.482129	1.584011
0.482227	1.614274
0.482324	1.639296
0.482422	1.642797
0.482520	1.634427
0.482617	1.619090
0.482715	1.628594
0.482812	1.628006
0.482910	1.616571
0.483008	1.599836
0.483105	1.589273
0.483203	1.567486
0.483301	1.529795
0.483398	1.531908
0.483496	1.578537
0.483594	1.607446
0.483691	1.591881
0.483789	1.605345
0.483887	1.637815
0.483984	1.657237
0.484082	1.669653
0.484180	1.698301
0.484277	1.695779
0.484375	1.681808
0.484473	1.663406
0.484570	1.653917
0.484668	1.641277
0.484766	1.652613
0.484863	1.627805
0.484961	1.604452
0.485059	1.610831
0.485156	1.616148
0.485254	1.604874
0.485352	1.566205
0.485449	1.544955
0.485547	1.547275
0.485645	1.566638
0.485742	1.579048
0.485840	1.595079
0.485937	1.606987
0.486035	1.601203
0.486133	1.610630
0.486230	1.584489
0.486328	1.583869
0.486426	1.609027
0.486523	1.593619
0.486621	1.629839
0.486719	1.650232
0.486816	1.622127
0.486914	1.589728
0.487012	1.564382
0.487109	1.559955
0.487207	1.589267
0.487305	1.602551
0.487402	1.573721
0.487500	1.586428
0.487598	1.577307
0.487695	1.591921
0.487793	1.595640
0.487891	1.585423
0.487988	1.572060
0.488086	1.596704
0.488184	1.600904
0.488281	1.578866
0.488379	1.578085
0.488477	1.554662
0.488574	1.544626
0.488672	1.533171
0.488770	1.523514
0.488867	1.510982
0.488965	1.502810
0.489062	1.501595
0.489160	1.492936
0.489258	1.470913
0.489355	1.459839
0.489453	1.467209
0.489551	1.461947
0.489648	1.459053
0.489746	1.447750
0.489844	1.437766
0.489941	1.426283
0.490039	1.428965
0.490137	1.444172
0.490234	1.472501
0.490332	1.466403
0.490430	1.457998
0.490527	1.423339
0.490625	1.395337
0.490723	1.420092
0.490820	1.402688
0.490918	1.428995
0.491016	1.473694
0.491113	1.474256
0.491211	1.492363
0.491309	1.497514
0.491406	1.489149
0.491504	1.475561
0.491602	1.453285
0.491699	1.412330
0.491797	1.389530
0.491895	1.400907
0.491992	1.406483
0.492090	1.402195
0.492187	1.406391
0.492285	1.417582
0.492383	1.410049
0.492480	1.392716
0.492578	1.393388
0.492676	1.398621
0.492773	1.386941
0.492871	1.369023
0.492969	1.367682
0.493066	1.372108
0.493164	1.371234
0.493262	1.366681
0.493359	1.368057
0.493457	1.377164
0.493555	1.396689
0.493652	1.410651
0.493750	1.423958
0.493848	1.448511
0.493945	1.452768
0.494043	1.457650
0.494141	1.466579
0.494238	1.460074
0.494336	1.445600
0.494434	1.437641
0.494531	1.458915
0.494629	1.483283
0.494727	1.490136
0.494824	1.489361
0.494922	1.460982
0.495020	1.429180
0.495117	1.406533
0.495215	1.394337
0.495312	1.382169
0.495410	1.373905
0.495508	1.386486
0.495605	1.420379
0.495703	1.439786
0.495801	1.434082
0.495898	1.442023
0.495996	1.459607
0.496094	1.484071
0.496191	1.471568
0.496289	1.451175
0.496387	1.435939
0.496484	1.426371
0.496582	1.436556
0.496680	1.438007
0.496777	1.428198
0.496875	1.410446
0.496973	1.397491
0.497070	1.390425
0.497168	1.384242
0.497266	1.371065
0.497363	1.357070
0.497461	1.347581
0.497559	1.342644
0.497656	1.339529
0.497754	1.333513
0.497852	1.324345
0.497949	1.312261
0.498047	1.299520
0.498145	1.295489
0.498242	1.310463
0.498340	1.324630
0.498437	1.339715
0.498535	1.361477
0.498633	1.366627
0.498730	1.354597
0.498828	1.323044
0.498926	1.308920
0.499023	1.327222
0.499121	1.346002
0.499219	1.351080
0.499316	1.349905
0.499414	1.345562
0.499512	1.335084
0.499609	1.341592
0.499707	1.334110
0.499805	1.393080
0.499902	1.480084
0.500000	1.507794
0.500098	1.518343
0.500195	1.499469
0.500293	1.449868
0.500391	1.397100
0.500488	1.328440
0.500586	1.373560
0.500684	1.509714
0.500781	1.549793
0.500879	1.570068
0.500977	1.563413
0.501074	1.573636
0.501172	1.574397
0.501270	1.576924
0.501367	1.580707
0.501465	1.591725
0.501562	1.600203
0.501660	1.605951
0.501758	1.585770
0.501855	1.568256
0.501953	1.565433
0.502051	1.553585
0.502148	1.554204
0.502246	1.548067
0.502344	1.540576
0.502441	1.538125
0.502539	1.533426
0.502637	1.536701
0.502734	1.547444
0.502832	1.515867
0.502930	1.494768
0.503027	1.508618
0.503125	1.491394
0.503223	1.458896
0.503320	1.436040
0.503418	1.422595
0.503516	1.397087
0.503613	1.383416
0.503711	1.395738
0.503809	1.400784
0.503906	1.386858
0.504004	1.383552
0.504102	1.427027
0.504199	1.453828
0.504297	1.450884
0.504395	1.430082
0.504492	1.412030
0.504590	1.395575
0.504687	1.375220
0.504785	1.349818
0.504883	1.320863
0.504980	1.291956
0.505078	1.275987
0.505176	1.270780
0.505273	1.265971
0.505371	1.261892
0.505469	1.282123
0.505566	1.320362
0.505664	1.356898
0.505762	1.362559
0.505859	1.367420
0.505957	1.388727
0.506055	1.412683
0.506152	1.427915
0.506250	1.418849
0.506348	1.394523
0.506445	1.367011
0.506543	1.348847
0.506641	1.336734
0.506738	1.324953
0.506836	1.326428
0.506934	1.339746
0.507031	1.349653
0.507129	1.348735
0.507227	1.337810
0.507324	1.328442
0.507422	1.323266
0.507520	1.329477
0.507617	1.342808
0.507715	1.347920
0.507812	1.336713
0.507910	1.319634
0.508008	1.322400
0.508105	1.338974
0.508203	1.373815
0.508301	1.404174
0.508398	1.426918
0.508496	1.464570
0.508594	1.494038
0.508691	1.481339
0.508789	1.458270
0.508887	1.459200
0.508984	1.471304
0.509082	1.467153
0.509180	1.433056
0.509277	1.380538
0.509375	1.340855
0.509473	1.335501
0.509570	1.343985
0.509668	1.377026
0.509766	1.411321
0.509863	1.416545
0.509961	1.418242
0.510059	1.429094
0.510156	1.436591
0.510254	1.448850
0.510352	1.471354
0.510449	1.482503
0.510547	1.460890
0.510645	1.421244
0.510742	1.405566
0.510840	1.389967
0.510937	1.372604
0.511035	1.381116
0.511133	1.417043
0.511230	1.436984
0.511328	1.430907
0.511426	1.399941
0.511523	1.374615
0.511621	1.349891
0.511719	1.333574
0.511816	1.310238
0.511914	1.277844
0.512012	1.269749
0.512109	1.321622
0.512207	1.348881
0.512305	1.324244
0.512402	1.283456
0.512500	1.302342
0.512598	1.341031
0.512695	1.381006
0.512793	1.441364
0.512891	1.468100
0.512988	1.472326
0.513086	1.450679
0.513184	1.410270
0.513281	1.363152
0.513379	1.317503
0.513477	1.285489
0.513574	1.281454
0.513672	1.308919
0.513770	1.365259
0.513867	1.418907
0.513965	1.448687
0.514062	1.454237
0.514160	1.434157
0.514258	1.422195
0.514355	1.445472
0.514453	1.416764
0.514551	1.423997
0.514648	1.441545
0.514746	1.426325
0.514844	1.413608
0.514941	1.398049
0.515039	1.396607
0.515137	1.407493
0.515234	1.423931
0.515332	1.416640
0.515430	1.407909
0.515527	1.419655
0.515625	1.431045
0.515723	1.423931
0.515820	1.402465
0.515918	1.382065
0.516016	1.362940
0.516113	1.344726
0.516211	1.344081
0.516309	1.363658
0.516406	1.388280
0.516504	1.402390
0.516602	1.410685
0.516699	1.410240
0.516797	1.395972
0.516895	1.385556
0.516992	1.396361
0.517090	1.417384
0.517187	1.433649
0.517285	1.437676
0.517383	1.436327
0.517480	1.425928
0.517578	1.414432
0.517676	1.410641
0.517773	1.414624
0.517871	1.409917
0.517969	1.408277
0.518066	1.435182
0.518164	1.451607
0.518262	1.440655
0.518359	1.413183
0.518457	1.390481
0.518555	1.377670
0.518652	1.385535
0.518750	1.409028
0.518848	1.428646
0.518945	1.434175
0.519043	1.430296
0.519141	1.435544
0.519238	1.415313
0.519336	1.393583
0.519434	1.400382
0.519531	1.420502
0.519629	1.404626
0.519727	1.400503
0.519824	1.450173
0.519922	1.463826
0.520020	1.444957
0.520117	1.437658
0.520215	1.481954
0.520312	1.506387
0.520410	1.523077
0.520508	1.555593
0.520605	1.569309
0.520703	1.592194
0.520801	1.620172
0.520898	1.624973
0.520996	1.605946
0.521094	1.638039
0.521191	1.645296
0.521289	1.633895
0.521387	1.624808
0.521484	1.601283
0.521582	1.600118
0.521680	1.582542
0.521777	1.592725
0.521875	1.565043
0.521973	1.547460
0.522070	1.574337
0.522168	1.558693
0.522266	1.609014
0.522363	1.613315
0.522461	1.639454
0.522559	1.666603
0.522656	1.674131
0.522754	1.683919
0.522852	1.678222
0.522949	1.688682
0.523047	1.670066
0.523145	1.625994
0.523242	1.571374
0.523340	1.568066
0.523437	1.571403
0.523535	1.565302
0.523633	1.598859
0.523730	1.583609
0.523828	1.581547
0.523926	1.574334
0.524023	1.576478
0.524121	1.550045
0.524219	1.528191
0.524316	1.494749
0.524414	1.486248
0.524512	1.473766
0.524609	1.467156
0.524707	1.472464
0.524805	1.485827
0.524902	1.512258
0.525000	1.525971
0.525098	1.523816
0.525195	1.525956
0.525293	1.509585
0.525391	1.512313
0.525488	1.533325
0.525586	1.561015
0.525684	1.571566
0.525781	1.572628
0.525879	1.572849
0.525977	1.545744
0.526074	1.510625
0.526172	1.488307
0.526270	1.482283
0.526367	1.462487
0.526465	1.448947
0.526562	1.455736
0.526660	1.459406
0.526758	1.459895
0.526855	1.449905
0.526953	1.444453
0.527051	1.440371
0.527148	1.441405
0.527246	1.448243
0.527344	1.459874
0.527441	1.462040
0.527539	1.443711
0.527637	1.446053
0.527734	1.450937
0.527832	1.435113
0.527930	1.413274
0.528027	1.404456
0.528125	1.401513
0.528223	1.425445
0.528320	1.446973
0.528418	1.462409
0.528516	1.473224
0.528613	1.476747
0.528711	1.478507
0.528809	1.479702
0.528906	1.472992
0.529004	1.460962
0.529102	1.439297
0.529199	1.402309
0.529297	1.386846
0.529395	1.396805
0.529492	1.410912
0.529590	1.399896
0.529687	1.382206
0.529785	1.383258
0.529883	1.393489
0.529980	1.396663
0.530078	1.420483
0.530176	1.431416
0.530273	1.429033
0.530371	1.429797
0.530469	1.435921
0.530566	1.428925
0.530664	1.399566
0.530762	1.395792
0.530859	1.405765
0.530957	1.404474
0.531055	1.395979
0.531152	1.384081
0.531250	1.378076
0.531348	1.378161
0.531445	1.383153
0.531543	1.390018
0.531641	1.396304
0.531738	1.398179
0.531836	1.396333
0.531934	1.399902
0.532031	1.399917
0.532129	1.407626
0.532227	1.416911
0.532324	1.412143
0.532422	1.432975
0.532520	1.452543
0.532617	1.476885
0.532715	1.484329
0.532812	1.552887
0.532910	1.596842
0.533008	1.578590
0.533105	1.521532
0.533203	1.480955
0.533301	1.503422
0.533398	1.567568
0.533496	1.556776
0.533594	1.539269
0.533691	1.511746
0.533789	1.497003
0.533887	1.514096
0.533984	1.505008
0.534082	1.522573
0.534180	1.509699
0.534277	1.541664
0.534375	1.565196
0.534473	1.506528
0.534570	1.484061
0.534668	1.514468
0.534766	1.551107
0.534863	1.540523
0.534961	1.545733
0.535059	1.572574
0.535156	1.560192
0.535254	1.623149
0.535352	1.612216
0.535449	1.658516
0.535547	1.660881
0.535645	1.669570
0.535742	1.630583
0.535840	1.592899
0.535937	1.607977
0.536035	1.640959
0.536133	1.664209
0.536230	1.647966
0.536328	1.621781
0.536426	1.601889
0.536523	1.563146
0.536621	1.587773
0.536719	1.605169
0.536816	1.590767
0.536914	1.617669
0.537012	1.615025
0.537109	1.618987
0.537207	1.604602
0.537305	1.599684
0.537402	1.598697
0.537500	1.617135
0.537598	1.627758
0.537695	1.608758
0.537793	1.565995
0.537891	1.559767
0.537988	1.586250
0.538086	1.580358
0.538184	1.540710
0.538281	1.483727
0.538379	1.476715
0.538477	1.465528
0.538574	1.491273
0.538672	1.521752
0.538770	1.557226
0.538867	1.561247
0.538965	1.560049
0.539062	1.555971
0.539160	1.559395
0.539258	1.578762
0.539355	1.537985
0.539453	1.515718
0.539551	1.509164
0.539648	1.502590
0.539746	1.487790
0.539844	1.480092
0.539941	1.459689
0.540039	1.446783
0.540137	1.444851
0.540234	1.422337
0.540332	1.404745
0.540430	1.431980
0.540527	1.478568
0.540625	1.498086
0.540723	1.515962
0.540820	1.525841
0.540918	1.514255
0.541016	1.505975
0.541113	1.513823
0.541211	1.503125
0.541309	1.477278
0.541406	1.453394
0.541504	1.466452
0.541602	1.488871
0.541699	1.482170
0.541797	1.491485
0.541895	1.493553
0.541992	1.484833
0.542090	1.464074
0.542187	1.440094
0.542285	1.421353
0.542383	1.418030
0.542480	1.408465
0.542578	1.399481
0.542676	1.391946
0.542773	1.401257
0.542871	1.397963
0.542969	1.408383
0.543066	1.438913
0.543164	1.446508
0.543262	1.457404
0.543359	1.462202
0.543457	1.455784
0.543555	1.435604
0.543652	1.422968
0.543750	1.422267
0.543848	1.442550
0.543945	1.485055
0.544043	1.537350
0.544141	1.546353
0.544238	1.535687
0.544336	1.535543
0.544434	1.557435
0.544531	1.554988
0.544629	1.549540
0.544727	1.558960
0.544824	1.532376
0.544922	1.530021
0.545020	1.554620
0.545117	1.559276
0.545215	1.542451
0.545312	1.546287
0.545410	1.526872
0.545508	1.534377
0.545605	1.549505
0.545703	1.528233
0.545801	1.500704
0.545898	1.482331
0.545996	1.473588
0.546094	1.467120
0.546191	1.467389
0.546289	1.471170
0.546387	1.491947
0.546484	1.499070
0.546582	1.481299
0.546680	1.469560
0.546777	1.484453
0.546875	1.476722
0.546973	1.461875
0.547070	1.486314
0.547168	1.525254
0.547266	1.514598
0.547363	1.530171
0.547461	1.536186
0.547559	1.528885
0.547656	1.542669
0.547754	1.555754
0.547852	1.547522
0.547949	1.501676
0.548047	1.474009
0.548145	1.458437
0.548242	1.465499
0.548340	1.479774
0.548437	1.466022
0.548535	1.433246
0.548633	1.401082
0.548730	1.389418
0.548828	1.384690
0.548926	1.376058
0.549023	1.408260
0.549121	1.455901
0.549219	1.463608
0.549316	1.470185
0.549414	1.455521
0.549512	1.450559
0.549609	1.443636
0.549707	1.454857
0.549805	1.439893
0.549902	1.409817
0.550000	1.428300
0.550098	1.427442
0.550195	1.475976
0.550293	1.498087
0.550391	1.477407
0.550488	1.471052
0.550586	1.466519
0.550684	1.466299
0.550781	1.464613
0.550879	1.467189
0.550977	1.459705
0.551074	1.467995
0.551172	1.483858
0.551270	1.472802
0.551367	1.452966
0.551465	1.418182
0.551562	1.386452
0.551660	1.365093
0.551758	1.359688
0.551855	1.370167
0.551953	1.350556
0.552051	1.321298
0.552148	1.298381
0.552246	1.293450
0.552344	1.308261
0.552441	1.337887
0.552539	1.367102
0.552637	1.399435
0.552734	1.431951
0.552832	1.444761
0.552930	1.443581
0.553027	1.435303
0.553125	1.419602
0.553223	1.400839
0.553320	1.385815
0.553418	1.373778
0.553516	1.365825
0.553613	1.363741
0.553711	1.367118
0.553809	1.368388
0.553906	1.369727
0.554004	1.377363
0.554102	1.380031
0.554199	1.376547
0.554297	1.370234
0.554395	1.364841
0.554492	1.354124
0.554590	1.341564
0.554687	1.330610
0.554785	1.319457
0.554883	1.305743
0.554980	1.295156
0.555078	1.291668
0.555176	1.293490
0.555273	1.295992
0.555371	1.299227
0.555469	1.302963
0.555566	1.314407
0.555664	1.334987
0.555762	1.360703
0.555859	1.373536
0.555957	1.370192
0.556055	1.367995
0.556152	1.385989
0.556250	1.399829
0.556348	1.409787
0.556445	1.397576
0.556543	1.421499
0.556641	1.450876
0.556738	1.429643
0.556836	1.392709
0.556934	1.382592
0.557031	1.384443
0.557129	1.364790
0.557227	1.366677
0.557324	1.400689
0.557422	1.410777
0.557520	1.412041
0.557617	1.415257
0.557715	1.397998
0.557812	1.381384
0.557910	1.356110
0.558008	1.335109
0.558105	1.322376
0.558203	1.320818
0.558301	1.326749
0.558398	1.331694
0.558496	1.326198
0.558594	1.322404
0.558691	1.322247
0.558789	1.323823
0.558887	1.329149
0.558984	1.330928
0.559082	1.318708
0.559180	1.300364
0.559277	1.283418
0.559375	1.270927
0.559473	1.264810
0.559570	1.285215
0.559668	1.336025
0.559766	1.398764
0.559863	1.427331
0.559961	1.430047
0.560059	1.428480
0.560156	1.420193
0.560254	1.411975
0.560352	1.406929
0.560449	1.408069
0.560547	1.405796
0.560645	1.401221
0.560742	1.404889
0.560840	1.414086
0.560937	1.425084
0.561035	1.425090
0.561133	1.420635
0.561230	1.427774
0.561328	1.432172
0.561426	1.431375
0.561523	1.430357
0.561621	1.427053
0.561719	1.422590
0.561816	1.424654
0.561914	1.424986
0.562012	1.423258
0.562109	1.416789
0.562207	1.411219
0.562305	1.406531
0.562402	1.411511
0.562500	1.420772
0.562598	1.414272
0.562695	1.395735
0.562793	1.395470
0.562891	1.388648
0.562988	1.351815
0.563086	1.317669
0.563184	1.366768
0.563281	1.444923
0.563379	1.466063
0.563477	1.450234
0.563574	1.414859
0.563672	1.377909
0.563770	1.342141
0.563867	1.311740
0.563965	1.289739
0.564062	1.274682
0.564160	1.261069
0.564258	1.249822
0.564355	1.248351
0.564453	1.251853
0.564551	1.250065
0.564648	1.262707
0.564746	1.338406
0.564844	1.418351
0.564941	1.449085
0.565039	1.453353
0.565137	1.446508
0.565234	1.451750
0.565332	1.448195
0.565430	1.452304
0.565527	1.455399
0.565625	1.455245
0.565723	1.431503
0.565820	1.406681
0.565918	1.391340
0.566016	1.377140
0.566113	1.364075
0.566211	1.356724
0.566309	1.359635
0.566406	1.354103
0.566504	1.335134
0.566602	1.332895
0.566699	1.336016
0.566797	1.328656
0.566895	1.337446
0.566992	1.370892
0.567090	1.418748
0.567187	1.465686
0.567285	1.488064
0.567383	1.489055
0.567480	1.491076
0.567578	1.482167
0.567676	1.455150
0.567773	1.432787
0.567871	1.417777
0.567969	1.419063
0.568066	1.407671
0.568164	1.382517
0.568262	1.383391
0.568359	1.391974
0.568457	1.391269
0.568555	1.384526
0.568652	1.381319
0.568750	1.375270
0.568848	1.365920
0.568945	1.358271
0.569043	1.348978
0.569141	1.333432
0.569238	1.316504
0.569336	1.303622
0.569434	1.290158
0.569531	1.275342
0.569629	1.261046
0.569727	1.247454
0.569824	1.235516
0.569922	1.226235
0.570020	1.220082
0.570117	1.217327
0.570215	1.217285
0.570312	1.218129
0.570410	1.217835
0.570508	1.215481
0.570605	1.214608
0.570703	1.220028
0.570801	1.229494
0.570898	1.233920
0.570996	1.232346
0.571094	1.233594
0.571191	1.245668
0.571289	1.272352
0.571387	1.309488
0.571484	1.335912
0.571582	1.348440
0.571680	1.360150
0.571777	1.363157
0.571875	1.361502
0.571973	1.359966
0.572070	1.356291
0.572168	1.345700
0.572266	1.336440
0.572363	1.333268
0.572461	1.331046
0.572559	1.327568
0.572656	1.325439
0.572754	1.326623
0.572852	1.331358
0.572949	1.337144
0.573047	1.342224
0.573145	1.345698
0.573242	1.348128
0.573340	1.349134
0.573437	1.346064
0.573535	1.337676
0.573633	1.331479
0.573730	1.331687
0.573828	1.331599
0.573926	1.327574
0.574023	1.319510
0.574121	1.310610
0.574219	1.303483
0.574316	1.299600
0.574414	1.295882
0.574512	1.290497
0.574609	1.281713
0.574707	1.270413
0.574805	1.258362
0.574902	1.246992
0.575000	1.236839
0.575098	1.228610
0.575195	1.222119
0.575293	1.216945
0.575391	1.213663
0.575488	1.213036
0.575586	1.215392
0.575684	1.221975
0.575781	1.231525
0.575879	1.244860
0.575977	1.265991
0.576074	1.296376
0.576172	1.323681
0.576270	1.336356
0.576367	1.337908
0.576465	1.336113
0.576562	1.336274
0.576660	1.346886
0.576758	1.368722
0.576855	1.387969
0.576953	1.403090
0.577051	1.414904
0.577148	1.418901
0.577246	1.416170
0.577344	1.416058
0.577441	1.415388
0.577539	1.407067
0.577637	1.394934
0.577734	1.391858
0.577832	1.382071
0.577930	1.369125
0.578027	1.363730
0.578125	1.359448
0.578223	1.366718
0.578320	1.390161
0.578418	1.405999
0.578516	1.413788
0.578613	1.411022
0.578711	1.401962
0.578809	1.388786
0.578906	1.377729
0.579004	1.376405
0.579102	1.379286
0.579199	1.372268
0.579297	1.356544
0.579395	1.337608
0.579492	1.317020
0.579590	1.290559
0.579687	1.276043
0.579785	1.291554
0.579883	1.326853
0.579980	1.364736
0.580078	1.391085
0.580176	1.408093
0.580273	1.425888
0.580371	1.436814
0.580469	1.440732
0.580566	1.445533
0.580664	1.435450
0.580762	1.425861
0.580859	1.426451
0.580957	1.421215
0.581055	1.390815
0.581152	1.352431
0.581250	1.332005
0.581348	1.322228
0.581445	1.306576
0.581543	1.290219
0.581641	1.283781
0.581738	1.295686
0.581836	1.311921
0.581934	1.325149
0.582031	1.321729
0.582129	1.335079
0.582227	1.344792
0.582324	1.320722
0.582422	1.316766
0.582520	1.332399
0.582617	1.337778
0.582715	1.341454
0.582812	1.339173
0.582910	1.317352
0.583008	1.314382
0.583105	1.355816
0.583203	1.413965
0.583301	1.413686
0.583398	1.377796
0.583496	1.390121
0.583594	1.427765
0.583691	1.450220
0.583789	1.434936
0.583887	1.393381
0.583984	1.373056
0.584082	1.359174
0.584180	1.309061
0.584277	1.306776
0.584375	1.297022
0.584473	1.274568
0.584570	1.280303
0.584668	1.287360
0.584766	1.320636
0.584863	1.384599
0.584961	1.339571
0.585059	1.316038
0.585156	1.303302
0.585254	1.334602
0.585352	1.353978
0.585449	1.352002
0.585547	1.440685
0.585645	1.461515
0.585742	1.460984
0.585840	1.420659
0.585937	1.427634
0.586035	1.448005
0.586133	1.450989
0.586230	1.452030
0.586328	1.452905
0.586426	1.459455
0.586523	1.479919
0.586621	1.492398
0.586719	1.474604
0.586816	1.441658
0.586914	1.428442
0.587012	1.428026
0.587109	1.403321
0.587207	1.373328
0.587305	1.348716
0.587402	1.304820
0.587500	1.314700
0.587598	1.378897
0.587695	1.385055
0.587793	1.390027
0.587891	1.366957
0.587988	1.314992
0.588086	1.341121
0.588184	1.397345
0.588281	1.434573
0.588379	1.470424
0.588477	1.473782
0.588574	1.490944
0.588672	1.493925
0.588770	1.475896
0.588867	1.519456
0.588965	1.538513
0.589062	1.518262
0.589160	1.479852
0.589258	1.466222
0.589355	1.465606
0.589453	1.400646
0.589551	1.331703
0.589648	1.346008
0.589746	1.305297
0.589844	1.269314
0.589941	1.249453
0.590039	1.311779
0.590137	1.392841
0.590234	1.376291
0.590332	1.359021
0.590430	1.367476
0.590527	1.410337
0.590625	1.453505
0.590723	1.447105
0.590820	1.435748
0.590918	1.392993
0.591016	1.326842
0.591113	1.332095
0.591211	1.374276
0.591309	1.365428
0.591406	1.368314
0.591504	1.344195
0.591602	1.331388
0.591699	1.328434
0.591797	1.328848
0.591895	1.363631
0.591992	1.357923
0.592090	1.347126
0.592187	1.347404
0.592285	1.315345
0.592383	1.275514
0.592480	1.289159
0.592578	1.325495
0.592676	1.348779
0.592773	1.376473
0.592871	1.374121
0.592969	1.354485
0.593066	1.349534
0.593164	1.329630
0.593262	1.309777
0.593359	1.320700
0.593457	1.349560
0.593555	1.370812
0.593652	1.386411
0.593750	1.390472
0.593848	1.393329
0.593945	1.410992
0.594043	1.425230
0.594141	1.433152
0.594238	1.456050
0.594336	1.471276
0.594434	1.471263
0.594531	1.476354
0.594629	1.482176
0.594727	1.482316
0.594824	1.472487
0.594922	1.460438
0.595020	1.469593
0.595117	1.481215
0.595215	1.486681
0.595312	1.496286
0.595410	1.491076
0.595508	1.475722
0.595605	1.469761
0.595703	1.436913
0.595801	1.366132
0.595898	1.331577
0.595996	1.357140
0.596094	1.350833
0.596191	1.322191
0.596289	1.354293
0.596387	1.394025
0.596484	1.420395
0.596582	1.413501
0.596680	1.383776
0.596777	1.352414
0.596875	1.328514
0.596973	1.300200
0.597070	1.288839
0.597168	1.287889
0.597266	1.320739
0.597363	1.368268
0.597461	1.381979
0.597559	1.395190
0.597656	1.403535
0.597754	1.403813
0.597852	1.384001
0.597949	1.364584
0.598047	1.356078
0.598145	1.353660
0.598242	1.390132
0.598340	1.457616
0.598437	1.502573
0.598535	1.492348
0.598633	1.465864
0.598730	1.430190
0.598828	1.446140
0.598926	1.455358
0.599023	1.446250
0.599121	1.445094
0.599219	1.472217
0.599316	1.431980
0.599414	1.425661
0.599512	1.393454
0.599609	1.374052
0.599707	1.370744
0.599805	1.356689
0.599902	1.368415
0.600000	1.396329
0.600098	1.405514
0.600195	1.400232
0.600293	1.415504
0.600391	1.434988
0.600488	1.457979
0.600586	1.453392
0.600684	1.444336
0.600781	1.434222
0.600879	1.425356
0.600977	1.416914
0.601074	1.415862
0.601172	1.398618
0.601270	1.369805
0.601367	1.345702
0.601465	1.340031
0.601562	1.343757
0.601660	1.337924
0.601758	1.316757
0.601855	1.287697
0.601953	1.262277
0.602051	1.248319
0.602148	1.243798
0.602246	1.242292
0.602344	1.239941
0.602441	1.234824
0.602539	1.227687
0.602637	1.219287
0.602734	1.212472
0.602832	1.207759
0.602930	1.207017
0.603027	1.210157
0.603125	1.218959
0.603223	1.230040
0.603320	1.243873
0.603418	1.258290
0.603516	1.279119
0.603613	1.306799
0.603711	1.346083
0.603809	1.386287
0.603906	1.419358
0.604004	1.444082
0.604102	1.505163
0.604199	1.513057
0.604297	1.517862
0.604395	1.558523
0.604492	1.568590
0.604590	1.591013
0.604687	1.582553
0.604785	1.573393
0.604883	1.558179
0.604980	1.543618
0.605078	1.526020
0.605176	1.513230
0.605273	1.504109
0.605371	1.495571
0.605469	1.481143
0.605566	1.487894
0.605664	1.505133
0.605762	1.512460
0.605859	1.520561
0.605957	1.518988
0.606055	1.568573
0.606152	1.624236
0.606250	1.616002
0.606348	1.602606
0.606445	1.604598
0.606543	1.596122
0.606641	1.561404
0.606738	1.522559
0.606836	1.494293
0.606934	1.492292
0.607031	1.504282
0.607129	1.504728
0.607227	1.500134
0.607324	1.492725
0.607422	1.455777
0.607520	1.436824
0.607617	1.427460
0.607715	1.401856
0.607812	1.388505
0.607910	1.391462
0.608008	1.403446
0.608105	1.413208
0.608203	1.450602
0.608301	1.506321
0.608398	1.540424
0.608496	1.569697
0.608594	1.576205
0.608691	1.568113
0.608789	1.568534
0.608887	1.557890
0.608984	1.530818
0.609082	1.518773
0.609180	1.504673
0.609277	1.507601
0.609375	1.509789
0.609473	1.512754
0.609570	1.522157
0.609668	1.525478
0.609766	1.507851
0.609863	1.513913
0.609961	1.553408
0.610059	1.579215
0.610156	1.579879
0.610254	1.587544
0.610352	1.577705
0.610449	1.577701
0.610547	1.611283
0.610645	1.619046
0.610742	1.609224
0.610840	1.606455
0.610937	1.596710
0.611035	1.597653
0.611133	1.577734
0.611230	1.588783
0.611328	1.606073
0.611426	1.600650
0.611523	1.613347
0.611621	1.591528
0.611719	1.588975
0.611816	1.608392
0.611914	1.583701
0.612012	1.583827
0.612109	1.563899
0.612207	1.541708
0.612305	1.534702
0.612402	1.564984
0.612500	1.564850
0.612598	1.555792
0.612695	1.525805
0.612793	1.519905
0.612891	1.537553
0.612988	1.566346
0.613086	1.557936
0.613184	1.558900
0.613281	1.562088
0.613379	1.572976
0.613477	1.608758
0.613574	1.597961
0.613672	1.576527
0.613770	1.583059
0.613867	1.593134
0.613965	1.579966
0.614062	1.590678
0.614160	1.589675
0.614258	1.586268
0.614355	1.591121
0.614453	1.600273
0.614551	1.604091
0.614648	1.587039
0.614746	1.615870
0.614844	1.593633
0.614941	1.588947
0.615039	1.626348
0.615137	1.612294
0.615234	1.593302
0.615332	1.608016
0.615430	1.586954
0.615527	1.602056
0.615625	1.625117
0.615723	1.619611
0.615820	1.623895
0.615918	1.598543
0.616016	1.620177
0.616113	1.648171
0.616211	1.605954
0.616309	1.584939
0.616406	1.607726
0.616504	1.630019
0.616602	1.617501
0.616699	1.621476
0.616797	1.638986
0.616895	1.626055
0.616992	1.586846
0.617090	1.548891
0.617187	1.554684
0.617285	1.583765
0.617383	1.575407
0.617480	1.582181
0.617578	1.595558
0.617676	1.585715
0.617773	1.578602
0.617871	1.601031
0.617969	1.607275
0.618066	1.601668
0.618164	1.574590
0.618262	1.570011
0.618359	1.569603
0.618457	1.578315
0.618555	1.578812
0.618652	1.579815
0.618750	1.574841
0.618848	1.579046
0.618945	1.548661
0.619043	1.515863
0.619141	1.536528
0.619238	1.560677
0.619336	1.536512
0.619434	1.512989
0.619531	1.492384
0.619629	1.484630
0.619727	1.508620
0.619824	1.529051
0.619922	1.556834
0.620020	1.551151
0.620117	1.513999
0.620215	1.478001
0.620312	1.469892
0.620410	1.505740
0.620508	1.533044
0.620605	1.492169
0.620703	1.483312
0.620801	1.480133
0.620898	1.471556
0.620996	1.472415
0.621094	1.461503
0.621191	1.446635
0.621289	1.420778
0.621387	1.393240
0.621484	1.363721
0.621582	1.339695
0.621680	1.318989
0.621777	1.309653
0.621875	1.319713
0.621973	1.336402
0.622070	1.328867
0.622168	1.294073
0.622266	1.254607
0.622363	1.274198
0.622461	1.347416
0.622559	1.372834
0.622656	1.365061
0.622754	1.419984
0.622852	1.462726
0.622949	1.463697
0.623047	1.455277
0.623145	1.476891
0.623242	1.479111
0.623340	1.476743
0.623437	1.525463
0.623535	1.504190
0.623633	1.507407
0.623730	1.523426
0.623828	1.506260
0.623926	1.481389
0.624023	1.466051
0.624121	1.445282
0.624219	1.426096
0.624316	1.425182
0.624414	1.429052
0.624512	1.430886
0.624609	1.430944
0.624707	1.434600
0.624805	1.436709
0.624902	1.436257
0.625000	1.430362
0.625098	1.415149
0.625195	1.385042
0.625293	1.349099
0.625391	1.330664
0.625488	1.323030
0.625586	1.310689
0.625684	1.283029
0.625781	1.281629
0.625879	1.299059
0.625977	1.301335
0.626074	1.292612
0.626172	1.292294
0.626270	1.301424
0.626367	1.316135
0.626465	1.331222
0.626562	1.340761
0.626660	1.360271
0.626758	1.382300
0.626855	1.392538
0.626953	1.395583
0.627051	1.406501
0.627148	1.423206
0.627246	1.424453
0.627344	1.421904
0.627441	1.421733
0.627539	1.424245
0.627637	1.421344
0.627734	1.416769
0.627832	1.415247
0.627930	1.415690
0.628027	1.407149
0.628125	1.394777
0.628223	1.383647
0.628320	1.376797
0.628418	1.372741
0.628516	1.363662
0.628613	1.344483
0.628711	1.321813
0.628809	1.304363
0.628906	1.297783
0.629004	1.296746
0.629102	1.293184
0.629199	1.290738
0.629297	1.291001
0.629395	1.289077
0.629492	1.287078
0.629590	1.293831
0.629687	1.319833
0.629785	1.346533
0.629883	1.373401
0.629980	1.390369
0.630078	1.401149
0.630176	1.403124
0.630273	1.393424
0.630371	1.383600
0.630469	1.374679
0.630566	1.364117
0.630664	1.348528
0.630762	1.334394
0.630859	1.320174
0.630957	1.339082
0.631055	1.417944
0.631152	1.462507
0.631250	1.474083
0.631348	1.470012
0.631445	1.471904
0.631543	1.472790
0.631641	1.469758
0.631738	1.486820
0.631836	1.539259
0.631934	1.554163
0.632031	1.566103
0.632129	1.561302
0.632227	1.542357
0.632324	1.538725
0.632422	1.554508
0.632520	1.533231
0.632617	1.507476
0.632715	1.470458
0.632812	1.428117
0.632910	1.446585
0.633008	1.482959
0.633105	1.503139
0.633203	1.504300
0.633301	1.523443
0.633398	1.536119
0.633496	1.534971
0.633594	1.558350
0.633691	1.569324
0.633789	1.535596
0.633887	1.570543
0.633984	1.580556
0.634082	1.529663
0.634180	1.521860
0.634277	1.556805
0.634375	1.615530
0.634473	1.629472
0.634570	1.619959
0.634668	1.619305
0.634766	1.618193
0.634863	1.601755
0.634961	1.586201
0.635059	1.593845
0.635156	1.585969
0.635254	1.586092
0.635352	1.586165
0.635449	1.585132
0.635547	1.589027
0.635645	1.565469
0.635742	1.527768
0.635840	1.483942
0.635937	1.495172
0.636035	1.478579
0.636133	1.442000
0.636230	1.427090
0.636328	1.464587
0.636426	1.485740
0.636523	1.515001
0.636621	1.540868
0.636719	1.555781
0.636816	1.579191
0.636914	1.585435
0.637012	1.597694
0.637109	1.596616
0.637207	1.613013
0.637305	1.631081
0.637402	1.631902
0.637500	1.630387
0.637598	1.626616
0.637695	1.602700
0.637793	1.587053
0.637891	1.582382
0.637988	1.583721
0.638086	1.574731
0.638184	1.593837
0.638281	1.563622
0.638379	1.544191
0.638477	1.579583
0.638574	1.588652
0.638672	1.583411
0.638770	1.602488
0.638867	1.591239
0.638965	1.550371
0.639062	1.537584
0.639160	1.527023
0.639258	1.494613
0.639355	1.429906
0.639453	1.364832
0.639551	1.315456
0.639648	1.302733
0.639746	1.321283
0.639844	1.328943
0.639941	1.320771
0.640039	1.303484
0.640137	1.282681
0.640234	1.262139
0.640332	1.248925
0.640430	1.255857
0.640527	1.267424
0.640625	1.281268
0.640723	1.296114
0.640820	1.299231
0.640918	1.291421
0.641016	1.282468
0.641113	1.281693
0.641211	1.293111
0.641309	1.323470
0.641406	1.359636
0.641504	1.374004
0.641602	1.387534
0.641699	1.396353
0.641797	1.394736
0.641895	1.407773
0.641992	1.434733
0.642090	1.452152
0.642187	1.445208
0.642285	1.424987
0.642383	1.390882
0.642480	1.374308
0.642578	1.378992
0.642676	1.416937
0.642773	1.410474
0.642871	1.383284
0.642969	1.414920
0.643066	1.394196
0.643164	1.415839
0.643262	1.470149
0.643359	1.516391
0.643457	1.541490
0.643555	1.544383
0.643652	1.517910
0.643750	1.484347
0.643848	1.470853
0.643945	1.445180
0.644043	1.420583
0.644141	1.416099
0.644238	1.406772
0.644336	1.380914
0.644434	1.370107
0.644531	1.354640
0.644629	1.316346
0.644727	1.279409
0.644824	1.284852
0.644922	1.341377
0.645020	1.394497
0.645117	1.396892
0.645215	1.365429
0.645312	1.293852
0.645410	1.306721
0.645508	1.340396
0.645605	1.328728
0.645703	1.311171
0.645801	1.359021
0.645898	1.443553
0.645996	1.482242
0.646094	1.493038
0.646191	1.484753
0.646289	1.456268
0.646387	1.440570
0.646484	1.446685
0.646582	1.444328
0.646680	1.442566
0.646777	1.451667
0.646875	1.462315
0.646973	1.457165
0.647070	1.447568
0.647168	1.443194
0.647266	1.448244
0.647363	1.451191
0.647461	1.472806
0.647559	1.474116
0.647656	1.479501
0.647754	1.475232
0.647852	1.467710
0.647949	1.465977
0.648047	1.462638
0.648145	1.462307
0.648242	1.476615
0.648340	1.500162
0.648437	1.506294
0.648535	1.500519
0.648633	1.501761
0.648730	1.484904
0.648828	1.450722
0.648926	1.412705
0.649023	1.402793
0.649121	1.426590
0.649219	1.447628
0.649316	1.448399
0.649414	1.449689
0.649512	1.452962
0.649609	1.445923
0.649707	1.428569
0.649805	1.417224
0.649902	1.424656
0.650000	1.448348
0.650098	1.468325
0.650195	1.480918
0.650293	1.481148
0.650391	1.467668
0.650488	1.474028
0.650586	1.478436
0.650684	1.476763
0.650781	1.464953
0.650879	1.454182
0.650977	1.457831
0.651074	1.477151
0.651172	1.454522
0.651270	1.390402
0.651367	1.363240
0.651465	1.359841
0.651562	1.431350
0.651660	1.492914
0.651758	1.522283
0.651855	1.552771
0.651953	1.554845
0.652051	1.531101
0.652148	1.500086
0.652246	1.466594
0.652344	1.451174
0.652441	1.450962
0.652539	1.434650
0.652637	1.434246
0.652734	1.440877
0.652832	1.433363
0.652930	1.438378
0.653027	1.464009
0.653125	1.514429
0.653223	1.538317
0.653320	1.545712
0.653418	1.560251
0.653516	1.576774
0.653613	1.556793
0.653711	1.520455
0.653809	1.483346
0.653906	1.433011
0.654004	1.395583
0.654102	1.384313
0.654199	1.388964
0.654297	1.387102
0.654395	1.382468
0.654492	1.379128
0.654590	1.378095
0.654687	1.387578
0.654785	1.405793
0.654883	1.417001
0.654980	1.457733
0.655078	1.479763
0.655176	1.462979
0.655273	1.469490
0.655371	1.458699
0.655469	1.446388
0.655566	1.447657
0.655664	1.427533
0.655762	1.399580
0.655859	1.378582
0.655957	1.377669
0.656055	1.387079
0.656152	1.405519
0.656250	1.418579
0.656348	1.454588
0.656445	1.478149
0.656543	1.475365
0.656641	1.464058
0.656738	1.457714
0.656836	1.446371
0.656934	1.436775
0.657031	1.416751
0.657129	1.376100
0.657227	1.352145
0.657324	1.372207
0.657422	1.407570
0.657520	1.409627
0.657617	1.450743
0.657715	1.487670
0.657812	1.480007
0.657910	1.457314
0.658008	1.439997
0.658105	1.433960
0.658203	1.455568
0.658301	1.466759
0.658398	1.479197
0.658496	1.446388
0.658594	1.472834
0.658691	1.512243
0.658789	1.531203
0.658887	1.494903
0.658984	1.442324
0.659082	1.478922
0.659180	1.530606
0.659277	1.515207
0.659375	1.480950
0.659473	1.452637
0.659570	1.420359
0.659668	1.408050
0.659766	1.396887
0.659863	1.417631
0.659961	1.464354
0.660059	1.484903
0.660156	1.455758
0.660254	1.466182
0.660352	1.432522
0.660449	1.345285
0.660547	1.329409
0.660645	1.478010
0.660742	1.544731
0.660840	1.589891
0.660937	1.618618
0.661035	1.567222
0.661133	1.546467
0.661230	1.582012
0.661328	1.625601
0.661426	1.608575
0.661523	1.604119
0.661621	1.606627
0.661719	1.609757
0.661816	1.616531
0.661914	1.591118
0.662012	1.594554
0.662109	1.601314
0.662207	1.592164
0.662305	1.627382
0.662402	1.656211
0.662500	1.620994
0.662598	1.636017
0.662695	1.613986
0.662793	1.610104
0.662891	1.601200
0.662988	1.604822
0.663086	1.606242
0.663184	1.588077
0.663281	1.590689
0.663379	1.573520
0.663477	1.570776
0.663574	1.562441
0.663672	1.577416
0.663770	1.608508
0.663867	1.613872
0.663965	1.581318
0.664062	1.590695
0.664160	1.574545
0.664258	1.544005
0.664355	1.531763
0.664453	1.523994
0.664551	1.506438
0.664648	1.492467
0.664746	1.465859
0.664844	1.439825
0.664941	1.416180
0.665039	1.385173
0.665137	1.340534
0.665234	1.320781
0.665332	1.350100
0.665430	1.397362
0.665527	1.449528
0.665625	1.457497
0.665723	1.471690
0.665820	1.505359
0.665918	1.535463
0.666016	1.585133
0.666113	1.634921
0.666211	1.612586
0.666309	1.622822
0.666406	1.629453
0.666504	1.613352
0.666602	1.561198
0.666699	1.515288
0.666797	1.566634
0.666895	1.611181
0.666992	1.649092
0.667090	1.663452
0.667187	1.657670
0.667285	1.667799
0.667383	1.684422
0.667480	1.700199
0.667578	1.659909
0.667676	1.635107
0.667773	1.619057
0.667871	1.657194
0.667969	1.690735
0.668066	1.680940
0.668164	1.685389
0.668262	1.687402
0.668359	1.690503
0.668457	1.679142
0.668555	1.663544
0.668652	1.655872
0.668750	1.649137
0.668848	1.633015
0.668945	1.614770
0.669043	1.598250
0.669141	1.585919
0.669238	1.576253
0.669336	1.562083
0.669434	1.554276
0.669531	1.540468
0.669629	1.507773
0.669727	1.500191
0.669824	1.474124
0.669922	1.475113
0.670020	1.493101
0.670117	1.520892
0.670215	1.558917
0.670312	1.548681
0.670410	1.546894
0.670508	1.586710
0.670605	1.600450
0.670703	1.584513
0.670801	1.555608
0.670898	1.532563
0.670996	1.514326
0.671094	1.502609
0.671191	1.509898
0.671289	1.534519
0.671387	1.568600
0.671484	1.590319
0.671582	1.594345
0.671680	1.583284
0.671777	1.580734
0.671875	1.563938
0.671973	1.556270
0.672070	1.554156
0.672168	1.527902
0.672266	1.515614
0.672363	1.496493
0.672461	1.500732
0.672559	1.522416
0.672656	1.523481
0.672754	1.508998
0.672852	1.509824
0.672949	1.495941
0.673047	1.483384
0.673145	1.470287
0.673242	1.456992
0.673340	1.439067
0.673437	1.412838
0.673535	1.383150
0.673633	1.392118
0.673730	1.408782
0.673828	1.408205
0.673926	1.423991
0.674023	1.436966
0.674121	1.468885
0.674219	1.492500
0.674316	1.498149
0.674414	1.494985
0.674512	1.491520
0.674609	1.505175
0.674707	1.518923
0.674805	1.525302
0.674902	1.531592
0.675000	1.526311
0.675098	1.507068
0.675195	1.493475
0.675293	1.487593
0.675391	1.479408
0.675488	1.472524
0.675586	1.460728
0.675684	1.465661
0.675781	1.475509
0.675879	1.465403
0.675977	1.455072
0.676074	1.440390
0.676172	1.430549
0.676270	1.428741
0.676367	1.426429
0.676465	1.407641
0.676562	1.404675
0.676660	1.417374
0.676758	1.428202
0.676855	1.435337
0.676953	1.437429
0.677051	1.455396
0.677148	1.467735
0.677246	1.469332
0.677344	1.464749
0.677441	1.454522
0.677539	1.441225
0.677637	1.454459
0.677734	1.461914
0.677832	1.470981
0.677930	1.474401
0.678027	1.458181
0.678125	1.447928
0.678223	1.464267
0.678320	1.485704
0.678418	1.484166
0.678516	1.498287
0.678613	1.488218
0.678711	1.472225
0.678809	1.489215
0.678906	1.477940
0.679004	1.452189
0.679102	1.485139
0.679199	1.489234
0.679297	1.525706
0.679395	1.557948
0.679492	1.580182
0.679590	1.598139
0.679687	1.587694
0.679785	1.566787
0.679883	1.552568
0.679980	1.566936
0.680078	1.582695
0.680176	1.594868
0.680273	1.601721
0.680371	1.605989
0.680469	1.575584
0.680566	1.561669
0.680664	1.560544
0.680762	1.562215
0.680859	1.544195
0.680957	1.502293
0.681055	1.492550
0.681152	1.495814
0.681250	1.482400
0.681348	1.484021
0.681445	1.489403
0.681543	1.482224
0.681641	1.517226
0.681738	1.565556
0.681836	1.542880
0.681934	1.527419
0.682031	1.516419
0.682129	1.500804
0.682227	1.474896
0.682324	1.462716
0.682422	1.456816
0.682520	1.427400
0.682617	1.400245
0.682715	1.388686
0.682812	1.418921
0.682910	1.445438
0.683008	1.465239
0.683105	1.471048
0.683203	1.480765
0.683301	1.490029
0.683398	1.482597
0.683496	1.465501
0.683594	1.459598
0.683691	1.454892
0.683789	1.495848
0.683887	1.527701
0.683984	1.517194
0.684082	1.492835
0.684180	1.446157
0.684277	1.433321
0.684375	1.437917
0.684473	1.422959
0.684570	1.383084
0.684668	1.422446
0.684766	1.517294
0.684863	1.546982
0.684961	1.576072
0.685059	1.563893
0.685156	1.540001
0.685254	1.514942
0.685352	1.515233
0.685449	1.522883
0.685547	1.511123
0.685645	1.501257
0.685742	1.504230
0.685840	1.495595
0.685937	1.513788
0.686035	1.530817
0.686133	1.512358
0.686230	1.475094
0.686328	1.453439
0.686426	1.457608
0.686523	1.518385
0.686621	1.558653
0.686719	1.530112
0.686816	1.477192
0.686914	1.489724
0.687012	1.452285
0.687109	1.477126
0.687207	1.510366
0.687305	1.427421
0.687402	1.446795
0.687500	1.441620
0.687598	1.421744
0.687695	1.400833
0.687793	1.372240
0.687891	1.376145
0.687988	1.379543
0.688086	1.376058
0.688184	1.449401
0.688281	1.439434
0.688379	1.422632
0.688477	1.412837
0.688574	1.387607
0.688672	1.338334
0.688770	1.371064
0.688867	1.404801
0.688965	1.415223
0.689062	1.441793
0.689160	1.426565
0.689258	1.407801
0.689355	1.355799
0.689453	1.332313
0.689551	1.333894
0.689648	1.351057
0.689746	1.374932
0.689844	1.397901
0.689941	1.396159
0.690039	1.356957
0.690137	1.351622
0.690234	1.362764
0.690332	1.367830
0.690430	1.392592
0.690527	1.426093
0.690625	1.430861
0.690723	1.430301
0.690820	1.429256
0.690918	1.424667
0.691016	1.423406
0.691113	1.415482
0.691211	1.391195
0.691309	1.366898
0.691406	1.344085
0.691504	1.321471
0.691602	1.307212
0.691699	1.304151
0.691797	1.310892
0.691895	1.324846
0.691992	1.336700
0.692090	1.344582
0.692187	1.354099
0.692285	1.341028
0.692383	1.305778
0.692480	1.266917
0.692578	1.241104
0.692676	1.251228
0.692773	1.289619
0.692871	1.313425
0.692969	1.316982
0.693066	1.318752
0.693164	1.312578
0.693262	1.295341
0.693359	1.283650
0.693457	1.306060
0.693555	1.342197
0.693652	1.376197
0.693750	1.367048
0.693848	1.374716
0.693945	1.439939
0.694043	1.499028
0.694141	1.485123
0.694238	1.511357
0.694336	1.592821
0.694434	1.602087
0.694531	1.615443
0.694629	1.605917
0.694727	1.600895
0.694824	1.596212
0.694922	1.596029
0.695020	1.596778
0.695117	1.593249
0.695215	1.592198
0.695312	1.608763
0.695410	1.614187
0.695508	1.615510
0.695605	1.605956
0.695703	1.584242
0.695801	1.561232
0.695898	1.564587
0.695996	1.574679
0.696094	1.588871
0.696191	1.576616
0.696289	1.558485
0.696387	1.553599
0.696484	1.557121
0.696582	1.582803
0.696680	1.597734
0.696777	1.631153
0.696875	1.656921
0.696973	1.661793
0.697070	1.649622
0.697168	1.647112
0.697266	1.637475
0.697363	1.650633
0.697461	1.669762
0.697559	1.660031
0.697656	1.663867
0.697754	1.671381
0.697852	1.645536
0.697949	1.650001
0.698047	1.669889
0.698145	1.678969
0.698242	1.679802
0.698340	1.665396
0.698437	1.669390
0.698535	1.670434
0.698633	1.649002
0.698730	1.626199
0.698828	1.645433
0.698926	1.652155
0.699023	1.640172
0.699121	1.644792
0.699219	1.615990
0.699316	1.617075
0.699414	1.631970
0.699512	1.630961
0.699609	1.635769
0.699707	1.616432
0.699805	1.611956
0.699902	1.594597
0.700000	1.633458
0.700098	1.654126
0.700195	1.627726
0.700293	1.612521
0.700391	1.578525
0.700488	1.565248
0.700586	1.566361
0.700684	1.539397
0.700781	1.527649
0.700879	1.529303
0.700977	1.523206
0.701074	1.523499
0.701172	1.514911
0.701270	1.495026
0.701367	1.466645
0.701465	1.432914
0.701562	1.399653
0.701660	1.368533
0.701758	1.338264
0.701855	1.309812
0.701953	1.286046
0.702051	1.272905
0.702148	1.275482
0.702246	1.296673
0.702344	1.329788
0.702441	1.355698
0.702539	1.361047
0.702637	1.353993
0.702734	1.337735
0.702832	1.324503
0.702930	1.324419
0.703027	1.321871
0.703125	1.323256
0.703223	1.312190
0.703320	1.341659
0.703418	1.403462
0.703516	1.393787
0.703613	1.390918
0.703711	1.399902
0.703809	1.406587
0.703906	1.406413
0.704004	1.398900
0.704102	1.397406
0.704199	1.398258
0.704297	1.395365
0.704395	1.383915
0.704492	1.392923
0.704590	1.414958
0.704687	1.424988
0.704785	1.437158
0.704883	1.458320
0.704980	1.470402
0.705078	1.455149
0.705176	1.445479
0.705273	1.437012
0.705371	1.425365
0.705469	1.414324
0.705566	1.406593
0.705664	1.405675
0.705762	1.408327
0.705859	1.401574
0.705957	1.406242
0.706055	1.410370
0.706152	1.422439
0.706250	1.431202
0.706348	1.404576
0.706445	1.361453
0.706543	1.320661
0.706641	1.285771
0.706738	1.261040
0.706836	1.254744
0.706934	1.330468
0.707031	1.407268
0.707129	1.440409
0.707227	1.456654
0.707324	1.461586
0.707422	1.439553
0.707520	1.421292
0.707617	1.438690
0.707715	1.519955
0.707812	1.571497
0.707910	1.573332
0.708008	1.559404
0.708105	1.542855
0.708203	1.515556
0.708301	1.481215
0.708398	1.491642
0.708496	1.480599
0.708594	1.501196
0.708691	1.533155
0.708789	1.536974
0.708887	1.554230
0.708984	1.544550
0.709082	1.513449
0.709180	1.506803
0.709277	1.505392
0.709375	1.481992
0.709473	1.479356
0.709570	1.474164
0.709668	1.481518
0.709766	1.470536
0.709863	1.446937
0.709961	1.454427
0.710059	1.453179
0.710156	1.470773
0.710254	1.463167
0.710352	1.478637
0.710449	1.475439
0.710547	1.501611
0.710645	1.515607
0.710742	1.474204
0.710840	1.463343
0.710937	1.480016
0.711035	1.507651
0.711133	1.509491
0.711230	1.514131
0.711328	1.517509
0.711426	1.516459
0.711523	1.505524
0.711621	1.490602
0.711719	1.468913
0.711816	1.435207
0.711914	1.429914
0.712012	1.412643
0.712109	1.385445
0.712207	1.365713
0.712305	1.358188
0.712402	1.374691
0.712500	1.392411
0.712598	1.407313
0.712695	1.418587
0.712793	1.425394
0.712891	1.417313
0.712988	1.403784
0.713086	1.400356
0.713184	1.411869
0.713281	1.433653
0.713379	1.459998
0.713477	1.485195
0.713574	1.480762
0.713672	1.458756
0.713770	1.440153
0.713867	1.450875
0.713965	1.488286
0.714062	1.490173
0.714160	1.481173
0.714258	1.485264
0.714355	1.499554
0.714453	1.503928
0.714551	1.506001
0.714648	1.549344
0.714746	1.569962
0.714844	1.570879
0.714941	1.579071
0.715039	1.583125
0.715137	1.582946
0.715234	1.566079
0.715332	1.565052
0.715430	1.563191
0.715527	1.559431
0.715625	1.554998
0.715723	1.543956
0.715820	1.536416
0.715918	1.532311
0.716016	1.539594
0.716113	1.536437
0.716211	1.515194
0.716309	1.487756
0.716406	1.456164
0.716504	1.444703
0.716602	1.470175
0.716699	1.480736
0.716797	1.468987
0.716895	1.462395
0.716992	1.488947
0.717090	1.518465
0.717187	1.500820
0.717285	1.472187
0.717383	1.452499
0.717480	1.439852
0.717578	1.462447
0.717676	1.458502
0.717773	1.439420
0.717871	1.449309
0.717969	1.465446
0.718066	1.456559
0.718164	1.464745
0.718262	1.498545
0.718359	1.508004
0.718457	1.476891
0.718555	1.449609
0.718652	1.482288
0.718750	1.498597
0.718848	1.529843
0.718945	1.568289
0.719043	1.588768
0.719141	1.642534
0.719238	1.653299
0.719336	1.648564
0.719434	1.636866
0.719531	1.635681
0.719629	1.642800
0.719727	1.628312
0.719824	1.629501
0.719922	1.629805
0.720020	1.598027
0.720117	1.599935
0.720215	1.613257
0.720312	1.608684
0.720410	1.587298
0.720508	1.592069
0.720605	1.573566
0.720703	1.549632
0.720801	1.541770
0.720898	1.540676
0.720996	1.555988
0.721094	1.562997
0.721191	1.598890
0.721289	1.607900
0.721387	1.582652
0.721484	1.599043
0.721582	1.633166
0.721680	1.644137
0.721777	1.633958
0.721875	1.583356
0.721973	1.560955
0.722070	1.563521
0.722168	1.535579
0.722266	1.514504
0.722363	1.478620
0.722461	1.487504
0.722559	1.512792
0.722656	1.518176
0.722754	1.533031
0.722852	1.521275
0.722949	1.513019
0.723047	1.535648
0.723145	1.531950
0.723242	1.518912
0.723340	1.519824
0.723437	1.530770
0.723535	1.530049
0.723633	1.529199
0.723730	1.531745
0.723828	1.519601
0.723926	1.507275
0.724023	1.491476
0.724121	1.475193
0.724219	1.474964
0.724316	1.483854
0.724414	1.480762
0.724512	1.465819
0.724609	1.433466
0.724707	1.405524
0.724805	1.420233
0.724902	1.453636
0.725000	1.471275
0.725098	1.529337
0.725195	1.547882
0.725293	1.557361
0.725391	1.573408
0.725488	1.600124
0.725586	1.599296
0.725684	1.577775
0.725781	1.567553
0.725879	1.564943
0.725977	1.559803
0.726074	1.579039
0.726172	1.577939
0.726270	1.574163
0.726367	1.571274
0.726465	1.576999
0.726562	1.599545
0.726660	1.579104
0.726758	1.546209
0.726855	1.556974
0.726953	1.603133
0.727051	1.647688
0.727148	1.613892
0.727246	1.608318
0.727344	1.625185
0.727441	1.633711
0.727539	1.620440
0.727637	1.585668
0.727734	1.592874
0.727832	1.575479
0.727930	1.556964
0.728027	1.568328
0.728125	1.607332
0.728223	1.613711
0.728320	1.601738
0.728418	1.583629
0.728516	1.562698
0.728613	1.570268
0.728711	1.595169
0.728809	1.608299
0.728906	1.618998
0.729004	1.611231
0.729102	1.591471
0.729199	1.589036
0.729297	1.597051
0.729395	1.572053
0.729492	1.558088
0.729590	1.549609
0.729687	1.578075
0.729785	1.559713
0.729883	1.519548
0.729980	1.537633
0.730078	1.595960
0.730176	1.593650
0.730273	1.546333
0.730371	1.526758
0.730469	1.541588
0.730566	1.562313
0.730664	1.553941
0.730762	1.540492
0.730859	1.526954
0.730957	1.509281
0.731055	1.548586
0.731152	1.555119
0.731250	1.542754
0.731348	1.554929
0.731445	1.586657
0.731543	1.577070
0.731641	1.572340
0.731738	1.592474
0.731836	1.607896
0.731934	1.584682
0.732031	1.570580
0.732129	1.592009
0.732227	1.583659
0.732324	1.546516
0.732422	1.512521
0.732520	1.508294
0.732617	1.498231
0.732715	1.494276
0.732812	1.501732
0.732910	1.545152
0.733008	1.555542
0.733105	1.537703
0.733203	1.535289
0.733301	1.540341
0.733398	1.576303
0.733496	1.600783
0.733594	1.587654
0.733691	1.583834
0.733789	1.581240
0.733887	1.567315
0.733984	1.552518
0.734082	1.544945
0.734180	1.539154
0.734277	1.534555
0.734375	1.526283
0.734473	1.533921
0.734570	1.528870
0.734668	1.529282
0.734766	1.510341
0.734863	1.517280
0.734961	1.537418
0.735059	1.511030
0.735156	1.491889
0.735254	1.483523
0.735352	1.460015
0.735449	1.450699
0.735547	1.463726
0.735645	1.473587
0.735742	1.488207
0.735840	1.492767
0.735937	1.481916
0.736035	1.471700
0.736133	1.466686
0.736230	1.483222
0.736328	1.501532
0.736426	1.501080
0.736523	1.495421
0.736621	1.490903
0.736719	1.486771
0.736816	1.490566
0.736914	1.507117
0.737012	1.509431
0.737109	1.513327
0.737207	1.516502
0.737305	1.521891
0.737402	1.536688
0.737500	1.527690
0.737598	1.519352
0.737695	1.513061
0.737793	1.512543
0.737891	1.544523
0.737988	1.581396
0.738086	1.595500
0.738184	1.566860
0.738281	1.564800
0.738379	1.560907
0.738477	1.558153
0.738574	1.552558
0.738672	1.551835
0.738770	1.565809
0.738867	1.554641
0.738965	1.556596
0.739062	1.567912
0.739160	1.568048
0.739258	1.566616
0.739355	1.534370
0.739453	1.513037
0.739551	1.523030
0.739648	1.568411
0.739746	1.601372
0.739844	1.610720
0.739941	1.610322
0.740039	1.623522
0.740137	1.628131
0.740234	1.626428
0.740332	1.623450
0.740430	1.609542
0.740527	1.595130
0.740625	1.600014
0.740723	1.642641
0.740820	1.650334
0.740918	1.632063
0.741016	1.608877
0.741113	1.604519
0.741211	1.585250
0.741309	1.552621
0.741406	1.525040
0.741504	1.513587
0.741602	1.529584
0.741699	1.525610
0.741797	1.530352
0.741895	1.527975
0.741992	1.517458
0.742090	1.493638
0.742187	1.453865
0.742285	1.442587
0.742383	1.471022
0.742480	1.500657
0.742578	1.507250
0.742676	1.501546
0.742773	1.488448
0.742871	1.498269
0.742969	1.524044
0.743066	1.526677
0.743164	1.511072
0.743262	1.496667
0.743359	1.483179
0.743457	1.475341
0.743555	1.466935
0.743652	1.462606
0.743750	1.473694
0.743848	1.490204
0.743945	1.513074
0.744043	1.546811
0.744141	1.558828
0.744238	1.565162
0.744336	1.555922
0.744434	1.517090
0.744531	1.479887
0.744629	1.480730
0.744727	1.523095
0.744824	1.502458
0.744922	1.502667
0.745020	1.488486
0.745117	1.467645
0.745215	1.466378
0.745312	1.431077
0.745410	1.412877
0.745508	1.397053
0.745605	1.416814
0.745703	1.467919
0.745801	1.487805
0.745898	1.489383
0.745996	1.499260
0.746094	1.514259
0.746191	1.507998
0.746289	1.487994
0.746387	1.467223
0.746484	1.442466
0.746582	1.417967
0.746680	1.412772
0.746777	1.418434
0.746875	1.427967
0.746973	1.410331
0.747070	1.382547
0.747168	1.360739
0.747266	1.349593
0.747363	1.356528
0.747461	1.392107
0.747559	1.393905
0.747656	1.387877
0.747754	1.388489
0.747852	1.420801
0.747949	1.456431
0.748047	1.444428
0.748145	1.444465
0.748242	1.469087
0.748340	1.492667
0.748437	1.512915
0.748535	1.525396
0.748633	1.524018
0.748730	1.532296
0.748828	1.517742
0.748926	1.505249
0.749023	1.513166
0.749121	1.514611
0.749219	1.497678
0.749316	1.471836
0.749414	1.429390
0.749512	1.404517
0.749609	1.397824
0.749707	1.395957
0.749805	1.398995
0.749902	1.410901
0.750000	1.414105
0.750098	1.413029
0.750195	1.402889
0.750293	1.397350
0.750391	1.448297
0.750488	1.510953
0.750586	1.525746
0.750684	1.504012
0.750781	1.491732
0.750879	1.472582
0.750977	1.456272
0.751074	1.457274
0.751172	1.454711
0.751270	1.455887
0.751367	1.476962
0.751465	1.517315
0.751562	1.539721
0.751660	1.599631
0.751758	1.593602
0.751855	1.549690
0.751953	1.524423
0.752051	1.483325
0.752148	1.443805
0.752246	1.388279
0.752344	1.340333
0.752441	1.333352
0.752539	1.335250
0.752637	1.316669
0.752734	1.300585
0.752832	1.295685
0.752930	1.308455
0.753027	1.312356
0.753125	1.322927
0.753223	1.334868
0.753320	1.371151
0.753418	1.388162
0.753516	1.371761
0.753613	1.377381
0.753711	1.403620
0.753809	1.427608
0.753906	1.496822
0.754004	1.554971
0.754102	1.550734
0.754199	1.543871
0.754297	1.565765
0.754395	1.598143
0.754492	1.594127
0.754590	1.585956
0.754687	1.566710
0.754785	1.537376
0.754883	1.518498
0.754980	1.521244
0.755078	1.551354
0.755176	1.585692
0.755273	1.586262
0.755371	1.609494
0.755469	1.599770
0.755566	1.581770
0.755664	1.562993
0.755762	1.612207
0.755859	1.649131
0.755957	1.644934
0.756055	1.651141
0.756152	1.661506
0.756250	1.643327
0.756348	1.600337
0.756445	1.592944
0.756543	1.582000
0.756641	1.559701
0.756738	1.540102
0.756836	1.588952
0.756934	1.600077
0.757031	1.580041
0.757129	1.567534
0.757227	1.565282
0.757324	1.550966
0.757422	1.536282
0.757520	1.539673
0.757617	1.531394
0.757715	1.536549
0.757812	1.541747
0.757910	1.529905
0.758008	1.530809
0.758105	1.521999
0.758203	1.527030
0.758301	1.553389
0.758398	1.540061
0.758496	1.552460
0.758594	1.567624
0.758691	1.550434
0.758789	1.545992
0.758887	1.541560
0.758984	1.535456
0.759082	1.540423
0.759180	1.540914
0.759277	1.565199
0.759375	1.572365
0.759473	1.566674
0.759570	1.551735
0.759668	1.541575
0.759766	1.528319
0.759863	1.511799
0.759961	1.523578
0.760059	1.526334
0.760156	1.539378
0.760254	1.545219
0.760352	1.529090
0.760449	1.518213
0.760547	1.510377
0.760645	1.497677
0.760742	1.477006
0.760840	1.459710
0.760937	1.442929
0.761035	1.431559
0.761133	1.437191
0.761230	1.453538
0.761328	1.444453
0.761426	1.423469
0.761523	1.402876
0.761621	1.390364
0.761719	1.382493
0.761816	1.376316
0.761914	1.383918
0.762012	1.399182
0.762109	1.421366
0.762207	1.435595
0.762305	1.439136
0.762402	1.449878
0.762500	1.448108
0.762598	1.444680
0.762695	1.437419
0.762793	1.435458
0.762891	1.432202
0.762988	1.424099
0.763086	1.404988
0.763184	1.379757
0.763281	1.387995
0.763379	1.376540
0.763477	1.353543
0.763574	1.340643
0.763672	1.307779
0.763770	1.296424
0.763867	1.333896
0.763965	1.367365
0.764062	1.390971
0.764160	1.407619
0.764258	1.418661
0.764355	1.403711
0.764453	1.377212
0.764551	1.348296
0.764648	1.356890
0.764746	1.400109
0.764844	1.417653
0.764941	1.417415
0.765039	1.412474
0.765137	1.428904
0.765234	1.437572
0.765332	1.445641
0.765430	1.469826
0.765527	1.469567
0.765625	1.471335
0.765723	1.476062
0.765820	1.469710
0.765918	1.443463
0.766016	1.443856
0.766113	1.469095
0.766211	1.503968
0.766309	1.511711
0.766406	1.494132
0.766504	1.501253
0.766602	1.531104
0.766699	1.548490
0.766797	1.543854
0.766895	1.533868
0.766992	1.535786
0.767090	1.561043
0.767187	1.551975
0.767285	1.549950
0.767383	1.534607
0.767480	1.497667
0.767578	1.512442
0.767676	1.564924
0.767773	1.621348
0.767871	1.638196
0.767969	1.606228
0.768066	1.601267
0.768164	1.609761
0.768262	1.606863
0.768359	1.598368
0.768457	1.593772
0.768555	1.584092
0.768652	1.564876
0.768750	1.550371
0.768848	1.517954
0.768945	1.505904
0.769043	1.486239
0.769141	1.463259
0.769238	1.433677
0.769336	1.424100
0.769434	1.415418
0.769531	1.436144
0.769629	1.454360
0.769727	1.449044
0.769824	1.442179
0.769922	1.453892
0.770020	1.461034
0.770117	1.490711
0.770215	1.512253
0.770312	1.537965
0.770410	1.536627
0.770508	1.525563
0.770605	1.519264
0.770703	1.493945
0.770801	1.504128
0.770898	1.499380
0.770996	1.504465
0.771094	1.519150
0.771191	1.514296
0.771289	1.499125
0.771387	1.494146
0.771484	1.483788
0.771582	1.456794
0.771680	1.421830
0.771777	1.406546
0.771875	1.396810
0.771973	1.402336
0.772070	1.398128
0.772168	1.396744
0.772266	1.368860
0.772363	1.317832
0.772461	1.278811
0.772559	1.304932
0.772656	1.376429
0.772754	1.404300
0.772852	1.437445
0.772949	1.446365
0.773047	1.431578
0.773145	1.425555
0.773242	1.423770
0.773340	1.412220
0.773437	1.389154
0.773535	1.364734
0.773633	1.373120
0.773730	1.391934
0.773828	1.418973
0.773926	1.456673
0.774023	1.491465
0.774121	1.546753
0.774219	1.573165
0.774316	1.604297
0.774414	1.611283
0.774512	1.580244
0.774609	1.551076
0.774707	1.559687
0.774805	1.545842
0.774902	1.541141
0.775000	1.564569
0.775098	1.581776
0.775195	1.566872
0.775293	1.525710
0.775391	1.501942
0.775488	1.533123
0.775586	1.570283
0.775684	1.554821
0.775781	1.568077
0.775879	1.584326
0.775977	1.592724
0.776074	1.603132
0.776172	1.603236
0.776270	1.598917
0.776367	1.608585
0.776465	1.586223
0.776562	1.564340
0.776660	1.566487
0.776758	1.563432
0.776855	1.560071
0.776953	1.571094
0.777051	1.601375
0.777148	1.591483
0.777246	1.580653
0.777344	1.574398
0.777441	1.537998
0.777539	1.544173
0.777637	1.535736
0.777734	1.518121
0.777832	1.539574
0.777930	1.508684
0.778027	1.481021
0.778125	1.430417
0.778223	1.380029
0.778320	1.445328
0.778418	1.511176
0.778516	1.493495
0.778613	1.451611
0.778711	1.429274
0.778809	1.434939
0.778906	1.432772
0.779004	1.422358
0.779102	1.409951
0.779199	1.401831
0.779297	1.396251
0.779395	1.395813
0.779492	1.397832
0.779590	1.394670
0.779687	1.371746
0.779785	1.308272
0.779883	1.277968
0.779980	1.384455
0.780078	1.447981
0.780176	1.408730
0.780273	1.366715
0.780371	1.373143
0.780469	1.423103
0.780566	1.444833
0.780664	1.453801
0.780762	1.472795
0.780859	1.482380
0.780957	1.467359
0.781055	1.437329
0.781152	1.407973
0.781250	1.350730
0.781348	1.349321
0.781445	1.375690
0.781543	1.353547
0.781641	1.327382
0.781738	1.321038
0.781836	1.327322
0.781934	1.357870
0.782031	1.403174
0.782129	1.437479
0.782227	1.454893
0.782324	1.463233
0.782422	1.456689
0.782520	1.431201
0.782617	1.453061
0.782715	1.485782
0.782812	1.494863
0.782910	1.490779
0.783008	1.484675
0.783105	1.466286
0.783203	1.455754
0.783301	1.493974
0.783398	1.515664
0.783496	1.536012
0.783594	1.548082
0.783691	1.530984
0.783789	1.520688
0.783887	1.536163
0.783984	1.546437
0.784082	1.554592
0.784180	1.543063
0.784277	1.553626
0.784375	1.549114
0.784473	1.544183
0.784570	1.531678
0.784668	1.526286
0.784766	1.556541
0.784863	1.557510
0.784961	1.527315
0.785059	1.494323
0.785156	1.494592
0.785254	1.515457
0.785352	1.514619
0.785449	1.498771
0.785547	1.488589
0.785645	1.484944
0.785742	1.473184
0.785840	1.460679
0.785937	1.464862
0.786035	1.491914
0.786133	1.505367
0.786230	1.516098
0.786328	1.504370
0.786426	1.461006
0.786523	1.476936
0.786621	1.489913
0.786719	1.483708
0.786816	1.464400
0.786914	1.533724
0.787012	1.571755
0.787109	1.543496
0.787207	1.522504
0.787305	1.500885
0.787402	1.525045
0.787500	1.487954
0.787598	1.505352
0.787695	1.512091
0.787793	1.488521
0.787891	1.489786
0.787988	1.474522
0.788086	1.455704
0.788184	1.435952
0.788281	1.433985
0.788379	1.423402
0.788477	1.424886
0.788574	1.420262
0.788672	1.427565
0.788770	1.424623
0.788867	1.411789
0.788965	1.424283
0.789062	1.432684
0.789160	1.434369
0.789258	1.425636
0.789355	1.403393
0.789453	1.425252
0.789551	1.454971
0.789648	1.468512
0.789746	1.480954
0.789844	1.481718
0.789941	1.478581
0.790039	1.469224
0.790137	1.458484
0.790234	1.441766
0.790332	1.423327
0.790430	1.407888
0.790527	1.398573
0.790625	1.388691
0.790723	1.393836
0.790820	1.410153
0.790918	1.435086
0.791016	1.461712
0.791113	1.481176
0.791211	1.467844
0.791309	1.433817
0.791406	1.416828
0.791504	1.430370
0.791602	1.449610
0.791699	1.471733
0.791797	1.461787
0.791895	1.464751
0.791992	1.483295
0.792090	1.455617
0.792187	1.417204
0.792285	1.403521
0.792383	1.419148
0.792480	1.431948
0.792578	1.443612
0.792676	1.455859
0.792773	1.471241
0.792871	1.486400
0.792969	1.482624
0.793066	1.450502
0.793164	1.420829
0.793262	1.373515
0.793359	1.334361
0.793457	1.305654
0.793555	1.282054
0.793652	1.274950
0.793750	1.301589
0.793848	1.319601
0.793945	1.319271
0.794043	1.316417
0.794141	1.333052
0.794238	1.352851
0.794336	1.352375
0.794434	1.342407
0.794531	1.330637
0.794629	1.321029
0.794727	1.316660
0.794824	1.317258
0.794922	1.335097
0.795020	1.358583
0.795117	1.371952
0.795215	1.367250
0.795312	1.339997
0.795410	1.315235
0.795508	1.328515
0.795605	1.367147
0.795703	1.400065
0.795801	1.410185
0.795898	1.437410
0.795996	1.479757
0.796094	1.501515
0.796191	1.517723
0.796289	1.478497
0.796387	1.458727
0.796484	1.466105
0.796582	1.487151
0.796680	1.483859
0.796777	1.454467
0.796875	1.452908
0.796973	1.454281
0.797070	1.446160
0.797168	1.448157
0.797266	1.442775
0.797363	1.444100
0.797461	1.457787
0.797559	1.475827
0.797656	1.509510
0.797754	1.539532
0.797852	1.558404
0.797949	1.542649
0.798047	1.545481
0.798145	1.537126
0.798242	1.499205
0.798340	1.489047
0.798437	1.457957
0.798535	1.447746
0.798633	1.442919
0.798730	1.449219
0.798828	1.434372
0.798926	1.391799
0.799023	1.359007
0.799121	1.343989
0.799219	1.339663
0.799316	1.334103
0.799414	1.317084
0.799512	1.298355
0.799609	1.284935
0.799707	1.281517
0.799805	1.283614
0.799902	1.290096
0.800000	1.301474
0.800098	1.323679
0.800195	1.351503
0.800293	1.369728
0.800391	1.365171
0.800488	1.336360
0.800586	1.305549
0.800684	1.288526
0.800781	1.289763
0.800879	1.305476
0.800977	1.299334
0.801074	1.298058
0.801172	1.302527
0.801270	1.337558
0.801367	1.390850
0.801465	1.420477
0.801562	1.411850
0.801660	1.386518
0.801758	1.373627
0.801855	1.378013
0.801953	1.372479
0.802051	1.397093
0.802148	1.440027
0.802246	1.453270
0.802344	1.440517
0.802441	1.432784
0.802539	1.454345
0.802637	1.529185
0.802734	1.556046
0.802832	1.551106
0.802930	1.586846
0.803027	1.594648
0.803125	1.569623
0.803223	1.550661
0.803320	1.558366
0.803418	1.576443
0.803516	1.608947
0.803613	1.588973
0.803711	1.577104
0.803809	1.548215
0.803906	1.554442
0.804004	1.536994
0.804102	1.525438
0.804199	1.523095
0.804297	1.508984
0.804395	1.516828
0.804492	1.542970
0.804590	1.550811
0.804687	1.560576
0.804785	1.569484
0.804883	1.563482
0.804980	1.540689
0.805078	1.542035
0.805176	1.548735
0.805273	1.572706
0.805371	1.569622
0.805469	1.573860
0.805566	1.571316
0.805664	1.559167
0.805762	1.556206
0.805859	1.559511
0.805957	1.542431
0.806055	1.509657
0.806152	1.450699
0.806250	1.422605
0.806348	1.417719
0.806445	1.414052
0.806543	1.436895
0.806641	1.472672
0.806738	1.478171
0.806836	1.475143
0.806934	1.489197
0.807031	1.475548
0.807129	1.451707
0.807227	1.448432
0.807324	1.457509
0.807422	1.442228
0.807520	1.434833
0.807617	1.438109
0.807715	1.445508
0.807812	1.407352
0.807910	1.390215
0.808008	1.393609
0.808105	1.404606
0.808203	1.437962
0.808301	1.449307
0.808398	1.446920
0.808496	1.452624
0.808594	1.477317
0.808691	1.476591
0.808789	1.454539
0.808887	1.422319
0.808984	1.402961
0.809082	1.412015
0.809180	1.419453
0.809277	1.421830
0.809375	1.430363
0.809473	1.428598
0.809570	1.410306
0.809668	1.388103
0.809766	1.369176
0.809863	1.364965
0.809961	1.373248
0.810059	1.382263
0.810156	1.390595
0.810254	1.395099
0.810352	1.397691
0.810449	1.398058
0.810547	1.396896
0.810645	1.395893
0.810742	1.398682
0.810840	1.410301
0.810937	1.425753
0.811035	1.437097
0.811133	1.437335
0.811230	1.423456
0.811328	1.417352
0.811426	1.425662
0.811523	1.434144
0.811621	1.430714
0.811719	1.410267
0.811816	1.383098
0.811914	1.349516
0.812012	1.368594
0.812109	1.408019
0.812207	1.402379
0.812305	1.390423
0.812402	1.381060
0.812500	1.379884
0.812598	1.380188
0.812695	1.376689
0.812793	1.372887
0.812891	1.373875
0.812988	1.402266
0.813086	1.408550
0.813184	1.408558
0.813281	1.385827
0.813379	1.353424
0.813477	1.363348
0.813574	1.353049
0.813672	1.296963
0.813770	1.322317
0.813867	1.355896
0.813965	1.343185
0.814062	1.342901
0.814160	1.359003
0.814258	1.402227
0.814355	1.427568
0.814453	1.453738
0.814551	1.496346
0.814648	1.478331
0.814746	1.483654
0.814844	1.514393
0.814941	1.506978
0.815039	1.503991
0.815137	1.517911
0.815234	1.508900
0.815332	1.517668
0.815430	1.523833
0.815527	1.533921
0.815625	1.534679
0.815723	1.540706
0.815820	1.559595
0.815918	1.529062
0.816016	1.485882
0.816113	1.450881
0.816211	1.421838
0.816309	1.409390
0.816406	1.440364
0.816504	1.435732
0.816602	1.435775
0.816699	1.493597
0.816797	1.497813
0.816895	1.512479
0.816992	1.527738
0.817090	1.534513
0.817187	1.577875
0.817285	1.589156
0.817383	1.594296
0.817480	1.547891
0.817578	1.498938
0.817676	1.462242
0.817773	1.418341
0.817871	1.417093
0.817969	1.434263
0.818066	1.447173
0.818164	1.422396
0.818262	1.400278
0.818359	1.386167
0.818457	1.410460
0.818555	1.425786
0.818652	1.416657
0.818750	1.419325
0.818848	1.421127
0.818945	1.430038
0.819043	1.433369
0.819141	1.446870
0.819238	1.497376
0.819336	1.472081
0.819434	1.463766
0.819531	1.505185
0.819629	1.504626
0.819727	1.504223
0.819824	1.511125
0.819922	1.514155
0.820020	1.494622
0.820117	1.477624
0.820215	1.461141
0.820312	1.469996
0.820410	1.470909
0.820508	1.461604
0.820605	1.452550
0.820703	1.458333
0.820801	1.473070
0.820898	1.501487
0.820996	1.542216
0.821094	1.622038
0.821191	1.615702
0.821289	1.567168
0.821387	1.554968
0.821484	1.565234
0.821582	1.566319
0.821680	1.586852
0.821777	1.604241
0.821875	1.584858
0.821973	1.604485
0.822070	1.601776
0.822168	1.588216
0.822266	1.575752
0.822363	1.594881
0.822461	1.626030
0.822559	1.623588
0.822656	1.619926
0.822754	1.617905
0.822852	1.639536
0.822949	1.576457
0.823047	1.544871
0.823145	1.486227
0.823242	1.515498
0.823340	1.561940
0.823437	1.587783
0.823535	1.605847
0.823633	1.581732
0.823730	1.582080
0.823828	1.652343
0.823926	1.657531
0.824023	1.638793
0.824121	1.604751
0.824219	1.603117
0.824316	1.626586
0.824414	1.622577
0.824512	1.621950
0.824609	1.630241
0.824707	1.644408
0.824805	1.647410
0.824902	1.645734
0.825000	1.645013
0.825098	1.635257
0.825195	1.638659
0.825293	1.645882
0.825391	1.640340
0.825488	1.650112
0.825586	1.629712
0.825684	1.591753
0.825781	1.571160
0.825879	1.566524
0.825977	1.565618
0.826074	1.572425
0.826172	1.573114
0.826270	1.555238
0.826367	1.553764
0.826465	1.543673
0.826562	1.516312
0.826660	1.534725
0.826758	1.586863
0.826855	1.609008
0.826953	1.584657
0.827051	1.563871
0.827148	1.569616
0.827246	1.563939
0.827344	1.512691
0.827441	1.513170
0.827539	1.558673
0.827637	1.568568
0.827734	1.504356
0.827832	1.472071
0.827930	1.478058
0.828027	1.479606
0.828125	1.485572
0.828223	1.469620
0.828320	1.461058
0.828418	1.469892
0.828516	1.528470
0.828613	1.556008
0.828711	1.546605
0.828809	1.524267
0.828906	1.513438
0.829004	1.536538
0.829102	1.537572
0.829199	1.529981
0.829297	1.533528
0.829395	1.520693
0.829492	1.491696
0.829590	1.469720
0.829687	1.480259
0.829785	1.470199
0.829883	1.444343
0.829980	1.432921
0.830078	1.417709
0.830176	1.407956
0.830273	1.408724
0.830371	1.422367
0.830469	1.435991
0.830566	1.441456
0.830664	1.450314
0.830762	1.461350
0.830859	1.471077
0.830957	1.471809
0.831055	1.474926
0.831152	1.468954
0.831250	1.497115
0.831348	1.507616
0.831445	1.491308
0.831543	1.489412
0.831641	1.490420
0.831738	1.494264
0.831836	1.492387
0.831934	1.489581
0.832031	1.487344
0.832129	1.489519
0.832227	1.484801
0.832324	1.479266
0.832422	1.466394
0.832520	1.467749
0.832617	1.468168
0.832715	1.474737
0.832812	1.477679
0.832910	1.471150
0.833008	1.472141
0.833105	1.473994
0.833203	1.472826
0.833301	1.464792
0.833398	1.460775
0.833496	1.450411
0.833594	1.448702
0.833691	1.437387
0.833789	1.420371
0.833887	1.422551
0.833984	1.433007
0.834082	1.458946
0.834180	1.475840
0.834277	1.488423
0.834375	1.493783
0.834473	1.503398
0.834570	1.520774
0.834668	1.530667
0.834766	1.530615
0.834863	1.525828
0.834961	1.515919
0.835059	1.510756
0.835156	1.516595
0.835254	1.526439
0.835352	1.520878
0.835449	1.509418
0.835547	1.497050
0.835645	1.494772
0.835742	1.498802
0.835840	1.510584
0.835937	1.528893
0.836035	1.541138
0.836133	1.539722
0.836230	1.533040
0.836328	1.521568
0.836426	1.492550
0.836523	1.471256
0.836621	1.468840
0.836719	1.476074
0.836816	1.454225
0.836914	1.417221
0.837012	1.408983
0.837109	1.412814
0.837207	1.444592
0.837305	1.448543
0.837402	1.445670
0.837500	1.467350
0.837598	1.441588
0.837695	1.405451
0.837793	1.421177
0.837891	1.452085
0.837988	1.567500
0.838086	1.592983
0.838184	1.594357
0.838281	1.592709
0.838379	1.592070
0.838477	1.603421
0.838574	1.604527
0.838672	1.592720
0.838770	1.572169
0.838867	1.572759
0.838965	1.553233
0.839062	1.529186
0.839160	1.554419
0.839258	1.575638
0.839355	1.592879
0.839453	1.604113
0.839551	1.624125
0.839648	1.621296
0.839746	1.596532
0.839844	1.619212
0.839941	1.621157
0.840039	1.603314
0.840137	1.572912
0.840234	1.553146
0.840332	1.546511
0.840430	1.543639
0.840527	1.569827
0.840625	1.544277
0.840723	1.523482
0.840820	1.510388
0.840918	1.484215
0.841016	1.465683
0.841113	1.477462
0.841211	1.532376
0.841309	1.558115
0.841406	1.565118
0.841504	1.556594
0.841602	1.531632
0.841699	1.497951
0.841797	1.477056
0.841895	1.497528
0.841992	1.535381
0.842090	1.554815
0.842187	1.544477
0.842285	1.537891
0.842383	1.538259
0.842480	1.546345
0.842578	1.548830
0.842676	1.535361
0.842773	1.509894
0.842871	1.491013
0.842969	1.482962
0.843066	1.489722
0.843164	1.501485
0.843262	1.520412
0.843359	1.532758
0.843457	1.532975
0.843555	1.527006
0.843652	1.517986
0.843750	1.512209
0.843848	1.511403
0.843945	1.517906
0.844043	1.525262
0.844141	1.498236
0.844238	1.463203
0.844336	1.423413
0.844434	1.386275
0.844531	1.364005
0.844629	1.375471
0.844727	1.413214
0.844824	1.430356
0.844922	1.428329
0.845020	1.382489
0.845117	1.331848
0.845215	1.382060
0.845312	1.457784
0.845410	1.467363
0.845508	1.456139
0.845605	1.464077
0.845703	1.465003
0.845801	1.488309
0.845898	1.497307
0.845996	1.485598
0.846094	1.480475
0.846191	1.466074
0.846289	1.468720
0.846387	1.476964
0.846484	1.487087
0.846582	1.490887
0.846680	1.480031
0.846777	1.464466
0.846875	1.450188
0.846973	1.473261
0.847070	1.496267
0.847168	1.477680
0.847266	1.462556
0.847363	1.443483
0.847461	1.414630
0.847559	1.393582
0.847656	1.398373
0.847754	1.390777
0.847852	1.367824
0.847949	1.334362
0.848047	1.304447
0.848145	1.293571
0.848242	1.295922
0.848340	1.288509
0.848437	1.274736
0.848535	1.276404
0.848633	1.281691
0.848730	1.278852
0.848828	1.295945
0.848926	1.351570
0.849023	1.392333
0.849121	1.411657
0.849219	1.396847
0.849316	1.378153
0.849414	1.376034
0.849512	1.375922
0.849609	1.383574
0.849707	1.384820
0.849805	1.362610
0.849902	1.338576
0.850000	1.359791
0.850098	1.392156
0.850195	1.427412
0.850293	1.422869
0.850391	1.412577
0.850488	1.428202
0.850586	1.478345
0.850684	1.499813
0.850781	1.474022
0.850879	1.452798
0.850977	1.455002
0.851074	1.459411
0.851172	1.451325
0.851270	1.447604
0.851367	1.438767
0.851465	1.445433
0.851562	1.427663
0.851660	1.379145
0.851758	1.328283
0.851855	1.292690
0.851953	1.276406
0.852051	1.274422
0.852148	1.278815
0.852246	1.277665
0.852344	1.268735
0.852441	1.256393
0.852539	1.242693
0.852637	1.229494
0.852734	1.217708
0.852832	1.213332
0.852930	1.220166
0.853027	1.237475
0.853125	1.255260
0.853223	1.263157
0.853320	1.257792
0.853418	1.249350
0.853516	1.246014
0.853613	1.258504
0.853711	1.281708
0.853809	1.315037
0.853906	1.326604
0.854004	1.350069
0.854102	1.396593
0.854199	1.378593
0.854297	1.351890
0.854395	1.319548
0.854492	1.290769
0.854590	1.259162
0.854687	1.237396
0.854785	1.226971
0.854883	1.219316
0.854980	1.212374
0.855078	1.206542
0.855176	1.202925
0.855273	1.205685
0.855371	1.216042
0.855469	1.231133
0.855566	1.247246
0.855664	1.263669
0.855762	1.281536
0.855859	1.300129
0.855957	1.305679
0.856055	1.295532
0.856152	1.287268
0.856250	1.289118
0.856348	1.307512
0.856445	1.328747
0.856543	1.343124
0.856641	1.354860
0.856738	1.367761
0.856836	1.400026
0.856934	1.418323
0.857031	1.407053
0.857129	1.393092
0.857227	1.390396
0.857324	1.390592
0.857422	1.383751
0.857520	1.378142
0.857617	1.388386
0.857715	1.405002
0.857812	1.419212
0.857910	1.434931
0.858008	1.438839
0.858105	1.433447
0.858203	1.418984
0.858301	1.394477
0.858398	1.386841
0.858496	1.399639
0.858594	1.413086
0.858691	1.424004
0.858789	1.426341
0.858887	1.412044
0.858984	1.383242
0.859082	1.354175
0.859180	1.328343
0.859277	1.305429
0.859375	1.284305
0.859473	1.265260
0.859570	1.247960
0.859668	1.233546
0.859766	1.223306
0.859863	1.218425
0.859961	1.220497
0.860059	1.232893
0.860156	1.259672
0.860254	1.296884
0.860352	1.327074
0.860449	1.338813
0.860547	1.337055
0.860645	1.321071
0.860742	1.311085
0.860840	1.314502
0.860937	1.304654
0.861035	1.308179
0.861133	1.324930
0.861230	1.360686
0.861328	1.377287
0.861426	1.362450
0.861523	1.365861
0.861621	1.367773
0.861719	1.358363
0.861816	1.353546
0.861914	1.398504
0.862012	1.464548
0.862109	1.460359
0.862207	1.467449
0.862305	1.487924
0.862402	1.503353
0.862500	1.514639
0.862598	1.522199
0.862695	1.534791
0.862793	1.544291
0.862891	1.546741
0.862988	1.541252
0.863086	1.541035
0.863184	1.541979
0.863281	1.537174
0.863379	1.522644
0.863477	1.523141
0.863574	1.511317
0.863672	1.493044
0.863770	1.463616
0.863867	1.433765
0.863965	1.415889
0.864062	1.418444
0.864160	1.429294
0.864258	1.430504
0.864355	1.416625
0.864453	1.398013
0.864551	1.400796
0.864648	1.423873
0.864746	1.405489
0.864844	1.379604
0.864941	1.363980
0.865039	1.384322
0.865137	1.481840
0.865234	1.497018
0.865332	1.484942
0.865430	1.494142
0.865527	1.505117
0.865625	1.483562
0.865723	1.465560
0.865820	1.471091
0.865918	1.508540
0.866016	1.527741
0.866113	1.543096
0.866211	1.586154
0.866309	1.586522
0.866406	1.560293
0.866504	1.556317
0.866602	1.572081
0.866699	1.558028
0.866797	1.518177
0.866895	1.510111
0.866992	1.500916
0.867090	1.487952
0.867187	1.472033
0.867285	1.485782
0.867383	1.488500
0.867480	1.481047
0.867578	1.476422
0.867676	1.473676
0.867773	1.473794
0.867871	1.481735
0.867969	1.489130
0.868066	1.487381
0.868164	1.474129
0.868262	1.470647
0.868359	1.477356
0.868457	1.497645
0.868555	1.497885
0.868652	1.480905
0.868750	1.475215
0.868848	1.480326
0.868945	1.482750
0.869043	1.473213
0.869141	1.464020
0.869238	1.448483
0.869336	1.435317
0.869434	1.443087
0.869531	1.477379
0.869629	1.488932
0.869727	1.503981
0.869824	1.527789
0.869922	1.533275
0.870020	1.526165
0.870117	1.525765
0.870215	1.536606
0.870312	1.530584
0.870410	1.522152
0.870508	1.517338
0.870605	1.510766
0.870703	1.501839
0.870801	1.492195
0.870898	1.474962
0.870996	1.461182
0.871094	1.459497
0.871191	1.464829
0.871289	1.471050
0.871387	1.469815
0.871484	1.471392
0.871582	1.481348
0.871680	1.480251
0.871777	1.486748
0.871875	1.475770
0.871973	1.455197
0.872070	1.458041
0.872168	1.474242
0.872266	1.486449
0.872363	1.508344
0.872461	1.526316
0.872559	1.524025
0.872656	1.510420
0.872754	1.487790
0.872852	1.515489
0.872949	1.510974
0.873047	1.509751
0.873145	1.496516
0.873242	1.484566
0.873340	1.471422
0.873437	1.466680
0.873535	1.457191
0.873633	1.452287
0.873730	1.470122
0.873828	1.499937
0.873926	1.506746
0.874023	1.516567
0.874121	1.532711
0.874219	1.563061
0.874316	1.593470
0.874414	1.598493
0.874512	1.595302
0.874609	1.592261
0.874707	1.589403
0.874805	1.584242
0.874902	1.571922
0.875000	1.552619
0.875098	1.538092
0.875195	1.521557
0.875293	1.507916
0.875391	1.509513
0.875488	1.508327
0.875586	1.513416
0.875684	1.510017
0.875781	1.522944
0.875879	1.517677
0.875977	1.535562
0.876074	1.534272
0.876172	1.523628
0.876270	1.515644
0.876367	1.491596
0.876465	1.489103
0.876562	1.466969
0.876660	1.459165
0.876758	1.472104
0.876855	1.506367
0.876953	1.538365
0.877051	1.540345
0.877148	1.528245
0.877246	1.517299
0.877344	1.517407
0.877441	1.500252
0.877539	1.508432
0.877637	1.513731
0.877734	1.502696
0.877832	1.512491
0.877930	1.532805
0.878027	1.510208
0.878125	1.528893
0.878223	1.556027
0.878320	1.549343
0.878418	1.550028
0.878516	1.553843
0.878613	1.546523
0.878711	1.519462
0.878809	1.510495
0.878906	1.520755
0.879004	1.517473
0.879102	1.506392
0.879199	1.499673
0.879297	1.493778
0.879395	1.483412
0.879492	1.479309
0.879590	1.485110
0.879687	1.508173
0.879785	1.527903
0.879883	1.542418
0.879980	1.529738
0.880078	1.505070
0.880176	1.482137
0.880273	1.470889
0.880371	1.477707
0.880469	1.484886
0.880566	1.480296
0.880664	1.480526
0.880762	1.507717
0.880859	1.509535
0.880957	1.501520
0.881055	1.485343
0.881152	1.465488
0.881250	1.460477
0.881348	1.463287
0.881445	1.474117
0.881543	1.483053
0.881641	1.475929
0.881738	1.462974
0.881836	1.444088
0.881934	1.415213
0.882031	1.385003
0.882129	1.367610
0.882227	1.371173
0.882324	1.390411
0.882422	1.414625
0.882520	1.425871
0.882617	1.420695
0.882715	1.422868
0.882812	1.442914
0.882910	1.448259
0.883008	1.455385
0.883105	1.468530
0.883203	1.474734
0.883301	1.470570
0.883398	1.464988
0.883496	1.468678
0.883594	1.457852
0.883691	1.435737
0.883789	1.406170
0.883887	1.380798
0.883984	1.353101
0.884082	1.335860
0.884180	1.323759
0.884277	1.316190
0.884375	1.321513
0.884473	1.343297
0.884570	1.361430
0.884668	1.378819
0.884766	1.398524
0.884863	1.419631
0.884961	1.396887
0.885059	1.345146
0.885156	1.317363
0.885254	1.335934
0.885352	1.434696
0.885449	1.485279
0.885547	1.485954
0.885645	1.467269
0.885742	1.434932
0.885840	1.402892
0.885937	1.370447
0.886035	1.346399
0.886133	1.338213
0.886230	1.339436
0.886328	1.339374
0.886426	1.352766
0.886523	1.380522
0.886621	1.380615
0.886719	1.342897
0.886816	1.320178
0.886914	1.364761
0.887012	1.429339
0.887109	1.480732
0.887207	1.532630
0.887305	1.544737
0.887402	1.537904
0.887500	1.525727
0.887598	1.494953
0.887695	1.462113
0.887793	1.446182
0.887891	1.450008
0.887988	1.449423
0.888086	1.439330
0.888184	1.421510
0.888281	1.410090
0.888379	1.408599
0.888477	1.416423
0.888574	1.432593
0.888672	1.470592
0.888770	1.511215
0.888867	1.533378
0.888965	1.550914
0.889062	1.556597
0.889160	1.573622
0.889258	1.599022
0.889355	1.606978
0.889453	1.602086
0.889551	1.602436
0.889648	1.596417
0.889746	1.591167
0.889844	1.601196
0.889941	1.622116
0.890039	1.630412
0.890137	1.633885
0.890234	1.635660
0.890332	1.642121
0.890430	1.641793
0.890527	1.645453
0.890625	1.640866
0.890723	1.640123
0.890820	1.629708
0.890918	1.626654
0.891016	1.625566
0.891113	1.630090
0.891211	1.617798
0.891309	1.591820
0.891406	1.596954
0.891504	1.602379
0.891602	1.617035
0.891699	1.623510
0.891797	1.618870
0.891895	1.614582
0.891992	1.600989
0.892090	1.604276
0.892187	1.616712
0.892285	1.646695
0.892383	1.649342
0.892480	1.643902
0.892578	1.631761
0.892676	1.630589
0.892773	1.614088
0.892871	1.617864
0.892969	1.599809
0.893066	1.627214
0.893164	1.651199
0.893262	1.649986
0.893359	1.666200
0.893457	1.669116
0.893555	1.669852
0.893652	1.667898
0.893750	1.653604
0.893848	1.639314
0.893945	1.653508
0.894043	1.651614
0.894141	1.640905
0.894238	1.612093
0.894336	1.598568
0.894434	1.609128
0.894531	1.607461
0.894629	1.546541
0.894727	1.546257
0.894824	1.568808
0.894922	1.497262
0.895020	1.463320
0.895117	1.461805
0.895215	1.446652
0.895312	1.448421
0.895410	1.441946
0.895508	1.468067
0.895605	1.550856
0.895703	1.558712
0.895801	1.526254
0.895898	1.506487
0.895996	1.513275
0.896094	1.557265
0.896191	1.552798
0.896289	1.541573
0.896387	1.536841
0.896484	1.525918
0.896582	1.516658
0.896680	1.509109
0.896777	1.516990
0.896875	1.565046
0.896973	1.559388
0.897070	1.518740
0.897168	1.509086
0.897266	1.498743
0.897363	1.492029
0.897461	1.482819
0.897559	1.475439
0.897656	1.464083
0.897754	1.453257
0.897852	1.440675
0.897949	1.429092
0.898047	1.421905
0.898145	1.415821
0.898242	1.400627
0.898340	1.380795
0.898437	1.369847
0.898535	1.365151
0.898633	1.346368
0.898730	1.313482
0.898828	1.293280
0.898926	1.293755
0.899023	1.303070
0.899121	1.319977
0.899219	1.354160
0.899316	1.420797
0.899414	1.469258
0.899512	1.489772
0.899609	1.494103
0.899707	1.488700
0.899805	1.492490
0.899902	1.499664
0.900000	1.494273
0.900098	1.480064
0.900195	1.493201
0.900293	1.505923
0.900391	1.500726
0.900488	1.489083
0.900586	1.473608
0.900684	1.457742
0.900781	1.454573
0.900879	1.447397
0.900977	1.440251
0.901074	1.422323
0.901172	1.427968
0.901270	1.449505
0.901367	1.462830
0.901465	1.500194
0.901562	1.514473
0.901660	1.526007
0.901758	1.538160
0.901855	1.569357
0.901953	1.593028
0.902051	1.606660
0.902148	1.610734
0.902246	1.586011
0.902344	1.571745
0.902441	1.579603
0.902539	1.569653
0.902637	1.566336
0.902734	1.589590
0.902832	1.612467
0.902930	1.625160
0.903027	1.641627
0.903125	1.640033
0.903223	1.640031
0.903320	1.638858
0.903418	1.628842
0.903516	1.623870
0.903613	1.626547
0.903711	1.630269
0.903809	1.629577
0.903906	1.626573
0.904004	1.624901
0.904102	1.625321
0.904199	1.624474
0.904297	1.625470
0.904395	1.627982
0.904492	1.631980
0.904590	1.629441
0.904687	1.622737
0.904785	1.624702
0.904883	1.628244
0.904980	1.627826
0.905078	1.627782
0.905176	1.630141
0.905273	1.633450
0.905371	1.634788
0.905469	1.636362
0.905566	1.637908
0.905664	1.641370
0.905762	1.644800
0.905859	1.648015
0.905957	1.650120
0.906055	1.654737
0.906152	1.647077
0.906250	1.654393
0.906348	1.654657
0.906445	1.644188
0.906543	1.651147
0.906641	1.653694
0.906738	1.655268
0.906836	1.664848
0.906934	1.664137
0.907031	1.645687
0.907129	1.636257
0.907227	1.636352
0.907324	1.637695
0.907422	1.624206
0.907520	1.610989
0.907617	1.605696
0.907715	1.605736
0.907812	1.621423
0.907910	1.628555
0.908008	1.617521
0.908105	1.612780
0.908203	1.583918
0.908301	1.604808
0.908398	1.601925
0.908496	1.575315
0.908594	1.573319
0.908691	1.569962
0.908789	1.559033
0.908887	1.553211
0.908984	1.545026
0.909082	1.542758
0.909180	1.539428
0.909277	1.537961
0.909375	1.530788
0.909473	1.521901
0.909570	1.514712
0.909668	1.496014
0.909766	1.493674
0.909863	1.497453
0.909961	1.487638
0.910059	1.459654
0.910156	1.443235
0.910254	1.473610
0.910352	1.524124
0.910449	1.531639
0.910547	1.531985
0.910645	1.537788
0.910742	1.542515
0.910840	1.529303
0.910937	1.501506
0.911035	1.488971
0.911133	1.494134
0.911230	1.494280
0.911328	1.475760
0.911426	1.448938
0.911523	1.431882
0.911621	1.422078
0.911719	1.405678
0.911816	1.383328
0.911914	1.364254
0.912012	1.347924
0.912109	1.330738
0.912207	1.314666
0.912305	1.306458
0.912402	1.301744
0.912500	1.298766
0.912598	1.296720
0.912695	1.297276
0.912793	1.297008
0.912891	1.293063
0.912988	1.284721
0.913086	1.272505
0.913184	1.259784
0.913281	1.251293
0.913379	1.248240
0.913477	1.262288
0.913574	1.295661
0.913672	1.345970
0.913770	1.384557
0.913867	1.395819
0.913965	1.395015
0.914062	1.388096
0.914160	1.377310
0.914258	1.376587
0.914355	1.370180
0.914453	1.356926
0.914551	1.326641
0.914648	1.299427
0.914746	1.274715
0.914844	1.294646
0.914941	1.343884
0.915039	1.415411
0.915137	1.520709
0.915234	1.551946
0.915332	1.555931
0.915430	1.555827
0.915527	1.559021
0.915625	1.565704
0.915723	1.558083
0.915820	1.558770
0.915918	1.551846
0.916016	1.563036
0.916113	1.572622
0.916211	1.563937
0.916309	1.530845
0.916406	1.513672
0.916504	1.540654
0.916602	1.547074
0.916699	1.547748
0.916797	1.574701
0.916895	1.569227
0.916992	1.556034
0.917090	1.530988
0.917187	1.540205
0.917285	1.544175
0.917383	1.549394
0.917480	1.540045
0.917578	1.513643
0.917676	1.504037
0.917773	1.505441
0.917871	1.522069
0.917969	1.518550
0.918066	1.517484
0.918164	1.508349
0.918262	1.496446
0.918359	1.490371
0.918457	1.501696
0.918555	1.518986
0.918652	1.549127
0.918750	1.575184
0.918848	1.584542
0.918945	1.590476
0.919043	1.597065
0.919141	1.565002
0.919238	1.540524
0.919336	1.532519
0.919434	1.534380
0.919531	1.528847
0.919629	1.520567
0.919727	1.534609
0.919824	1.561803
0.919922	1.551372
0.920020	1.538694
0.920117	1.523898
0.920215	1.492635
0.920312	1.461460
0.920410	1.436009
0.920508	1.423415
0.920605	1.426074
0.920703	1.434250
0.920801	1.426258
0.920898	1.406926
0.920996	1.398120
0.921094	1.401557
0.921191	1.406560
0.921289	1.401229
0.921387	1.384602
0.921484	1.385850
0.921582	1.395256
0.921680	1.401442
0.921777	1.404918
0.921875	1.416378
0.921973	1.432198
0.922070	1.450354
0.922168	1.472904
0.922266	1.529329
0.922363	1.559135
0.922461	1.543759
0.922559	1.524478
0.922656	1.522191
0.922754	1.513558
0.922852	1.494874
0.922949	1.497720
0.923047	1.485375
0.923145	1.472469
0.923242	1.457830
0.923340	1.451351
0.923437	1.448089
0.923535	1.462815
0.923633	1.477222
0.923730	1.538314
0.923828	1.576553
0.923926	1.587350
0.924023	1.587727
0.924121	1.573971
0.924219	1.582060
0.924316	1.612551
0.924414	1.610063
0.924512	1.568666
0.924609	1.512750
0.924707	1.503539
0.924805	1.508460
0.924902	1.519457
0.925000	1.530639
0.925098	1.544093
0.925195	1.537877
0.925293	1.514084
0.925391	1.511595
0.925488	1.524105
0.925586	1.522390
0.925684	1.494538
0.925781	1.463395
0.925879	1.466740
0.925977	1.496909
0.926074	1.510996
0.926172	1.537453
0.926270	1.567907
0.926367	1.585152
0.926465	1.599183
0.926562	1.585423
0.926660	1.589177
0.926758	1.579901
0.926855	1.583490
0.926953	1.592291
0.927051	1.596541
0.927148	1.602235
0.927246	1.587157
0.927344	1.587360
0.927441	1.583658
0.927539	1.568652
0.927637	1.558809
0.927734	1.587958
0.927832	1.581747
0.927930	1.574630
0.928027	1.599542
0.928125	1.603905
0.928223	1.579319
0.928320	1.556434
0.928418	1.563925
0.928516	1.577077
0.928613	1.569771
0.928711	1.545740
0.928809	1.524113
0.928906	1.519745
0.929004	1.521663
0.929102	1.508576
0.929199	1.502894
0.929297	1.521422
0.929395	1.537437
0.929492	1.530048
0.929590	1.529233
0.929687	1.524582
0.929785	1.508949
0.929883	1.503258
0.929980	1.507503
0.930078	1.510265
0.930176	1.505438
0.930273	1.494073
0.930371	1.490964
0.930469	1.476520
0.930566	1.450323
0.930664	1.459277
0.930762	1.488395
0.930859	1.510534
0.930957	1.511053
0.931055	1.490960
0.931152	1.451682
0.931250	1.425343
0.931348	1.457893
0.931445	1.500195
0.931543	1.492110
0.931641	1.467026
0.931738	1.448540
0.931836	1.438524
0.931934	1.411118
0.932031	1.396853
0.932129	1.398267
0.932227	1.397541
0.932324	1.405175
0.932422	1.444133
0.932520	1.498174
0.932617	1.544912
0.932715	1.572910
0.932812	1.579291
0.932910	1.586926
0.933008	1.596834
0.933105	1.583239
0.933203	1.558731
0.933301	1.552172
0.933398	1.558124
0.933496	1.569685
0.933594	1.578129
0.933691	1.567723
0.933789	1.561713
0.933887	1.560286
0.933984	1.578231
0.934082	1.585171
0.934180	1.577771
0.934277	1.577974
0.934375	1.572705
0.934473	1.565024
0.934570	1.549263
0.934668	1.576742
0.934766	1.593848
0.934863	1.610238
0.934961	1.599298
0.935059	1.547861
0.935156	1.551952
0.935254	1.580465
0.935352	1.606705
0.935449	1.600187
0.935547	1.608808
0.935645	1.591594
0.935742	1.572719
0.935840	1.587854
0.935937	1.604364
0.936035	1.595468
0.936133	1.586366
0.936230	1.600556
0.936328	1.589440
0.936426	1.574560
0.936523	1.564215
0.936621	1.544856
0.936719	1.517939
0.936816	1.501269
0.936914	1.489190
0.937012	1.499674
0.937109	1.469374
0.937207	1.427748
0.937305	1.450257
0.937402	1.497748
0.937500	1.511592
0.937598	1.514485
0.937695	1.500128
0.937793	1.481666
0.937891	1.466616
0.937988	1.485549
0.938086	1.515690
0.938184	1.524668
0.938281	1.532885
0.938379	1.543228
0.938477	1.545099
0.938574	1.536232
0.938672	1.540518
0.938770	1.560776
0.938867	1.547857
0.938965	1.550094
0.939062	1.557551
0.939160	1.563695
0.939258	1.571401
0.939355	1.548989
0.939453	1.535901
0.939551	1.508823
0.939648	1.510094
0.939746	1.521903
0.939844	1.530654
0.939941	1.525807
0.940039	1.518739
0.940137	1.512878
0.940234	1.510395
0.940332	1.513671
0.940430	1.527767
0.940527	1.533215
0.940625	1.529663
0.940723	1.523759
0.940820	1.517832
0.940918	1.518671
0.941016	1.516850
0.941113	1.511672
0.941211	1.505385
0.941309	1.501062
0.941406	1.499366
0.941504	1.492885
0.941602	1.477034
0.941699	1.476254
0.941797	1.485211
0.941895	1.489625
0.941992	1.502663
0.942090	1.509325
0.942187	1.516406
0.942285	1.544881
0.942383	1.545181
0.942480	1.507572
0.942578	1.468842
0.942676	1.449228
0.942773	1.430193
0.942871	1.409932
0.942969	1.397647
0.943066	1.405034
0.943164	1.421778
0.943262	1.418072
0.943359	1.407656
0.943457	1.400060
0.943555	1.391371
0.943652	1.374190
0.943750	1.354372
0.943848	1.351653
0.943945	1.357040
0.944043	1.330564
0.944141	1.306944
0.944238	1.317705
0.944336	1.371733
0.944434	1.442777
0.944531	1.448778
0.944629	1.369747
0.944727	1.357236
0.944824	1.460617
0.944922	1.443828
0.945020	1.389767
0.945117	1.368655
0.945215	1.331794
0.945312	1.311134
0.945410	1.320667
0.945508	1.370599
0.945605	1.362134
0.945703	1.410286
0.945801	1.435319
0.945898	1.449788
0.945996	1.487100
0.946094	1.579626
0.946191	1.601051
0.946289	1.584109
0.946387	1.582105
0.946484	1.551215
0.946582	1.576321
0.946680	1.597543
0.946777	1.602206
0.946875	1.585592
0.946973	1.569174
0.947070	1.553929
0.947168	1.558155
0.947266	1.565605
0.947363	1.587427
0.947461	1.574071
0.947559	1.562637
0.947656	1.575716
0.947754	1.570623
0.947852	1.553037
0.947949	1.542116
0.948047	1.542076
0.948145	1.541357
0.948242	1.538062
0.948340	1.519188
0.948437	1.498861
0.948535	1.488813
0.948633	1.486322
0.948730	1.479062
0.948828	1.474285
0.948926	1.462439
0.949023	1.458556
0.949121	1.479656
0.949219	1.514496
0.949316	1.538046
0.949414	1.545725
0.949512	1.562479
0.949609	1.569397
0.949707	1.598480
0.949805	1.597336
0.949902	1.597141
0.950000	1.597348
0.950098	1.599947
0.950195	1.602299
0.950293	1.605679
0.950391	1.609083
0.950488	1.627846
0.950586	1.631440
0.950684	1.603921
0.950781	1.578632
0.950879	1.561880
0.950977	1.533227
0.951074	1.530188
0.951172	1.570243
0.951270	1.593582
0.951367	1.598434
0.951465	1.584991
0.951562	1.607088
0.951660	1.634797
0.951758	1.649915
0.951855	1.649639
0.951953	1.630161
0.952051	1.604184
0.952148	1.587969
0.952246	1.600277
0.952344	1.601247
0.952441	1.599528
0.952539	1.607422
0.952637	1.616360
0.952734	1.608971
0.952832	1.598787
0.952930	1.579007
0.953027	1.584659
0.953125	1.595683
0.953223	1.612662
0.953320	1.587048
0.953418	1.560976
0.953516	1.562540
0.953613	1.583610
0.953711	1.590986
0.953809	1.580319
0.953906	1.555968
0.954004	1.548359
0.954102	1.571116
0.954199	1.584753
0.954297	1.613849
0.954395	1.631071
0.954492	1.591957
0.954590	1.589286
0.954687	1.596654
0.954785	1.637266
0.954883	1.646895
0.954980	1.611919
0.955078	1.583615
0.955176	1.590716
0.955273	1.588236
0.955371	1.595782
0.955469	1.599157
0.955566	1.599484
0.955664	1.631064
0.955762	1.620580
0.955859	1.602626
0.955957	1.578667
0.956055	1.574164
0.956152	1.565957
0.956250	1.565054
0.956348	1.544142
0.956445	1.513663
0.956543	1.497976
0.956641	1.496142
0.956738	1.491178
0.956836	1.484033
0.956934	1.473105
0.957031	1.454456
0.957129	1.438051
0.957227	1.446914
0.957324	1.480910
0.957422	1.498597
0.957520	1.512459
0.957617	1.514384
0.957715	1.482436
0.957812	1.469556
0.957910	1.497124
0.958008	1.533519
0.958105	1.550780
0.958203	1.554084
0.958301	1.552935
0.958398	1.530416
0.958496	1.513604
0.958594	1.499849
0.958691	1.495192
0.958789	1.527434
0.958887	1.548758
0.958984	1.545473
0.959082	1.541386
0.959180	1.551941
0.959277	1.540481
0.959375	1.560343
0.959473	1.553321
0.959570	1.540821
0.959668	1.572445
0.959766	1.567527
0.959863	1.559572
0.959961	1.537374
0.960059	1.495036
0.960156	1.480877
0.960254	1.479348
0.960352	1.470928
0.960449	1.475367
0.960547	1.465531
0.960645	1.436674
0.960742	1.432472
0.960840	1.433129
0.960937	1.401607
0.961035	1.361516
0.961133	1.358629
0.961230	1.371935
0.961328	1.405366
0.961426	1.377950
0.961523	1.452554
0.961621	1.516359
0.961719	1.525162
0.961816	1.562904
0.961914	1.549026
0.962012	1.548510
0.962109	1.550757
0.962207	1.556365
0.962305	1.588539
0.962402	1.607205
0.962500	1.584148
0.962598	1.562447
0.962695	1.558840
0.962793	1.552810
0.962891	1.572831
0.962988	1.576831
0.963086	1.579208
0.963184	1.577608
0.963281	1.532439
0.963379	1.495558
0.963477	1.489249
0.963574	1.504478
0.963672	1.515317
0.963770	1.546061
0.963867	1.584129
0.963965	1.578863
0.964062	1.560877
0.964160	1.525053
0.964258	1.484315
0.964355	1.491544
0.964453	1.515107
0.964551	1.514171
0.964648	1.510075
0.964746	1.509277
0.964844	1.526619
0.964941	1.532469
0.965039	1.519479
0.965137	1.518901
0.965234	1.523753
0.965332	1.525888
0.965430	1.526087
0.965527	1.533570
0.965625	1.547449
0.965723	1.548480
0.965820	1.538808
0.965918	1.522419
0.966016	1.503591
0.966113	1.509178
0.966211	1.517126
0.966309	1.523378
0.966406	1.492473
0.966504	1.492243
0.966602	1.528605
0.966699	1.519322
0.966797	1.529480
0.966895	1.528014
0.966992	1.512978
0.967090	1.500030
0.967187	1.500621
0.967285	1.489868
0.967383	1.479093
0.967480	1.482767
0.967578	1.481527
0.967676	1.465142
0.967773	1.446563
0.967871	1.457685
0.967969	1.477774
0.968066	1.483725
0.968164	1.477647
0.968262	1.470662
0.968359	1.477316
0.968457	1.473336
0.968555	1.455540
0.968652	1.433223
0.968750	1.416379
0.968848	1.409979
0.968945	1.413714
0.969043	1.413379
0.969141	1.465257
0.969238	1.537440
0.969336	1.545597
0.969434	1.535380
0.969531	1.527512
0.969629	1.524395
0.969727	1.524262
0.969824	1.529208
0.969922	1.509160
0.970020	1.509181
0.970117	1.504374
0.970215	1.519830
0.970312	1.530561
0.970410	1.567834
0.970508	1.572413
0.970605	1.565898
0.970703	1.575399
0.970801	1.560483
0.970898	1.545748
0.970996	1.515813
0.971094	1.506133
0.971191	1.499518
0.971289	1.488832
0.971387	1.492537
0.971484	1.496352
0.971582	1.490637
0.971680	1.498608
0.971777	1.497955
0.971875	1.493752
0.971973	1.483558
0.972070	1.479401
0.972168	1.474094
0.972266	1.467251
0.972363	1.493324
0.972461	1.537587
0.972559	1.538157
0.972656	1.537928
0.972754	1.532015
0.972852	1.510288
0.972949	1.480945
0.973047	1.469770
0.973145	1.472262
0.973242	1.477161
0.973340	1.477903
0.973437	1.526234
0.973535	1.552390
0.973633	1.547518
0.973730	1.542226
0.973828	1.541915
0.973926	1.528855
0.974023	1.508818
0.974121	1.488311
0.974219	1.468239
0.974316	1.467398
0.974414	1.493203
0.974512	1.516805
0.974609	1.537948
0.974707	1.528063
0.974805	1.525003
0.974902	1.547995
0.975000	1.550388
0.975098	1.534135
0.975195	1.530677
0.975293	1.521353
0.975391	1.508057
0.975488	1.494665
0.975586	1.469571
0.975684	1.535473
0.975781	1.596294
0.975879	1.605611
0.975977	1.632931
0.976074	1.616881
0.976172	1.611403
0.976270	1.598845
0.976367	1.585779
0.976465	1.559834

