LabVIEW Measurement	
Writer_Version	2
Reader_Version	2
Separator	Tab
Decimal_Separator	.
Multi_Headings	Yes
X_Columns	One
Time_Pref	Absolute
Operator	W-Tunnel
Date	1904/01/01
Time	01:00:00
***End_of_Header***	
	
Channels	1	
Samples	10000	
Date	2024/05/17	
Time	18:19:12.1969491562499104241	
Y_Unit_Label	Volts	
X_Dimension	Time	
X0	0.0000000000000000E+0	
Delta_X	9.765625E-5	
***End_of_Header***		
X_Value	Voltage	Comment
0.000000	1.633202
9.765625E-5	1.635288
0.000195	1.637311
0.000293	1.639053
0.000391	1.640520
0.000488	1.641253
0.000586	1.641143
0.000684	1.640118
0.000781	1.638232
0.000879	1.636209
0.000977	1.634175
0.001074	1.632521
0.001172	1.630789
0.001270	1.628663
0.001367	1.625759
0.001465	1.622891
0.001562	1.621344
0.001660	1.621285
0.001758	1.622210
0.001855	1.623506
0.001953	1.624867
0.002051	1.626475
0.002148	1.628220
0.002246	1.630197
0.002344	1.632392
0.002441	1.634678
0.002539	1.636988
0.002637	1.639158
0.002734	1.641003
0.002832	1.641938
0.002930	1.642133
0.003027	1.641347
0.003125	1.639598
0.003223	1.637053
0.003320	1.633894
0.003418	1.630688
0.003516	1.627698
0.003613	1.625254
0.003711	1.623380
0.003809	1.621904
0.003906	1.621053
0.004004	1.620585
0.004102	1.620692
0.004199	1.621138
0.004297	1.622033
0.004395	1.623261
0.004492	1.624646
0.004590	1.626395
0.004687	1.628165
0.004785	1.630130
0.004883	1.632036
0.004980	1.634063
0.005078	1.635994
0.005176	1.637916
0.005273	1.639315
0.005371	1.640262
0.005469	1.640242
0.005566	1.640168
0.005664	1.642101
0.005762	1.655974
0.005859	1.643697
0.005957	1.631032
0.006055	1.618725
0.006152	1.613923
0.006250	1.622959
0.006348	1.621440
0.006445	1.605719
0.006543	1.607425
0.006641	1.611446
0.006738	1.615829
0.006836	1.618468
0.006934	1.621345
0.007031	1.623680
0.007129	1.626364
0.007227	1.628599
0.007324	1.630907
0.007422	1.632995
0.007520	1.635073
0.007617	1.636674
0.007715	1.637901
0.007812	1.638175
0.007910	1.637610
0.008008	1.636623
0.008105	1.635484
0.008203	1.634404
0.008301	1.633231
0.008398	1.631952
0.008496	1.630449
0.008594	1.629020
0.008691	1.627510
0.008789	1.626186
0.008887	1.625207
0.008984	1.624528
0.009082	1.624502
0.009180	1.624928
0.009277	1.625882
0.009375	1.627524
0.009473	1.629451
0.009570	1.631648
0.009668	1.634091
0.009766	1.636610
0.009863	1.638977
0.009961	1.640916
0.010059	1.641951
0.010156	1.641905
0.010254	1.640528
0.010352	1.638040
0.010449	1.635155
0.010547	1.632195
0.010645	1.629280
0.010742	1.626675
0.010840	1.624709
0.010937	1.623331
0.011035	1.622282
0.011133	1.621788
0.011230	1.621589
0.011328	1.621966
0.011426	1.622623
0.011523	1.623703
0.011621	1.624926
0.011719	1.626517
0.011816	1.628120
0.011914	1.630190
0.012012	1.631981
0.012109	1.634175
0.012207	1.635851
0.012305	1.638044
0.012402	1.639353
0.012500	1.641337
0.012598	1.641341
0.012695	1.642872
0.012793	1.642647
0.012891	1.642221
0.012988	1.637554
0.013086	1.627286
0.013184	1.627527
0.013281	1.624494
0.013379	1.622811
0.013477	1.621299
0.013574	1.621592
0.013672	1.621714
0.013770	1.622740
0.013867	1.623574
0.013965	1.624956
0.014062	1.626137
0.014160	1.627654
0.014258	1.629062
0.014355	1.630728
0.014453	1.632270
0.014551	1.634187
0.014648	1.635884
0.014746	1.637787
0.014844	1.639293
0.014941	1.640693
0.015039	1.641147
0.015137	1.641679
0.015234	1.641771
0.015332	1.643617
0.015430	1.638985
0.015527	1.631249
0.015625	1.628419
0.015723	1.625786
0.015820	1.623560
0.015918	1.621980
0.016016	1.621293
0.016113	1.621108
0.016211	1.621783
0.016309	1.622683
0.016406	1.624044
0.016504	1.625639
0.016602	1.627473
0.016699	1.629471
0.016797	1.631614
0.016895	1.633583
0.016992	1.635710
0.017090	1.637538
0.017187	1.639415
0.017285	1.640741
0.017383	1.641652
0.017480	1.641780
0.017578	1.640903
0.017676	1.639235
0.017773	1.637067
0.017871	1.634224
0.017969	1.631280
0.018066	1.629162
0.018164	1.627558
0.018262	1.626206
0.018359	1.625071
0.018457	1.624039
0.018555	1.623069
0.018652	1.622986
0.018750	1.623574
0.018848	1.624878
0.018945	1.626561
0.019043	1.628637
0.019141	1.630667
0.019238	1.632602
0.019336	1.634175
0.019434	1.635202
0.019531	1.635767
0.019629	1.635770
0.019727	1.635444
0.019824	1.634849
0.019922	1.634013
0.020020	1.632929
0.020117	1.631483
0.020215	1.629995
0.020312	1.628777
0.020410	1.627675
0.020508	1.626890
0.020605	1.626343
0.020703	1.626050
0.020801	1.625995
0.020898	1.626295
0.020996	1.626993
0.021094	1.627989
0.021191	1.629244
0.021289	1.630811
0.021387	1.632403
0.021484	1.634236
0.021582	1.636048
0.021680	1.637673
0.021777	1.638936
0.021875	1.640032
0.021973	1.640662
0.022070	1.640181
0.022168	1.638816
0.022266	1.637158
0.022363	1.635425
0.022461	1.633357
0.022559	1.630562
0.022656	1.627611
0.022754	1.625142
0.022852	1.623445
0.022949	1.622486
0.023047	1.622129
0.023145	1.622181
0.023242	1.622853
0.023340	1.623824
0.023437	1.625146
0.023535	1.626867
0.023633	1.628478
0.023730	1.630579
0.023828	1.632620
0.023926	1.634960
0.024023	1.637113
0.024121	1.639396
0.024219	1.640888
0.024316	1.642152
0.024414	1.641759
0.024512	1.641354
0.024609	1.639948
0.024707	1.642582
0.024805	1.641359
0.024902	1.639464
0.025000	1.635896
0.025098	1.621301
0.025195	1.616509
0.025293	1.615511
0.025391	1.616454
0.025488	1.617102
0.025586	1.618986
0.025684	1.620496
0.025781	1.622629
0.025879	1.624211
0.025977	1.626348
0.026074	1.628136
0.026172	1.630419
0.026270	1.632213
0.026367	1.634523
0.026465	1.636199
0.026562	1.638451
0.026660	1.639901
0.026758	1.642723
0.026855	1.644036
0.026953	1.647812
0.027051	1.645821
0.027148	1.629316
0.027246	1.641781
0.027344	1.614269
0.027441	1.578722
0.027539	1.570226
0.027637	1.616537
0.027734	1.616997
0.027832	1.608316
0.027930	1.615801
0.028027	1.617461
0.028125	1.620929
0.028223	1.622265
0.028320	1.625000
0.028418	1.626630
0.028516	1.629323
0.028613	1.631254
0.028711	1.633817
0.028809	1.635736
0.028906	1.637939
0.029004	1.639304
0.029102	1.640276
0.029199	1.640315
0.029297	1.639705
0.029395	1.638122
0.029492	1.636048
0.029590	1.633863
0.029687	1.631660
0.029785	1.629127
0.029883	1.626558
0.029980	1.624310
0.030078	1.622738
0.030176	1.621802
0.030273	1.621414
0.030371	1.621576
0.030469	1.622390
0.030566	1.623556
0.030664	1.625168
0.030762	1.626972
0.030859	1.629059
0.030957	1.631309
0.031055	1.633628
0.031152	1.635960
0.031250	1.638097
0.031348	1.639874
0.031445	1.640777
0.031543	1.640856
0.031641	1.639916
0.031738	1.638150
0.031836	1.635833
0.031934	1.633393
0.032031	1.630977
0.032129	1.629115
0.032227	1.628004
0.032324	1.627178
0.032422	1.625398
0.032520	1.623101
0.032617	1.621562
0.032715	1.621336
0.032812	1.622134
0.032910	1.623256
0.033008	1.624881
0.033105	1.626411
0.033203	1.628327
0.033301	1.630158
0.033398	1.632111
0.033496	1.634318
0.033594	1.636170
0.033691	1.638202
0.033789	1.639784
0.033887	1.640752
0.033984	1.641142
0.034082	1.641037
0.034180	1.640577
0.034277	1.639598
0.034375	1.638599
0.034473	1.637474
0.034570	1.635784
0.034668	1.632276
0.034766	1.627743
0.034863	1.623469
0.034961	1.620560
0.035059	1.619220
0.035156	1.619139
0.035254	1.620003
0.035352	1.621384
0.035449	1.623327
0.035547	1.625403
0.035645	1.627751
0.035742	1.630292
0.035840	1.632945
0.035937	1.635672
0.036035	1.638310
0.036133	1.640673
0.036230	1.642408
0.036328	1.643510
0.036426	1.643960
0.036523	1.643413
0.036621	1.642066
0.036719	1.638983
0.036816	1.633000
0.036914	1.628486
0.037012	1.626267
0.037109	1.623837
0.037207	1.621799
0.037305	1.620535
0.037402	1.620246
0.037500	1.620545
0.037598	1.621308
0.037695	1.622370
0.037793	1.623804
0.037891	1.625285
0.037988	1.627034
0.038086	1.628863
0.038184	1.630571
0.038281	1.632497
0.038379	1.634202
0.038477	1.635858
0.038574	1.637376
0.038672	1.638714
0.038770	1.639694
0.038867	1.640168
0.038965	1.639754
0.039062	1.638531
0.039160	1.636432
0.039258	1.634263
0.039355	1.632527
0.039453	1.630934
0.039551	1.629569
0.039648	1.628653
0.039746	1.627928
0.039844	1.627441
0.039941	1.626849
0.040039	1.626583
0.040137	1.626802
0.040234	1.627431
0.040332	1.628605
0.040430	1.630071
0.040527	1.631844
0.040625	1.633605
0.040723	1.635422
0.040820	1.637195
0.040918	1.638650
0.041016	1.639699
0.041113	1.640369
0.041211	1.640782
0.041309	1.641211
0.041406	1.641618
0.041504	1.640553
0.041602	1.636604
0.041699	1.631284
0.041797	1.628286
0.041895	1.625102
0.041992	1.621629
0.042090	1.620253
0.042187	1.620542
0.042285	1.621326
0.042383	1.622412
0.042480	1.623682
0.042578	1.625234
0.042676	1.627076
0.042773	1.629144
0.042871	1.631306
0.042969	1.633713
0.043066	1.636337
0.043164	1.639046
0.043262	1.641505
0.043359	1.643598
0.043457	1.645095
0.043555	1.645857
0.043652	1.645095
0.043750	1.642044
0.043848	1.638480
0.043945	1.634315
0.044043	1.630021
0.044141	1.626438
0.044238	1.623590
0.044336	1.621814
0.044434	1.620621
0.044531	1.620274
0.044629	1.620213
0.044727	1.620657
0.044824	1.621538
0.044922	1.622843
0.045020	1.624445
0.045117	1.626388
0.045215	1.628544
0.045312	1.630833
0.045410	1.633262
0.045508	1.635661
0.045605	1.638108
0.045703	1.640386
0.045801	1.642380
0.045898	1.643604
0.045996	1.643587
0.046094	1.642291
0.046191	1.639590
0.046289	1.636529
0.046387	1.633175
0.046484	1.629928
0.046582	1.626738
0.046680	1.624219
0.046777	1.622443
0.046875	1.621332
0.046973	1.621037
0.047070	1.621226
0.047168	1.622431
0.047266	1.623760
0.047363	1.625601
0.047461	1.627611
0.047559	1.629787
0.047656	1.632012
0.047754	1.634296
0.047852	1.636341
0.047949	1.638127
0.048047	1.639287
0.048145	1.639876
0.048242	1.639881
0.048340	1.639191
0.048437	1.638120
0.048535	1.636068
0.048633	1.633642
0.048730	1.630825
0.048828	1.628183
0.048926	1.625930
0.049023	1.624195
0.049121	1.622982
0.049219	1.622372
0.049316	1.622512
0.049414	1.623187
0.049512	1.624209
0.049609	1.625537
0.049707	1.627164
0.049805	1.628934
0.049902	1.630764
0.050000	1.632856
0.050098	1.634925
0.050195	1.636960
0.050293	1.639037
0.050391	1.640670
0.050488	1.641884
0.050586	1.642508
0.050684	1.642263
0.050781	1.641400
0.050879	1.639951
0.050977	1.638197
0.051074	1.636085
0.051172	1.633629
0.051270	1.630929
0.051367	1.628368
0.051465	1.626229
0.051562	1.624660
0.051660	1.623831
0.051758	1.623608
0.051855	1.623817
0.051953	1.624594
0.052051	1.625487
0.052148	1.626722
0.052246	1.628292
0.052344	1.630030
0.052441	1.632033
0.052539	1.634208
0.052637	1.636403
0.052734	1.638551
0.052832	1.640476
0.052930	1.642228
0.053027	1.643491
0.053125	1.644065
0.053223	1.642988
0.053320	1.640758
0.053418	1.641548
0.053516	1.648929
0.053613	1.637225
0.053711	1.631804
0.053809	1.627473
0.053906	1.619765
0.054004	1.616902
0.054102	1.615970
0.054199	1.616732
0.054297	1.618322
0.054395	1.620109
0.054492	1.622054
0.054590	1.624089
0.054687	1.626367
0.054785	1.628178
0.054883	1.630603
0.054980	1.632417
0.055078	1.634857
0.055176	1.636100
0.055273	1.638337
0.055371	1.638532
0.055469	1.640032
0.055566	1.639604
0.055664	1.642650
0.055762	1.644528
0.055859	1.654900
0.055957	1.651300
0.056055	1.637455
0.056152	1.621498
0.056250	1.620604
0.056348	1.624083
0.056445	1.621109
0.056543	1.623921
0.056641	1.622927
0.056738	1.624444
0.056836	1.623871
0.056934	1.625550
0.057031	1.626408
0.057129	1.629000
0.057227	1.630748
0.057324	1.633589
0.057422	1.635600
0.057520	1.638114
0.057617	1.639781
0.057715	1.641200
0.057812	1.641478
0.057910	1.641379
0.058008	1.640055
0.058105	1.638713
0.058203	1.637374
0.058301	1.638118
0.058398	1.636906
0.058496	1.633585
0.058594	1.627832
0.058691	1.622411
0.058789	1.620714
0.058887	1.620178
0.058984	1.620898
0.059082	1.621744
0.059180	1.623334
0.059277	1.624967
0.059375	1.626969
0.059473	1.628963
0.059570	1.631115
0.059668	1.633314
0.059766	1.635481
0.059863	1.637550
0.059961	1.639470
0.060059	1.641175
0.060156	1.642589
0.060254	1.643609
0.060352	1.643961
0.060449	1.642437
0.060547	1.639483
0.060645	1.636921
0.060742	1.633629
0.060840	1.629961
0.060937	1.627702
0.061035	1.626118
0.061133	1.625229
0.061230	1.625096
0.061328	1.624274
0.061426	1.623159
0.061523	1.622695
0.061621	1.623293
0.061719	1.624450
0.061816	1.626045
0.061914	1.627910
0.062012	1.630057
0.062109	1.632456
0.062207	1.634868
0.062305	1.637480
0.062402	1.639836
0.062500	1.641792
0.062598	1.642662
0.062695	1.642645
0.062793	1.641428
0.062891	1.638969
0.062988	1.636023
0.063086	1.633338
0.063184	1.631336
0.063281	1.629859
0.063379	1.628843
0.063477	1.627677
0.063574	1.626641
0.063672	1.626103
0.063770	1.625222
0.063867	1.624483
0.063965	1.624450
0.064062	1.625154
0.064160	1.626359
0.064258	1.628195
0.064355	1.630112
0.064453	1.632190
0.064551	1.634132
0.064648	1.635979
0.064746	1.637302
0.064844	1.637998
0.064941	1.638204
0.065039	1.637710
0.065137	1.636920
0.065234	1.635657
0.065332	1.634183
0.065430	1.632350
0.065527	1.630339
0.065625	1.628493
0.065723	1.626750
0.065820	1.625463
0.065918	1.624602
0.066016	1.624498
0.066113	1.624731
0.066211	1.625524
0.066309	1.626459
0.066406	1.627893
0.066504	1.629397
0.066602	1.631206
0.066699	1.632906
0.066797	1.635283
0.066895	1.637206
0.066992	1.640073
0.067090	1.642338
0.067187	1.645422
0.067285	1.642955
0.067383	1.642429
0.067480	1.640153
0.067578	1.634109
0.067676	1.631303
0.067773	1.628231
0.067871	1.628200
0.067969	1.624850
0.068066	1.621321
0.068164	1.620030
0.068262	1.619757
0.068359	1.619970
0.068457	1.620858
0.068555	1.621937
0.068652	1.623712
0.068750	1.625460
0.068848	1.627659
0.068945	1.629825
0.069043	1.632077
0.069141	1.634516
0.069238	1.636971
0.069336	1.639405
0.069434	1.641570
0.069531	1.643299
0.069629	1.644422
0.069727	1.645013
0.069824	1.644907
0.069922	1.644873
0.070020	1.643088
0.070117	1.638494
0.070215	1.633590
0.070312	1.628578
0.070410	1.624855
0.070508	1.622683
0.070605	1.621526
0.070703	1.620600
0.070801	1.620469
0.070898	1.620953
0.070996	1.621763
0.071094	1.623049
0.071191	1.624920
0.071289	1.626776
0.071387	1.629106
0.071484	1.631389
0.071582	1.633902
0.071680	1.636342
0.071777	1.638677
0.071875	1.640694
0.071973	1.642406
0.072070	1.643030
0.072168	1.643228
0.072266	1.641689
0.072363	1.639960
0.072461	1.637901
0.072559	1.637726
0.072656	1.629216
0.072754	1.620722
0.072852	1.621105
0.072949	1.619627
0.073047	1.619142
0.073145	1.618566
0.073242	1.619181
0.073340	1.619857
0.073437	1.621413
0.073535	1.622948
0.073633	1.625182
0.073730	1.627253
0.073828	1.629497
0.073926	1.631975
0.074023	1.634251
0.074121	1.636350
0.074219	1.638066
0.074316	1.639179
0.074414	1.639523
0.074512	1.639171
0.074609	1.638113
0.074707	1.636689
0.074805	1.634745
0.074902	1.632713
0.075000	1.630346
0.075098	1.628112
0.075195	1.626173
0.075293	1.624808
0.075391	1.623992
0.075488	1.623543
0.075586	1.623535
0.075684	1.623826
0.075781	1.624610
0.075879	1.625567
0.075977	1.626790
0.076074	1.628124
0.076172	1.629772
0.076270	1.631418
0.076367	1.633175
0.076465	1.634939
0.076562	1.636660
0.076660	1.638584
0.076758	1.640466
0.076855	1.642313
0.076953	1.643448
0.077051	1.643059
0.077148	1.640826
0.077246	1.638083
0.077344	1.636547
0.077441	1.633803
0.077539	1.630890
0.077637	1.628086
0.077734	1.625470
0.077832	1.623624
0.077930	1.622302
0.078027	1.621624
0.078125	1.621870
0.078223	1.622832
0.078320	1.624211
0.078418	1.625952
0.078516	1.627943
0.078613	1.630041
0.078711	1.632190
0.078809	1.634451
0.078906	1.636501
0.079004	1.638474
0.079102	1.639946
0.079199	1.640891
0.079297	1.641106
0.079395	1.640588
0.079492	1.639254
0.079590	1.637148
0.079687	1.634684
0.079785	1.632018
0.079883	1.629568
0.079980	1.627475
0.080078	1.625784
0.080176	1.624548
0.080273	1.623843
0.080371	1.623555
0.080469	1.623783
0.080566	1.624338
0.080664	1.625488
0.080762	1.626886
0.080859	1.628454
0.080957	1.630391
0.081055	1.632401
0.081152	1.634678
0.081250	1.636978
0.081348	1.639169
0.081445	1.641165
0.081543	1.642770
0.081641	1.643334
0.081738	1.642953
0.081836	1.641104
0.081934	1.638538
0.082031	1.636001
0.082129	1.634636
0.082227	1.631292
0.082324	1.625994
0.082422	1.622518
0.082520	1.621343
0.082617	1.622359
0.082715	1.624203
0.082812	1.624809
0.082910	1.623343
0.083008	1.622154
0.083105	1.622278
0.083203	1.623797
0.083301	1.625942
0.083398	1.628589
0.083496	1.631170
0.083594	1.633773
0.083691	1.636139
0.083789	1.637922
0.083887	1.639052
0.083984	1.639500
0.084082	1.639108
0.084180	1.637967
0.084277	1.636469
0.084375	1.634468
0.084473	1.632341
0.084570	1.630531
0.084668	1.629052
0.084766	1.627707
0.084863	1.626386
0.084961	1.625282
0.085059	1.624562
0.085156	1.624051
0.085254	1.624101
0.085352	1.624571
0.085449	1.625422
0.085547	1.626708
0.085645	1.628220
0.085742	1.629976
0.085840	1.631876
0.085937	1.633851
0.086035	1.635882
0.086133	1.637720
0.086230	1.639136
0.086328	1.640174
0.086426	1.640387
0.086523	1.639888
0.086621	1.638490
0.086719	1.636467
0.086816	1.633881
0.086914	1.631084
0.087012	1.628681
0.087109	1.626919
0.087207	1.626833
0.087305	1.629015
0.087402	1.632183
0.087500	1.629819
0.087598	1.624490
0.087695	1.621606
0.087793	1.621332
0.087891	1.622299
0.087988	1.623835
0.088086	1.625732
0.088184	1.627956
0.088281	1.630260
0.088379	1.632715
0.088477	1.635465
0.088574	1.638260
0.088672	1.641110
0.088770	1.643613
0.088867	1.644918
0.088965	1.644323
0.089062	1.641891
0.089160	1.639198
0.089258	1.636051
0.089355	1.634520
0.089453	1.633383
0.089551	1.628983
0.089648	1.627090
0.089746	1.624805
0.089844	1.622580
0.089941	1.620742
0.090039	1.620037
0.090137	1.620150
0.090234	1.621067
0.090332	1.622577
0.090430	1.624392
0.090527	1.626575
0.090625	1.628834
0.090723	1.631168
0.090820	1.633534
0.090918	1.635784
0.091016	1.637725
0.091113	1.639285
0.091211	1.640470
0.091309	1.640783
0.091406	1.640174
0.091504	1.638394
0.091602	1.635296
0.091699	1.632001
0.091797	1.629196
0.091895	1.626830
0.091992	1.625091
0.092090	1.623998
0.092187	1.623323
0.092285	1.623156
0.092383	1.623316
0.092480	1.624015
0.092578	1.624986
0.092676	1.626303
0.092773	1.627881
0.092871	1.629633
0.092969	1.631617
0.093066	1.633635
0.093164	1.635623
0.093262	1.637407
0.093359	1.639068
0.093457	1.640294
0.093555	1.641286
0.093652	1.641944
0.093750	1.643090
0.093848	1.643210
0.093945	1.638056
0.094043	1.633062
0.094141	1.629004
0.094238	1.626293
0.094336	1.625217
0.094434	1.624577
0.094531	1.624278
0.094629	1.623582
0.094727	1.623295
0.094824	1.622974
0.094922	1.623508
0.095020	1.624180
0.095117	1.625451
0.095215	1.626829
0.095312	1.628729
0.095410	1.630361
0.095508	1.632507
0.095605	1.634076
0.095703	1.636389
0.095801	1.637793
0.095898	1.639753
0.095996	1.640369
0.096094	1.641170
0.096191	1.639135
0.096289	1.638347
0.096387	1.634503
0.096484	1.634177
0.096582	1.631186
0.096680	1.642690
0.096777	1.644383
0.096875	1.605301
0.096973	1.630233
0.097070	1.618611
0.097168	1.613174
0.097266	1.613967
0.097363	1.616897
0.097461	1.618281
0.097559	1.621363
0.097656	1.623750
0.097754	1.626824
0.097852	1.628941
0.097949	1.631544
0.098047	1.633512
0.098145	1.635592
0.098242	1.637116
0.098340	1.638579
0.098437	1.639439
0.098535	1.639816
0.098633	1.639252
0.098730	1.638183
0.098828	1.636444
0.098926	1.634376
0.099023	1.631829
0.099121	1.629588
0.099219	1.627577
0.099316	1.625978
0.099414	1.624815
0.099512	1.624139
0.099609	1.623832
0.099707	1.623925
0.099805	1.624530
0.099902	1.625509
0.100000	1.626699
0.100098	1.628212
0.100195	1.629844
0.100293	1.631608
0.100391	1.633216
0.100488	1.634698
0.100586	1.635995
0.100684	1.636945
0.100781	1.637702
0.100879	1.638042
0.100977	1.637956
0.101074	1.637680
0.101172	1.637438
0.101270	1.636749
0.101367	1.633717
0.101465	1.630581
0.101562	1.628805
0.101660	1.627334
0.101758	1.626328
0.101855	1.625615
0.101953	1.625443
0.102051	1.625661
0.102148	1.626248
0.102246	1.627051
0.102344	1.628118
0.102441	1.629474
0.102539	1.630949
0.102637	1.632597
0.102734	1.634421
0.102832	1.636210
0.102930	1.638199
0.103027	1.639897
0.103125	1.641746
0.103223	1.643572
0.103320	1.646232
0.103418	1.645058
0.103516	1.643085
0.103613	1.645292
0.103711	1.639088
0.103809	1.608823
0.103906	1.616958
0.104004	1.622569
0.104102	1.616722
0.104199	1.619114
0.104297	1.618477
0.104395	1.619338
0.104492	1.619631
0.104590	1.621595
0.104687	1.623083
0.104785	1.625335
0.104883	1.627204
0.104980	1.629603
0.105078	1.631569
0.105176	1.633862
0.105273	1.635729
0.105371	1.637617
0.105469	1.638977
0.105566	1.640060
0.105664	1.640626
0.105762	1.640727
0.105859	1.640070
0.105957	1.639069
0.106055	1.637699
0.106152	1.636682
0.106250	1.634479
0.106348	1.631887
0.106445	1.627776
0.106543	1.622465
0.106641	1.620330
0.106738	1.620347
0.106836	1.621522
0.106934	1.623071
0.107031	1.625028
0.107129	1.627189
0.107227	1.629471
0.107324	1.631517
0.107422	1.633277
0.107520	1.634741
0.107617	1.635683
0.107715	1.636098
0.107812	1.635949
0.107910	1.635348
0.108008	1.634016
0.108105	1.632259
0.108203	1.630213
0.108301	1.628367
0.108398	1.626799
0.108496	1.625618
0.108594	1.624674
0.108691	1.624113
0.108789	1.623965
0.108887	1.624133
0.108984	1.624729
0.109082	1.625578
0.109180	1.626734
0.109277	1.627981
0.109375	1.629654
0.109473	1.631450
0.109570	1.633255
0.109668	1.635227
0.109766	1.637269
0.109863	1.638997
0.109961	1.640508
0.110059	1.641185
0.110156	1.641067
0.110254	1.639905
0.110352	1.637878
0.110449	1.635495
0.110547	1.632976
0.110645	1.630709
0.110742	1.628663
0.110840	1.626932
0.110937	1.625471
0.111035	1.624474
0.111133	1.623899
0.111230	1.623899
0.111328	1.624195
0.111426	1.624867
0.111523	1.625956
0.111621	1.627237
0.111719	1.628789
0.111816	1.630463
0.111914	1.632268
0.112012	1.634249
0.112109	1.635973
0.112207	1.637571
0.112305	1.638751
0.112402	1.639400
0.112500	1.639656
0.112598	1.639346
0.112695	1.638786
0.112793	1.637956
0.112891	1.636674
0.112988	1.635112
0.113086	1.633102
0.113184	1.630903
0.113281	1.628962
0.113379	1.627585
0.113477	1.625598
0.113574	1.622292
0.113672	1.619269
0.113770	1.619352
0.113867	1.621182
0.113965	1.623269
0.114062	1.625277
0.114160	1.627327
0.114258	1.629296
0.114355	1.631412
0.114453	1.633530
0.114551	1.635736
0.114648	1.637933
0.114746	1.639969
0.114844	1.641984
0.114941	1.643592
0.115039	1.644863
0.115137	1.645805
0.115234	1.647025
0.115332	1.648694
0.115430	1.644429
0.115527	1.635196
0.115625	1.628946
0.115723	1.625959
0.115820	1.625463
0.115918	1.622633
0.116016	1.619034
0.116113	1.617314
0.116211	1.617338
0.116309	1.618192
0.116406	1.619616
0.116504	1.621452
0.116602	1.623502
0.116699	1.625738
0.116797	1.627880
0.116895	1.630001
0.116992	1.631803
0.117090	1.633573
0.117187	1.635221
0.117285	1.636469
0.117383	1.637433
0.117480	1.637930
0.117578	1.638061
0.117676	1.637746
0.117773	1.636757
0.117871	1.635367
0.117969	1.633537
0.118066	1.631555
0.118164	1.629979
0.118262	1.628782
0.118359	1.627962
0.118457	1.627612
0.118555	1.627244
0.118652	1.627215
0.118750	1.627150
0.118848	1.627436
0.118945	1.628264
0.119043	1.629375
0.119141	1.630945
0.119238	1.632685
0.119336	1.634517
0.119434	1.636489
0.119531	1.638521
0.119629	1.640489
0.119727	1.642445
0.119824	1.644426
0.119922	1.645809
0.120020	1.645319
0.120117	1.642954
0.120215	1.639329
0.120312	1.634922
0.120410	1.631080
0.120508	1.628414
0.120605	1.626007
0.120703	1.623768
0.120801	1.622222
0.120898	1.621448
0.120996	1.621555
0.121094	1.622475
0.121191	1.623556
0.121289	1.625317
0.121387	1.627162
0.121484	1.629285
0.121582	1.631586
0.121680	1.633991
0.121777	1.636609
0.121875	1.639085
0.121973	1.641279
0.122070	1.643024
0.122168	1.643803
0.122266	1.643938
0.122363	1.642963
0.122461	1.641614
0.122559	1.640171
0.122656	1.638637
0.122754	1.635121
0.122852	1.630545
0.122949	1.626695
0.123047	1.622193
0.123145	1.620251
0.123242	1.619717
0.123340	1.620004
0.123437	1.620582
0.123535	1.621593
0.123633	1.623071
0.123730	1.624933
0.123828	1.626941
0.123926	1.629299
0.124023	1.631608
0.124121	1.634099
0.124219	1.636666
0.124316	1.639277
0.124414	1.641915
0.124512	1.644614
0.124609	1.646947
0.124707	1.648182
0.124805	1.647798
0.124902	1.646030
0.125000	1.642527
0.125098	1.638075
0.125195	1.633866
0.125293	1.629554
0.125391	1.625069
0.125488	1.621350
0.125586	1.618953
0.125684	1.617624
0.125781	1.617371
0.125879	1.618026
0.125977	1.619381
0.126074	1.621111
0.126172	1.623179
0.126270	1.625448
0.126367	1.627620
0.126465	1.630003
0.126562	1.632314
0.126660	1.634622
0.126758	1.636748
0.126855	1.638681
0.126953	1.640251
0.127051	1.641426
0.127148	1.642385
0.127246	1.643071
0.127344	1.643203
0.127441	1.640323
0.127539	1.634090
0.127637	1.629444
0.127734	1.626991
0.127832	1.625280
0.127930	1.624094
0.128027	1.623490
0.128125	1.623411
0.128223	1.623692
0.128320	1.624526
0.128418	1.625559
0.128516	1.626873
0.128613	1.628372
0.128711	1.630087
0.128809	1.631828
0.128906	1.633881
0.129004	1.635747
0.129102	1.637645
0.129199	1.639432
0.129297	1.640844
0.129395	1.642063
0.129492	1.642568
0.129590	1.642673
0.129687	1.641864
0.129785	1.640318
0.129883	1.637860
0.129980	1.634710
0.130078	1.631368
0.130176	1.628156
0.130273	1.625572
0.130371	1.623816
0.130469	1.622651
0.130566	1.622358
0.130664	1.622553
0.130762	1.623219
0.130859	1.624324
0.130957	1.625869
0.131055	1.627537
0.131152	1.629527
0.131250	1.631707
0.131348	1.634110
0.131445	1.636533
0.131543	1.638770
0.131641	1.640504
0.131738	1.642021
0.131836	1.643224
0.131934	1.643483
0.132031	1.642726
0.132129	1.641179
0.132227	1.639049
0.132324	1.636617
0.132422	1.633389
0.132520	1.629162
0.132617	1.625406
0.132715	1.623123
0.132812	1.621758
0.132910	1.621287
0.133008	1.621254
0.133105	1.621746
0.133203	1.623041
0.133301	1.624791
0.133398	1.626985
0.133496	1.629437
0.133594	1.632208
0.133691	1.634924
0.133789	1.637487
0.133887	1.639699
0.133984	1.641184
0.134082	1.641685
0.134180	1.640835
0.134277	1.639138
0.134375	1.636807
0.134473	1.634415
0.134570	1.632100
0.134668	1.629991
0.134766	1.628286
0.134863	1.626814
0.134961	1.625459
0.135059	1.624528
0.135156	1.623880
0.135254	1.623613
0.135352	1.623768
0.135449	1.624373
0.135547	1.625241
0.135645	1.626533
0.135742	1.627991
0.135840	1.629795
0.135937	1.631728
0.136035	1.634074
0.136133	1.636481
0.136230	1.639187
0.136328	1.641970
0.136426	1.643687
0.136523	1.645433
0.136621	1.646843
0.136719	1.643685
0.136816	1.639915
0.136914	1.637550
0.137012	1.634470
0.137109	1.631649
0.137207	1.628961
0.137305	1.626180
0.137402	1.623552
0.137500	1.621129
0.137598	1.619637
0.137695	1.619313
0.137793	1.619834
0.137891	1.621016
0.137988	1.622553
0.138086	1.624315
0.138184	1.626274
0.138281	1.628158
0.138379	1.630044
0.138477	1.632064
0.138574	1.633795
0.138672	1.635456
0.138770	1.636823
0.138867	1.637905
0.138965	1.638587
0.139062	1.639104
0.139160	1.639090
0.139258	1.638571
0.139355	1.637336
0.139453	1.635440
0.139551	1.633264
0.139648	1.630980
0.139746	1.628849
0.139844	1.626908
0.139941	1.625597
0.140039	1.625099
0.140137	1.624915
0.140234	1.625216
0.140332	1.625884
0.140430	1.626870
0.140527	1.628235
0.140625	1.629908
0.140723	1.631819
0.140820	1.633841
0.140918	1.635980
0.141016	1.638214
0.141113	1.640254
0.141211	1.642000
0.141309	1.643132
0.141406	1.643261
0.141504	1.642233
0.141602	1.640192
0.141699	1.637726
0.141797	1.635804
0.141895	1.633923
0.141992	1.631826
0.142090	1.628619
0.142187	1.624998
0.142285	1.623017
0.142383	1.622416
0.142480	1.622423
0.142578	1.622799
0.142676	1.623557
0.142773	1.624698
0.142871	1.626144
0.142969	1.627702
0.143066	1.629568
0.143164	1.631581
0.143262	1.633743
0.143359	1.635938
0.143457	1.638157
0.143555	1.640269
0.143652	1.641994
0.143750	1.642943
0.143848	1.642955
0.143945	1.641803
0.144043	1.639949
0.144141	1.637418
0.144238	1.634592
0.144336	1.631631
0.144434	1.628511
0.144531	1.625924
0.144629	1.623787
0.144727	1.622366
0.144824	1.621807
0.144922	1.622070
0.145020	1.622926
0.145117	1.624156
0.145215	1.625831
0.145312	1.627629
0.145410	1.629621
0.145508	1.631793
0.145605	1.633874
0.145703	1.636066
0.145801	1.638049
0.145898	1.639536
0.145996	1.640819
0.146094	1.641860
0.146191	1.642969
0.146289	1.644144
0.146387	1.644086
0.146484	1.641645
0.146582	1.637169
0.146680	1.632388
0.146777	1.628081
0.146875	1.624159
0.146973	1.621345
0.147070	1.620162
0.147168	1.619960
0.147266	1.620125
0.147363	1.620846
0.147461	1.622018
0.147559	1.623651
0.147656	1.625664
0.147754	1.627874
0.147852	1.630315
0.147949	1.632757
0.148047	1.635240
0.148145	1.637511
0.148242	1.639363
0.148340	1.640691
0.148437	1.641563
0.148535	1.642037
0.148633	1.642672
0.148730	1.642967
0.148828	1.641881
0.148926	1.636877
0.149023	1.629800
0.149121	1.626195
0.149219	1.624042
0.149316	1.621810
0.149414	1.620796
0.149512	1.620722
0.149609	1.621063
0.149707	1.621741
0.149805	1.622836
0.149902	1.624224
0.150000	1.625759
0.150098	1.627533
0.150195	1.629541
0.150293	1.631536
0.150391	1.633551
0.150488	1.635569
0.150586	1.637245
0.150684	1.638764
0.150781	1.639935
0.150879	1.640758
0.150977	1.640769
0.151074	1.639134
0.151172	1.636009
0.151270	1.632476
0.151367	1.630180
0.151465	1.628812
0.151562	1.627597
0.151660	1.626288
0.151758	1.625024
0.151855	1.624174
0.151953	1.623811
0.152051	1.624043
0.152148	1.624709
0.152246	1.625790
0.152344	1.627113
0.152441	1.628753
0.152539	1.630510
0.152637	1.632511
0.152734	1.634572
0.152832	1.636943
0.152930	1.639449
0.153027	1.642185
0.153125	1.644478
0.153223	1.646266
0.153320	1.647363
0.153418	1.647481
0.153516	1.641594
0.153613	1.632413
0.153711	1.630069
0.153809	1.628593
0.153906	1.624433
0.154004	1.622702
0.154102	1.621089
0.154199	1.620884
0.154297	1.621415
0.154395	1.622101
0.154492	1.622815
0.154590	1.623724
0.154687	1.625066
0.154785	1.626761
0.154883	1.628696
0.154980	1.630850
0.155078	1.632923
0.155176	1.635016
0.155273	1.636883
0.155371	1.638363
0.155469	1.639179
0.155566	1.639384
0.155664	1.638805
0.155762	1.638056
0.155859	1.637143
0.155957	1.636111
0.156055	1.634971
0.156152	1.633425
0.156250	1.631380
0.156348	1.629147
0.156445	1.627275
0.156543	1.625587
0.156641	1.624651
0.156738	1.624219
0.156836	1.624472
0.156934	1.625039
0.157031	1.625997
0.157129	1.627343
0.157227	1.629089
0.157324	1.630797
0.157422	1.632802
0.157520	1.634571
0.157617	1.636406
0.157715	1.637684
0.157812	1.638676
0.157910	1.638783
0.158008	1.638635
0.158105	1.637299
0.158203	1.636745
0.158301	1.635544
0.158398	1.637464
0.158496	1.640886
0.158594	1.631517
0.158691	1.628411
0.158789	1.623809
0.158887	1.621993
0.158984	1.621315
0.159082	1.621831
0.159180	1.622465
0.159277	1.623353
0.159375	1.624407
0.159473	1.625794
0.159570	1.627423
0.159668	1.629136
0.159766	1.630792
0.159863	1.632765
0.159961	1.634440
0.160059	1.636232
0.160156	1.637797
0.160254	1.639044
0.160352	1.640159
0.160449	1.640895
0.160547	1.641027
0.160645	1.640210
0.160742	1.638784
0.160840	1.637138
0.160937	1.635575
0.161035	1.633986
0.161133	1.632298
0.161230	1.630296
0.161328	1.628360
0.161426	1.626758
0.161523	1.625628
0.161621	1.625221
0.161719	1.625265
0.161816	1.626043
0.161914	1.627077
0.162012	1.628485
0.162109	1.630097
0.162207	1.631981
0.162305	1.634186
0.162402	1.636381
0.162500	1.638722
0.162598	1.640901
0.162695	1.642656
0.162793	1.644028
0.162891	1.644782
0.162988	1.645774
0.163086	1.645552
0.163184	1.642883
0.163281	1.638549
0.163379	1.632854
0.163477	1.626441
0.163574	1.620973
0.163672	1.619481
0.163770	1.618743
0.163867	1.618897
0.163965	1.619555
0.164062	1.620654
0.164160	1.621822
0.164258	1.623527
0.164355	1.625261
0.164453	1.627123
0.164551	1.629075
0.164648	1.631183
0.164746	1.632998
0.164844	1.634823
0.164941	1.636322
0.165039	1.637637
0.165137	1.638639
0.165234	1.639450
0.165332	1.639865
0.165430	1.639961
0.165527	1.639214
0.165625	1.637921
0.165723	1.635597
0.165820	1.632320
0.165918	1.629029
0.166016	1.626257
0.166113	1.624135
0.166211	1.623091
0.166309	1.622680
0.166406	1.622853
0.166504	1.623272
0.166602	1.624309
0.166699	1.625410
0.166797	1.627062
0.166895	1.628668
0.166992	1.630711
0.167090	1.632363
0.167187	1.634781
0.167285	1.636254
0.167383	1.638443
0.167480	1.639286
0.167578	1.640655
0.167676	1.639930
0.167773	1.640918
0.167871	1.639525
0.167969	1.643300
0.168066	1.638886
0.168164	1.623831
0.168262	1.629682
0.168359	1.626910
0.168457	1.629036
0.168555	1.629680
0.168652	1.633385
0.168750	1.626007
0.168848	1.619741
0.168945	1.621103
0.169043	1.622765
0.169141	1.624925
0.169238	1.627237
0.169336	1.629351
0.169434	1.631598
0.169531	1.633623
0.169629	1.635440
0.169727	1.636998
0.169824	1.637988
0.169922	1.638551
0.170020	1.638578
0.170117	1.637929
0.170215	1.636889
0.170312	1.635424
0.170410	1.633496
0.170508	1.631418
0.170605	1.629439
0.170703	1.627655
0.170801	1.626190
0.170898	1.625249
0.170996	1.624548
0.171094	1.624354
0.171191	1.624795
0.171289	1.625299
0.171387	1.626501
0.171484	1.627691
0.171582	1.629436
0.171680	1.630950
0.171777	1.632927
0.171875	1.634643
0.171973	1.636858
0.172070	1.638338
0.172168	1.640414
0.172266	1.641429
0.172363	1.643334
0.172461	1.643456
0.172559	1.645768
0.172656	1.645793
0.172754	1.643704
0.172852	1.633827
0.172949	1.634490
0.173047	1.621017
0.173145	1.597293
0.173242	1.607897
0.173340	1.614923
0.173437	1.617922
0.173535	1.619062
0.173633	1.621086
0.173730	1.622643
0.173828	1.624891
0.173926	1.626846
0.174023	1.629366
0.174121	1.631555
0.174219	1.634081
0.174316	1.636447
0.174414	1.638728
0.174512	1.640629
0.174609	1.642411
0.174707	1.643797
0.174805	1.644881
0.174902	1.645888
0.175000	1.646219
0.175098	1.641996
0.175195	1.637434
0.175293	1.637787
0.175391	1.640760
0.175488	1.630768
0.175586	1.623754
0.175684	1.622901
0.175781	1.620467
0.175879	1.619945
0.175977	1.620060
0.176074	1.621255
0.176172	1.622510
0.176270	1.624357
0.176367	1.626277
0.176465	1.628424
0.176562	1.630492
0.176660	1.632794
0.176758	1.634928
0.176855	1.637141
0.176953	1.639033
0.177051	1.640667
0.177148	1.641932
0.177246	1.642413
0.177344	1.641675
0.177441	1.640158
0.177539	1.637743
0.177637	1.634470
0.177734	1.630094
0.177832	1.625981
0.177930	1.623538
0.178027	1.621679
0.178125	1.620785
0.178223	1.620382
0.178320	1.620768
0.178418	1.621846
0.178516	1.623327
0.178613	1.625180
0.178711	1.627108
0.178809	1.629423
0.178906	1.631662
0.179004	1.634119
0.179102	1.636722
0.179199	1.639259
0.179297	1.641419
0.179395	1.642803
0.179492	1.643025
0.179590	1.642579
0.179687	1.642469
0.179785	1.641622
0.179883	1.639810
0.179980	1.635442
0.180078	1.628702
0.180176	1.623210
0.180273	1.620062
0.180371	1.618399
0.180469	1.617919
0.180566	1.618016
0.180664	1.618819
0.180762	1.619953
0.180859	1.621470
0.180957	1.623156
0.181055	1.625025
0.181152	1.626915
0.181250	1.628869
0.181348	1.630929
0.181445	1.632981
0.181543	1.634901
0.181641	1.636620
0.181738	1.638191
0.181836	1.639283
0.181934	1.640051
0.182031	1.640018
0.182129	1.639288
0.182227	1.637699
0.182324	1.635526
0.182422	1.632851
0.182520	1.630152
0.182617	1.627644
0.182715	1.625703
0.182812	1.624196
0.182910	1.623379
0.183008	1.623173
0.183105	1.623366
0.183203	1.624064
0.183301	1.625248
0.183398	1.626568
0.183496	1.628109
0.183594	1.629790
0.183691	1.631680
0.183789	1.633628
0.183887	1.635465
0.183984	1.637334
0.184082	1.639000
0.184180	1.640168
0.184277	1.641013
0.184375	1.640947
0.184473	1.640226
0.184570	1.638542
0.184668	1.636193
0.184766	1.633653
0.184863	1.631358
0.184961	1.629336
0.185059	1.627314
0.185156	1.625539
0.185254	1.624413
0.185352	1.623927
0.185449	1.624096
0.185547	1.624618
0.185645	1.625590
0.185742	1.626849
0.185840	1.628350
0.185937	1.630129
0.186035	1.632034
0.186133	1.634077
0.186230	1.636200
0.186328	1.638183
0.186426	1.640304
0.186523	1.642140
0.186621	1.643305
0.186719	1.642447
0.186816	1.639820
0.186914	1.637546
0.187012	1.635691
0.187109	1.633458
0.187207	1.630862
0.187305	1.628239
0.187402	1.625838
0.187500	1.624048
0.187598	1.622849
0.187695	1.622402
0.187793	1.622446
0.187891	1.622980
0.187988	1.623967
0.188086	1.625177
0.188184	1.626672
0.188281	1.628253
0.188379	1.630088
0.188477	1.631986
0.188574	1.633865
0.188672	1.635863
0.188770	1.637574
0.188867	1.639341
0.188965	1.640797
0.189062	1.642066
0.189160	1.643064
0.189258	1.643709
0.189355	1.643410
0.189453	1.643119
0.189551	1.645190
0.189648	1.652600
0.189746	1.652863
0.189844	1.630795
0.189941	1.599396
0.190039	1.605232
0.190137	1.613375
0.190234	1.614888
0.190332	1.617432
0.190430	1.619053
0.190527	1.621338
0.190625	1.623364
0.190723	1.625823
0.190820	1.627959
0.190918	1.630384
0.191016	1.632521
0.191113	1.634666
0.191211	1.636424
0.191309	1.637786
0.191406	1.638513
0.191504	1.638584
0.191602	1.637973
0.191699	1.636912
0.191797	1.635614
0.191895	1.634222
0.191992	1.632525
0.192090	1.630195
0.192187	1.627436
0.192285	1.625128
0.192383	1.623322
0.192480	1.622318
0.192578	1.621885
0.192676	1.622177
0.192773	1.622976
0.192871	1.624407
0.192969	1.625879
0.193066	1.627849
0.193164	1.629858
0.193262	1.632149
0.193359	1.634482
0.193457	1.637180
0.193555	1.639946
0.193652	1.643262
0.193750	1.647150
0.193848	1.652091
0.193945	1.653676
0.194043	1.647948
0.194141	1.636557
0.194238	1.633795
0.194336	1.633504
0.194434	1.628375
0.194531	1.622655
0.194629	1.618054
0.194727	1.616072
0.194824	1.615504
0.194922	1.616072
0.195020	1.617325
0.195117	1.619193
0.195215	1.621370
0.195312	1.623671
0.195410	1.626149
0.195508	1.628538
0.195605	1.631026
0.195703	1.633468
0.195801	1.635865
0.195898	1.638213
0.195996	1.640152
0.196094	1.641489
0.196191	1.642109
0.196289	1.641889
0.196387	1.641134
0.196484	1.639442
0.196582	1.637407
0.196680	1.634914
0.196777	1.632560
0.196875	1.630294
0.196973	1.628023
0.197070	1.625951
0.197168	1.624555
0.197266	1.623476
0.197363	1.622725
0.197461	1.622666
0.197559	1.623197
0.197656	1.624308
0.197754	1.625734
0.197852	1.627519
0.197949	1.629481
0.198047	1.631781
0.198145	1.634158
0.198242	1.636873
0.198340	1.639868
0.198437	1.643240
0.198535	1.646634
0.198633	1.649184
0.198730	1.650621
0.198828	1.650151
0.198926	1.647911
0.199023	1.644867
0.199121	1.639536
0.199219	1.632622
0.199316	1.626419
0.199414	1.622212
0.199512	1.619735
0.199609	1.618289
0.199707	1.617808
0.199805	1.617930
0.199902	1.618561
0.200000	1.619579
0.200098	1.620952
0.200195	1.622570
0.200293	1.624535
0.200391	1.626639
0.200488	1.628911
0.200586	1.631323
0.200684	1.633762
0.200781	1.636088
0.200879	1.638325
0.200977	1.640199
0.201074	1.641523
0.201172	1.642367
0.201270	1.642774
0.201367	1.642834
0.201465	1.641857
0.201562	1.639953
0.201660	1.637443
0.201758	1.634412
0.201855	1.630689
0.201953	1.626691
0.202051	1.623388
0.202148	1.621581
0.202246	1.620804
0.202344	1.620866
0.202441	1.621603
0.202539	1.622852
0.202637	1.624385
0.202734	1.626093
0.202832	1.627862
0.202930	1.629718
0.203027	1.631452
0.203125	1.633137
0.203223	1.634640
0.203320	1.635971
0.203418	1.637018
0.203516	1.637682
0.203613	1.637929
0.203711	1.637521
0.203809	1.636610
0.203906	1.635123
0.204004	1.633206
0.204102	1.631251
0.204199	1.629457
0.204297	1.627989
0.204395	1.626958
0.204492	1.626407
0.204590	1.626304
0.204687	1.626621
0.204785	1.627317
0.204883	1.628252
0.204980	1.629487
0.205078	1.631074
0.205176	1.632673
0.205273	1.634629
0.205371	1.636635
0.205469	1.638721
0.205566	1.640674
0.205664	1.642360
0.205762	1.643337
0.205859	1.642909
0.205957	1.640924
0.206055	1.638032
0.206152	1.634826
0.206250	1.631555
0.206348	1.628869
0.206445	1.626592
0.206543	1.625081
0.206641	1.624039
0.206738	1.623606
0.206836	1.623611
0.206934	1.624160
0.207031	1.624829
0.207129	1.626165
0.207227	1.627351
0.207324	1.629159
0.207422	1.630778
0.207520	1.633100
0.207617	1.634969
0.207715	1.637774
0.207812	1.639624
0.207910	1.642333
0.208008	1.643308
0.208105	1.645368
0.208203	1.645483
0.208301	1.653134
0.208398	1.647642
0.208496	1.627447
0.208594	1.637234
0.208691	1.634335
0.208789	1.631282
0.208887	1.626111
0.208984	1.623111
0.209082	1.619799
0.209180	1.618407
0.209277	1.617474
0.209375	1.618497
0.209473	1.619522
0.209570	1.621703
0.209668	1.623522
0.209766	1.626205
0.209863	1.628220
0.209961	1.631235
0.210059	1.633156
0.210156	1.636173
0.210254	1.637745
0.210352	1.640854
0.210449	1.642333
0.210547	1.646880
0.210645	1.651658
0.210742	1.664253
0.210840	1.639480
0.210937	1.630351
0.211035	1.632547
0.211133	1.622596
0.211230	1.619566
0.211328	1.611072
0.211426	1.611317
0.211523	1.611808
0.211621	1.614553
0.211719	1.616003
0.211816	1.618849
0.211914	1.620721
0.212012	1.623535
0.212109	1.625557
0.212207	1.628125
0.212305	1.630224
0.212402	1.632618
0.212500	1.634620
0.212598	1.636889
0.212695	1.638620
0.212793	1.640376
0.212891	1.641516
0.212988	1.642151
0.213086	1.642421
0.213184	1.642210
0.213281	1.641086
0.213379	1.639012
0.213477	1.635520
0.213574	1.630863
0.213672	1.626257
0.213770	1.623107
0.213867	1.621749
0.213965	1.621555
0.214062	1.621819
0.214160	1.622486
0.214258	1.623610
0.214355	1.624930
0.214453	1.626511
0.214551	1.628219
0.214648	1.630139
0.214746	1.632051
0.214844	1.634072
0.214941	1.636046
0.215039	1.638114
0.215137	1.640013
0.215234	1.641880
0.215332	1.642979
0.215430	1.643174
0.215527	1.643233
0.215625	1.641759
0.215723	1.638166
0.215820	1.632383
0.215918	1.627547
0.216016	1.625859
0.216113	1.625259
0.216211	1.625258
0.216309	1.625185
0.216406	1.625471
0.216504	1.625803
0.216602	1.626456
0.216699	1.627388
0.216797	1.628472
0.216895	1.630147
0.216992	1.631890
0.217090	1.634056
0.217187	1.636452
0.217285	1.638803
0.217383	1.641101
0.217480	1.643066
0.217578	1.643788
0.217676	1.643514
0.217773	1.643546
0.217871	1.643758
0.217969	1.641034
0.218066	1.635356
0.218164	1.629056
0.218262	1.624336
0.218359	1.621876
0.218457	1.620532
0.218555	1.619813
0.218652	1.619768
0.218750	1.620138
0.218848	1.620995
0.218945	1.622289
0.219043	1.623819
0.219141	1.625601
0.219238	1.627492
0.219336	1.629517
0.219434	1.631577
0.219531	1.633709
0.219629	1.635830
0.219727	1.637766
0.219824	1.639522
0.219922	1.640913
0.220020	1.641821
0.220117	1.642060
0.220215	1.641746
0.220312	1.640511
0.220410	1.638602
0.220508	1.636149
0.220605	1.635641
0.220703	1.634440
0.220801	1.629366
0.220898	1.623137
0.220996	1.618896
0.221094	1.619158
0.221191	1.619889
0.221289	1.620781
0.221387	1.621696
0.221484	1.623113
0.221582	1.624639
0.221680	1.626486
0.221777	1.628376
0.221875	1.630375
0.221973	1.632311
0.222070	1.634196
0.222168	1.635874
0.222266	1.637413
0.222363	1.638581
0.222461	1.639563
0.222559	1.640253
0.222656	1.640377
0.222754	1.639655
0.222852	1.638178
0.222949	1.635711
0.223047	1.633006
0.223145	1.630614
0.223242	1.628466
0.223340	1.626922
0.223437	1.625889
0.223535	1.625183
0.223633	1.625111
0.223730	1.625333
0.223828	1.625958
0.223926	1.626942
0.224023	1.628197
0.224121	1.629595
0.224219	1.631202
0.224316	1.633083
0.224414	1.635004
0.224512	1.636837
0.224609	1.638487
0.224707	1.639518
0.224805	1.640405
0.224902	1.641175
0.225000	1.641736
0.225098	1.641388
0.225195	1.638398
0.225293	1.635364
0.225391	1.632344
0.225488	1.628704
0.225586	1.625601
0.225684	1.623570
0.225781	1.622644
0.225879	1.622435
0.225977	1.622838
0.226074	1.623694
0.226172	1.624998
0.226270	1.626537
0.226367	1.628344
0.226465	1.630318
0.226562	1.632351
0.226660	1.634543
0.226758	1.636685
0.226855	1.638534
0.226953	1.639583
0.227051	1.639919
0.227148	1.639772
0.227246	1.639021
0.227344	1.638044
0.227441	1.636447
0.227539	1.633950
0.227637	1.630108
0.227734	1.626939
0.227832	1.625498
0.227930	1.624570
0.228027	1.624011
0.228125	1.623671
0.228223	1.623742
0.228320	1.624111
0.228418	1.624924
0.228516	1.625974
0.228613	1.627366
0.228711	1.629039
0.228809	1.630831
0.228906	1.632992
0.229004	1.635154
0.229102	1.637745
0.229199	1.640188
0.229297	1.642818
0.229395	1.645100
0.229492	1.646776
0.229590	1.647385
0.229687	1.646661
0.229785	1.645325
0.229883	1.643623
0.229980	1.637815
0.230078	1.632821
0.230176	1.629848
0.230273	1.625833
0.230371	1.622655
0.230469	1.620257
0.230566	1.619082
0.230664	1.618708
0.230762	1.619200
0.230859	1.620224
0.230957	1.621728
0.231055	1.623410
0.231152	1.625334
0.231250	1.627440
0.231348	1.629713
0.231445	1.631833
0.231543	1.634131
0.231641	1.636409
0.231738	1.638560
0.231836	1.640481
0.231934	1.641903
0.232031	1.641771
0.232129	1.640140
0.232227	1.637398
0.232324	1.634572
0.232422	1.632309
0.232520	1.630386
0.232617	1.627331
0.232715	1.624413
0.232812	1.622780
0.232910	1.622179
0.233008	1.621971
0.233105	1.622173
0.233203	1.622909
0.233301	1.623901
0.233398	1.625225
0.233496	1.626830
0.233594	1.628623
0.233691	1.630621
0.233789	1.632673
0.233887	1.634877
0.233984	1.637305
0.234082	1.639902
0.234180	1.642544
0.234277	1.645045
0.234375	1.647127
0.234473	1.649016
0.234570	1.650234
0.234668	1.647846
0.234766	1.642878
0.234863	1.636920
0.234961	1.630201
0.235059	1.624554
0.235156	1.621177
0.235254	1.619284
0.235352	1.618480
0.235449	1.618306
0.235547	1.618785
0.235645	1.619821
0.235742	1.621254
0.235840	1.623017
0.235937	1.625135
0.236035	1.627361
0.236133	1.629826
0.236230	1.632306
0.236328	1.634589
0.236426	1.636796
0.236523	1.638576
0.236621	1.639729
0.236719	1.640039
0.236816	1.639300
0.236914	1.637959
0.237012	1.636051
0.237109	1.633629
0.237207	1.631073
0.237305	1.627704
0.237402	1.624826
0.237500	1.622796
0.237598	1.621642
0.237695	1.621178
0.237793	1.621343
0.237891	1.622044
0.237988	1.623082
0.238086	1.624350
0.238184	1.625887
0.238281	1.627573
0.238379	1.629393
0.238477	1.631306
0.238574	1.633535
0.238672	1.635716
0.238770	1.638073
0.238867	1.640287
0.238965	1.642562
0.239062	1.644417
0.239160	1.645577
0.239258	1.645326
0.239355	1.643709
0.239453	1.640778
0.239551	1.636782
0.239648	1.632363
0.239746	1.628082
0.239844	1.624908
0.239941	1.622816
0.240039	1.622028
0.240137	1.621748
0.240234	1.622068
0.240332	1.622555
0.240430	1.623362
0.240527	1.624173
0.240625	1.625386
0.240723	1.626766
0.240820	1.628668
0.240918	1.630526
0.241016	1.633343
0.241113	1.635865
0.241211	1.638953
0.241309	1.640731
0.241406	1.642742
0.241504	1.643633
0.241602	1.644993
0.241699	1.642979
0.241797	1.641540
0.241895	1.637997
0.241992	1.644352
0.242090	1.638570
0.242187	1.637191
0.242285	1.630334
0.242383	1.615990
0.242480	1.614329
0.242578	1.613274
0.242676	1.615745
0.242773	1.616797
0.242871	1.619572
0.242969	1.621216
0.243066	1.623868
0.243164	1.626005
0.243262	1.628707
0.243359	1.631068
0.243457	1.633894
0.243555	1.636377
0.243652	1.639055
0.243750	1.641191
0.243848	1.642871
0.243945	1.643636
0.244043	1.643514
0.244141	1.641781
0.244238	1.637875
0.244336	1.633909
0.244434	1.631526
0.244531	1.628371
0.244629	1.625030
0.244727	1.622339
0.244824	1.620692
0.244922	1.619879
0.245020	1.619921
0.245117	1.620534
0.245215	1.621543
0.245312	1.622902
0.245410	1.624596
0.245508	1.626380
0.245605	1.628517
0.245703	1.630816
0.245801	1.633274
0.245898	1.635753
0.245996	1.638405
0.246094	1.640752
0.246191	1.642700
0.246289	1.643700
0.246387	1.644042
0.246484	1.643374
0.246582	1.641678
0.246680	1.638795
0.246777	1.635216
0.246875	1.631403
0.246973	1.627675
0.247070	1.624552
0.247168	1.622598
0.247266	1.621274
0.247363	1.620973
0.247461	1.621110
0.247559	1.621971
0.247656	1.623037
0.247754	1.624525
0.247852	1.626190
0.247949	1.628210
0.248047	1.630180
0.248145	1.632538
0.248242	1.634640
0.248340	1.637013
0.248437	1.638866
0.248535	1.640810
0.248633	1.641651
0.248730	1.642291
0.248828	1.641476
0.248926	1.641699
0.249023	1.641576
0.249121	1.642840
0.249219	1.634452
0.249316	1.626781
0.249414	1.628408
0.249512	1.626935
0.249609	1.623947
0.249707	1.620755
0.249805	1.619495
0.249902	1.618760
0.250000	1.619666
0.250098	1.620828
0.250195	1.622739
0.250293	1.624703
0.250391	1.627022
0.250488	1.629157
0.250586	1.631559
0.250684	1.633716
0.250781	1.635889
0.250879	1.637567
0.250977	1.638936
0.251074	1.639875
0.251172	1.640224
0.251270	1.640223
0.251367	1.639828
0.251465	1.639167
0.251562	1.637856
0.251660	1.635771
0.251758	1.633107
0.251855	1.630251
0.251953	1.627536
0.252051	1.625903
0.252148	1.624765
0.252246	1.624498
0.252344	1.624245
0.252441	1.624567
0.252539	1.624934
0.252637	1.626050
0.252734	1.627119
0.252832	1.629026
0.252930	1.630501
0.253027	1.632752
0.253125	1.634323
0.253223	1.637065
0.253320	1.638443
0.253418	1.641685
0.253516	1.644664
0.253613	1.656130
0.253711	1.642156
0.253809	1.629534
0.253906	1.633152
0.254004	1.627956
0.254102	1.627670
0.254199	1.625772
0.254297	1.625896
0.254395	1.624289
0.254492	1.624252
0.254590	1.623597
0.254687	1.624390
0.254785	1.624988
0.254883	1.626478
0.254980	1.627769
0.255078	1.629952
0.255176	1.631929
0.255273	1.634514
0.255371	1.636906
0.255469	1.639590
0.255566	1.641950
0.255664	1.644076
0.255762	1.645631
0.255859	1.646570
0.255957	1.644581
0.256055	1.638151
0.256152	1.633783
0.256250	1.629791
0.256348	1.626737
0.256445	1.623999
0.256543	1.621465
0.256641	1.619844
0.256738	1.618965
0.256836	1.619020
0.256934	1.619586
0.257031	1.620826
0.257129	1.622433
0.257227	1.624238
0.257324	1.626193
0.257422	1.628208
0.257520	1.630293
0.257617	1.632438
0.257715	1.634435
0.257812	1.636381
0.257910	1.638263
0.258008	1.639905
0.258105	1.641146
0.258203	1.641932
0.258301	1.642000
0.258398	1.641367
0.258496	1.639911
0.258594	1.637581
0.258691	1.634442
0.258789	1.630635
0.258887	1.626830
0.258984	1.623554
0.259082	1.621404
0.259180	1.620199
0.259277	1.620019
0.259375	1.620515
0.259473	1.621586
0.259570	1.622991
0.259668	1.624723
0.259766	1.626556
0.259863	1.628521
0.259961	1.630641
0.260059	1.632743
0.260156	1.634849
0.260254	1.636749
0.260352	1.638404
0.260449	1.639690
0.260547	1.640514
0.260645	1.640733
0.260742	1.640558
0.260840	1.639888
0.260937	1.638636
0.261035	1.637074
0.261133	1.635118
0.261230	1.632382
0.261328	1.629308
0.261426	1.626809
0.261523	1.624944
0.261621	1.623998
0.261719	1.623809
0.261816	1.624151
0.261914	1.624919
0.262012	1.626124
0.262109	1.627679
0.262207	1.629428
0.262305	1.631350
0.262402	1.633405
0.262500	1.635433
0.262598	1.637350
0.262695	1.638999
0.262793	1.640154
0.262891	1.640762
0.262988	1.640837
0.263086	1.640323
0.263184	1.638756
0.263281	1.635863
0.263379	1.632219
0.263477	1.628582
0.263574	1.625617
0.263672	1.623433
0.263770	1.622165
0.263867	1.621368
0.263965	1.621371
0.264062	1.621677
0.264160	1.622498
0.264258	1.623684
0.264355	1.625234
0.264453	1.626824
0.264551	1.628768
0.264648	1.630811
0.264746	1.633142
0.264844	1.635326
0.264941	1.637848
0.265039	1.640110
0.265137	1.642815
0.265234	1.645144
0.265332	1.651121
0.265430	1.651466
0.265527	1.640025
0.265625	1.639517
0.265723	1.634892
0.265820	1.630705
0.265918	1.630963
0.266016	1.628947
0.266113	1.624228
0.266211	1.620211
0.266309	1.618457
0.266406	1.618079
0.266504	1.618720
0.266602	1.619977
0.266699	1.621601
0.266797	1.623683
0.266895	1.625683
0.266992	1.627872
0.267090	1.630215
0.267187	1.632803
0.267285	1.635419
0.267383	1.638305
0.267480	1.641070
0.267578	1.643866
0.267676	1.645571
0.267773	1.646018
0.267871	1.642142
0.267969	1.634772
0.268066	1.629954
0.268164	1.626489
0.268262	1.624549
0.268359	1.623139
0.268457	1.622228
0.268555	1.621708
0.268652	1.621644
0.268750	1.621902
0.268848	1.622549
0.268945	1.623399
0.269043	1.624537
0.269141	1.625891
0.269238	1.627325
0.269336	1.629026
0.269434	1.631001
0.269531	1.632990
0.269629	1.635022
0.269727	1.637186
0.269824	1.639192
0.269922	1.641095
0.270020	1.642658
0.270117	1.644075
0.270215	1.645267
0.270312	1.646200
0.270410	1.646208
0.270508	1.641754
0.270605	1.635653
0.270703	1.631716
0.270801	1.627270
0.270898	1.623521
0.270996	1.621042
0.271094	1.620060
0.271191	1.620003
0.271289	1.620601
0.271387	1.621525
0.271484	1.622804
0.271582	1.624346
0.271680	1.626163
0.271777	1.628144
0.271875	1.630326
0.271973	1.632767
0.272070	1.635173
0.272168	1.637857
0.272266	1.640422
0.272363	1.642383
0.272461	1.642856
0.272559	1.641261
0.272656	1.638957
0.272754	1.636350
0.272852	1.633541
0.272949	1.630434
0.273047	1.627571
0.273145	1.625216
0.273242	1.623308
0.273340	1.621960
0.273437	1.621161
0.273535	1.620892
0.273633	1.621177
0.273730	1.621949
0.273828	1.623090
0.273926	1.624546
0.274023	1.626196
0.274121	1.628003
0.274219	1.629976
0.274316	1.632057
0.274414	1.634107
0.274512	1.636160
0.274609	1.637856
0.274707	1.639121
0.274805	1.639515
0.274902	1.638553
0.275000	1.636768
0.275098	1.634761
0.275195	1.632787
0.275293	1.631174
0.275391	1.629626
0.275488	1.628163
0.275586	1.626832
0.275684	1.625756
0.275781	1.625153
0.275879	1.624951
0.275977	1.625115
0.276074	1.625632
0.276172	1.626352
0.276270	1.627312
0.276367	1.628469
0.276465	1.629900
0.276562	1.631412
0.276660	1.633248
0.276758	1.635072
0.276855	1.636865
0.276953	1.638255
0.277051	1.639326
0.277148	1.640254
0.277246	1.640814
0.277344	1.640681
0.277441	1.639423
0.277539	1.637623
0.277637	1.635271
0.277734	1.632896
0.277832	1.630741
0.277930	1.628931
0.278027	1.627486
0.278125	1.626501
0.278223	1.625741
0.278320	1.625292
0.278418	1.625034
0.278516	1.625069
0.278613	1.625468
0.278711	1.626418
0.278809	1.627762
0.278906	1.629585
0.279004	1.631866
0.279102	1.634354
0.279199	1.637216
0.279297	1.640351
0.279395	1.643481
0.279492	1.646387
0.279590	1.648392
0.279687	1.649009
0.279785	1.647405
0.279883	1.643053
0.279980	1.638501
0.280078	1.635243
0.280176	1.630122
0.280273	1.625210
0.280371	1.624623
0.280469	1.630553
0.280566	1.639541
0.280664	1.637720
0.280762	1.631668
0.280859	1.630657
0.280957	1.624659
0.281055	1.619089
0.281152	1.617659
0.281250	1.618688
0.281348	1.620888
0.281445	1.623662
0.281543	1.626605
0.281641	1.629487
0.281738	1.632299
0.281836	1.634828
0.281934	1.637062
0.282031	1.639065
0.282129	1.640411
0.282227	1.641141
0.282324	1.640866
0.282422	1.639775
0.282520	1.637687
0.282617	1.635198
0.282715	1.631979
0.282812	1.628981
0.282910	1.626667
0.283008	1.624788
0.283105	1.623211
0.283203	1.622279
0.283301	1.622021
0.283398	1.622399
0.283496	1.623236
0.283594	1.624630
0.283691	1.626328
0.283789	1.628245
0.283887	1.630177
0.283984	1.632171
0.284082	1.634282
0.284180	1.636406
0.284277	1.638307
0.284375	1.639944
0.284473	1.640962
0.284570	1.641199
0.284668	1.640722
0.284766	1.639564
0.284863	1.637533
0.284961	1.634280
0.285059	1.630846
0.285156	1.627951
0.285254	1.625676
0.285352	1.624086
0.285449	1.622945
0.285547	1.622433
0.285645	1.622237
0.285742	1.622658
0.285840	1.623665
0.285937	1.624938
0.286035	1.626667
0.286133	1.628586
0.286230	1.630601
0.286328	1.632866
0.286426	1.635101
0.286523	1.637275
0.286621	1.639088
0.286719	1.640414
0.286816	1.641042
0.286914	1.640824
0.287012	1.639913
0.287109	1.638682
0.287207	1.636910
0.287305	1.634949
0.287402	1.632954
0.287500	1.630783
0.287598	1.628940
0.287695	1.627273
0.287793	1.625980
0.287891	1.624903
0.287988	1.624276
0.288086	1.624300
0.288184	1.624693
0.288281	1.625442
0.288379	1.626479
0.288477	1.627919
0.288574	1.629403
0.288672	1.631016
0.288770	1.632680
0.288867	1.634304
0.288965	1.635816
0.289062	1.637086
0.289160	1.638300
0.289258	1.639220
0.289355	1.640115
0.289453	1.640840
0.289551	1.641311
0.289648	1.640885
0.289746	1.639674
0.289844	1.634842
0.289941	1.630626
0.290039	1.628585
0.290137	1.626277
0.290234	1.624692
0.290332	1.623385
0.290430	1.622734
0.290527	1.622480
0.290625	1.623046
0.290723	1.623837
0.290820	1.625407
0.290918	1.627030
0.291016	1.629129
0.291113	1.631236
0.291211	1.633699
0.291309	1.636082
0.291406	1.639113
0.291504	1.641894
0.291602	1.645381
0.291699	1.646912
0.291797	1.650889
0.291895	1.650309
0.291992	1.634109
0.292090	1.631406
0.292187	1.630266
0.292285	1.628479
0.292383	1.626880
0.292480	1.625452
0.292578	1.624184
0.292676	1.623440
0.292773	1.623226
0.292871	1.623586
0.292969	1.624322
0.293066	1.625465
0.293164	1.626773
0.293262	1.628390
0.293359	1.630115
0.293457	1.632015
0.293555	1.633822
0.293652	1.635767
0.293750	1.637514
0.293848	1.639245
0.293945	1.640563
0.294043	1.641301
0.294141	1.641593
0.294238	1.641150
0.294336	1.640381
0.294434	1.639180
0.294531	1.637270
0.294629	1.634602
0.294727	1.631794
0.294824	1.629280
0.294922	1.626296
0.295020	1.623882
0.295117	1.622731
0.295215	1.622608
0.295312	1.622913
0.295410	1.623587
0.295508	1.624627
0.295605	1.626028
0.295703	1.627604
0.295801	1.629380
0.295898	1.631314
0.295996	1.633338
0.296094	1.635241
0.296191	1.637125
0.296289	1.638798
0.296387	1.640110
0.296484	1.640663
0.296582	1.640420
0.296680	1.639127
0.296777	1.637005
0.296875	1.634725
0.296973	1.632075
0.297070	1.630018
0.297168	1.628873
0.297266	1.626591
0.297363	1.624105
0.297461	1.623128
0.297559	1.622690
0.297656	1.622531
0.297754	1.623093
0.297852	1.624183
0.297949	1.625925
0.298047	1.627686
0.298145	1.629942
0.298242	1.631843
0.298340	1.634094
0.298437	1.635898
0.298535	1.638027
0.298633	1.639088
0.298730	1.640583
0.298828	1.640474
0.298926	1.641213
0.299023	1.639692
0.299121	1.639716
0.299219	1.637079
0.299316	1.644975
0.299414	1.640442
0.299512	1.630365
0.299609	1.626733
0.299707	1.622265
0.299805	1.619206
0.299902	1.617252
0.300000	1.618530
0.300098	1.618967
0.300195	1.621174
0.300293	1.622705
0.300391	1.625053
0.300488	1.627029
0.300586	1.629412
0.300684	1.631482
0.300781	1.633850
0.300879	1.635653
0.300977	1.637505
0.301074	1.638465
0.301172	1.638958
0.301270	1.638463
0.301367	1.637162
0.301465	1.635173
0.301562	1.633134
0.301660	1.630921
0.301758	1.629151
0.301855	1.627522
0.301953	1.626279
0.302051	1.625321
0.302148	1.624629
0.302246	1.624050
0.302344	1.623876
0.302441	1.624126
0.302539	1.624705
0.302637	1.625722
0.302734	1.627077
0.302832	1.628735
0.302930	1.630633
0.303027	1.632876
0.303125	1.635157
0.303223	1.637509
0.303320	1.639521
0.303418	1.640894
0.303516	1.641286
0.303613	1.640976
0.303711	1.640753
0.303809	1.640056
0.303906	1.638283
0.304004	1.635843
0.304102	1.632560
0.304199	1.629297
0.304297	1.626108
0.304395	1.623523
0.304492	1.621509
0.304590	1.620366
0.304687	1.620031
0.304785	1.620417
0.304883	1.621445
0.304980	1.623007
0.305078	1.624864
0.305176	1.626949
0.305273	1.629111
0.305371	1.631393
0.305469	1.633664
0.305566	1.635901
0.305664	1.638213
0.305762	1.640162
0.305859	1.641283
0.305957	1.641670
0.306055	1.641220
0.306152	1.639769
0.306250	1.637073
0.306348	1.633878
0.306445	1.630631
0.306543	1.627618
0.306641	1.625178
0.306738	1.623471
0.306836	1.622489
0.306934	1.622110
0.307031	1.622343
0.307129	1.623045
0.307227	1.624147
0.307324	1.625599
0.307422	1.627121
0.307520	1.628929
0.307617	1.630843
0.307715	1.632760
0.307812	1.634855
0.307910	1.636589
0.308008	1.638197
0.308105	1.639306
0.308203	1.639832
0.308301	1.639886
0.308398	1.638949
0.308496	1.636101
0.308594	1.634103
0.308691	1.632829
0.308789	1.630865
0.308887	1.628539
0.308984	1.626063
0.309082	1.624216
0.309180	1.623007
0.309277	1.622490
0.309375	1.622578
0.309473	1.623250
0.309570	1.624251
0.309668	1.625404
0.309766	1.626974
0.309863	1.628504
0.309961	1.630431
0.310059	1.632349
0.310156	1.634517
0.310254	1.636652
0.310352	1.639112
0.310449	1.641530
0.310547	1.644164
0.310645	1.646526
0.310742	1.648260
0.310840	1.645395
0.310937	1.641388
0.311035	1.636991
0.311133	1.635168
0.311230	1.633235
0.311328	1.630012
0.311426	1.627259
0.311523	1.624503
0.311621	1.621833
0.311719	1.619823
0.311816	1.619183
0.311914	1.619276
0.312012	1.620272
0.312109	1.621657
0.312207	1.623521
0.312305	1.625517
0.312402	1.627724
0.312500	1.629782
0.312598	1.631995
0.312695	1.633964
0.312793	1.636041
0.312891	1.637852
0.312988	1.639346
0.313086	1.639911
0.313184	1.639439
0.313281	1.638611
0.313379	1.637474
0.313477	1.635275
0.313574	1.632150
0.313672	1.629181
0.313770	1.627765
0.313867	1.627633
0.313965	1.627855
0.314062	1.626573
0.314160	1.623460
0.314258	1.621687
0.314355	1.621492
0.314453	1.622056
0.314551	1.623226
0.314648	1.624861
0.314746	1.626775
0.314844	1.628856
0.314941	1.630850
0.315039	1.632719
0.315137	1.634502
0.315234	1.635866
0.315332	1.636812
0.315430	1.637236
0.315527	1.637236
0.315625	1.636830
0.315723	1.636007
0.315820	1.634911
0.315918	1.633640
0.316016	1.632433
0.316113	1.631496
0.316211	1.630573
0.316309	1.629537
0.316406	1.628248
0.316504	1.626956
0.316602	1.626231
0.316699	1.626007
0.316797	1.626140
0.316895	1.627020
0.316992	1.628107
0.317090	1.629662
0.317187	1.631420
0.317285	1.633246
0.317383	1.635072
0.317480	1.636966
0.317578	1.638464
0.317676	1.639711
0.317773	1.640411
0.317871	1.640477
0.317969	1.640256
0.318066	1.639857
0.318164	1.639875
0.318262	1.640449
0.318359	1.640973
0.318457	1.636931
0.318555	1.627542
0.318652	1.621917
0.318750	1.620215
0.318848	1.620109
0.318945	1.620590
0.319043	1.621426
0.319141	1.622564
0.319238	1.623997
0.319336	1.625628
0.319434	1.627628
0.319531	1.629729
0.319629	1.632092
0.319727	1.634662
0.319824	1.637151
0.319922	1.639571
0.320020	1.641830
0.320117	1.643315
0.320215	1.644216
0.320312	1.644139
0.320410	1.642846
0.320508	1.640716
0.320605	1.637523
0.320703	1.634160
0.320801	1.631022
0.320898	1.628535
0.320996	1.626387
0.321094	1.623651
0.321191	1.620837
0.321289	1.618888
0.321387	1.617994
0.321484	1.618272
0.321582	1.619231
0.321680	1.620812
0.321777	1.622682
0.321875	1.624688
0.321973	1.626968
0.322070	1.629397
0.322168	1.631939
0.322266	1.634491
0.322363	1.637179
0.322461	1.639747
0.322559	1.641809
0.322656	1.643231
0.322754	1.643982
0.322852	1.644142
0.322949	1.643644
0.323047	1.641743
0.323145	1.638784
0.323242	1.635514
0.323340	1.631905
0.323437	1.628287
0.323535	1.624534
0.323633	1.621361
0.323730	1.619316
0.323828	1.618441
0.323926	1.618557
0.324023	1.619345
0.324121	1.620761
0.324219	1.622415
0.324316	1.624360
0.324414	1.626473
0.324512	1.628515
0.324609	1.630567
0.324707	1.632650
0.324805	1.634548
0.324902	1.636157
0.325000	1.637524
0.325098	1.638539
0.325195	1.639003
0.325293	1.638901
0.325391	1.638190
0.325488	1.636863
0.325586	1.635120
0.325684	1.632944
0.325781	1.630749
0.325879	1.628679
0.325977	1.626875
0.326074	1.625507
0.326172	1.624753
0.326270	1.624543
0.326367	1.624838
0.326465	1.625560
0.326562	1.626757
0.326660	1.628150
0.326758	1.629810
0.326855	1.631496
0.326953	1.633323
0.327051	1.635090
0.327148	1.636848
0.327246	1.638207
0.327344	1.639228
0.327441	1.639733
0.327539	1.639819
0.327637	1.639446
0.327734	1.638604
0.327832	1.637267
0.327930	1.634655
0.328027	1.629958
0.328125	1.626815
0.328223	1.625611
0.328320	1.624410
0.328418	1.623554
0.328516	1.623178
0.328613	1.623158
0.328711	1.623597
0.328809	1.624533
0.328906	1.625909
0.329004	1.627528
0.329102	1.629493
0.329199	1.631858
0.329297	1.634426
0.329395	1.637118
0.329492	1.639948
0.329590	1.642425
0.329687	1.644131
0.329785	1.644543
0.329883	1.644019
0.329980	1.643311
0.330078	1.641391
0.330176	1.638379
0.330273	1.635079
0.330371	1.630969
0.330469	1.627326
0.330566	1.623910
0.330664	1.620980
0.330762	1.619105
0.330859	1.618191
0.330957	1.618140
0.331055	1.618657
0.331152	1.619859
0.331250	1.621509
0.331348	1.623517
0.331445	1.625667
0.331543	1.628015
0.331641	1.630360
0.331738	1.632730
0.331836	1.634858
0.331934	1.636743
0.332031	1.638396
0.332129	1.639438
0.332227	1.639810
0.332324	1.639527
0.332422	1.638799
0.332520	1.637662
0.332617	1.636392
0.332715	1.634699
0.332812	1.632283
0.332910	1.629301
0.333008	1.626386
0.333105	1.624101
0.333203	1.622663
0.333301	1.622156
0.333398	1.622186
0.333496	1.622850
0.333594	1.623837
0.333691	1.625251
0.333789	1.626727
0.333887	1.628511
0.333984	1.630313
0.334082	1.632051
0.334180	1.633751
0.334277	1.635093
0.334375	1.636258
0.334473	1.636863
0.334570	1.637000
0.334668	1.636574
0.334766	1.635761
0.334863	1.634515
0.334961	1.633106
0.335059	1.631586
0.335156	1.630158
0.335254	1.628768
0.335352	1.627703
0.335449	1.626622
0.335547	1.625853
0.335645	1.625350
0.335742	1.625163
0.335840	1.625251
0.335937	1.625697
0.336035	1.626371
0.336133	1.627421
0.336230	1.628567
0.336328	1.630000
0.336426	1.631500
0.336523	1.633132
0.336621	1.634763
0.336719	1.636400
0.336816	1.638075
0.336914	1.639370
0.337012	1.640315
0.337109	1.640469
0.337207	1.639406
0.337305	1.637532
0.337402	1.634994
0.337500	1.632286
0.337598	1.630030
0.337695	1.628013
0.337793	1.626194
0.337891	1.624759
0.337988	1.623909
0.338086	1.623665
0.338184	1.623933
0.338281	1.624762
0.338379	1.625928
0.338477	1.627343
0.338574	1.629088
0.338672	1.631149
0.338770	1.633453
0.338867	1.636139
0.338965	1.639107
0.339062	1.642418
0.339160	1.645896
0.339258	1.649159
0.339355	1.651651
0.339453	1.652097
0.339551	1.645938
0.339648	1.636871
0.339746	1.632937
0.339844	1.629754
0.339941	1.627492
0.340039	1.623017
0.340137	1.618334
0.340234	1.615843
0.340332	1.615450
0.340430	1.615840
0.340527	1.616397
0.340625	1.617651
0.340723	1.619224
0.340820	1.621205
0.340918	1.623403
0.341016	1.625673
0.341113	1.628008
0.341211	1.630317
0.341309	1.632749
0.341406	1.635132
0.341504	1.637591
0.341602	1.639625
0.341699	1.641437
0.341797	1.642535
0.341895	1.642602
0.341992	1.641611
0.342090	1.639595
0.342187	1.636142
0.342285	1.632657
0.342383	1.629940
0.342480	1.627713
0.342578	1.625708
0.342676	1.623824
0.342773	1.622646
0.342871	1.622033
0.342969	1.622115
0.343066	1.622484
0.343164	1.623265
0.343262	1.624264
0.343359	1.625363
0.343457	1.626764
0.343555	1.628272
0.343652	1.629729
0.343750	1.631372
0.343848	1.632889
0.343945	1.634402
0.344043	1.635780
0.344141	1.636818
0.344238	1.637358
0.344336	1.637247
0.344434	1.636512
0.344531	1.635371
0.344629	1.634113
0.344727	1.632959
0.344824	1.631741
0.344922	1.630419
0.345020	1.628661
0.345117	1.627029
0.345215	1.625645
0.345312	1.624937
0.345410	1.624806
0.345508	1.625108
0.345605	1.626010
0.345703	1.626971
0.345801	1.628347
0.345898	1.629723
0.345996	1.631389
0.346094	1.633250
0.346191	1.634953
0.346289	1.636763
0.346387	1.638284
0.346484	1.639577
0.346582	1.640525
0.346680	1.641103
0.346777	1.641826
0.346875	1.643031
0.346973	1.644317
0.347070	1.643537
0.347168	1.638522
0.347266	1.630797
0.347363	1.623602
0.347461	1.619183
0.347559	1.617414
0.347656	1.617011
0.347754	1.617563
0.347852	1.618937
0.347949	1.620890
0.348047	1.623286
0.348145	1.625768
0.348242	1.628347
0.348340	1.630839
0.348437	1.633310
0.348535	1.635453
0.348633	1.637151
0.348730	1.638239
0.348828	1.638718
0.348926	1.638271
0.349023	1.637094
0.349121	1.635205
0.349219	1.632931
0.349316	1.630570
0.349414	1.628421
0.349512	1.626569
0.349609	1.624946
0.349707	1.623487
0.349805	1.622372
0.349902	1.621849
0.350000	1.621614
0.350098	1.622040
0.350195	1.622883
0.350293	1.624036
0.350391	1.625418
0.350488	1.626973
0.350586	1.628608
0.350684	1.630293
0.350781	1.632128
0.350879	1.633897
0.350977	1.635630
0.351074	1.637449
0.351172	1.638952
0.351270	1.640213
0.351367	1.641140
0.351465	1.641685
0.351562	1.641658
0.351660	1.640882
0.351758	1.638707
0.351855	1.635613
0.351953	1.632435
0.352051	1.629662
0.352148	1.627470
0.352246	1.625737
0.352344	1.624532
0.352441	1.623795
0.352539	1.623548
0.352637	1.623666
0.352734	1.624525
0.352832	1.625574
0.352930	1.627023
0.353027	1.628757
0.353125	1.630562
0.353223	1.632461
0.353320	1.634391
0.353418	1.636067
0.353516	1.637294
0.353613	1.637731
0.353711	1.637573
0.353809	1.637101
0.353906	1.636641
0.354004	1.635582
0.354102	1.635182
0.354199	1.637017
0.354297	1.641390
0.354395	1.639947
0.354492	1.629869
0.354590	1.624774
0.354687	1.623345
0.354785	1.622346
0.354883	1.621717
0.354980	1.622168
0.355078	1.623452
0.355176	1.624911
0.355273	1.626616
0.355371	1.628485
0.355469	1.630363
0.355566	1.632246
0.355664	1.634128
0.355762	1.635811
0.355859	1.637372
0.355957	1.638737
0.356055	1.639730
0.356152	1.640080
0.356250	1.639324
0.356348	1.637899
0.356445	1.636262
0.356543	1.634325
0.356641	1.631379
0.356738	1.627634
0.356836	1.624205
0.356934	1.621409
0.357031	1.619977
0.357129	1.619563
0.357227	1.619851
0.357324	1.620591
0.357422	1.621919
0.357520	1.623505
0.357617	1.625355
0.357715	1.627340
0.357812	1.629428
0.357910	1.631769
0.358008	1.634180
0.358105	1.636814
0.358203	1.639780
0.358301	1.642985
0.358398	1.646242
0.358496	1.649185
0.358594	1.649275
0.358691	1.645148
0.358789	1.637613
0.358887	1.630497
0.358984	1.628223
0.359082	1.625935
0.359180	1.622945
0.359277	1.621046
0.359375	1.620155
0.359473	1.619812
0.359570	1.620035
0.359668	1.620602
0.359766	1.621546
0.359863	1.622825
0.359961	1.624508
0.360059	1.626270
0.360156	1.628178
0.360254	1.630151
0.360352	1.632255
0.360449	1.633977
0.360547	1.635579
0.360645	1.636848
0.360742	1.637699
0.360840	1.638058
0.360937	1.638146
0.361035	1.637546
0.361133	1.636596
0.361230	1.635304
0.361328	1.633800
0.361426	1.632134
0.361523	1.630318
0.361621	1.628580
0.361719	1.627093
0.361816	1.625991
0.361914	1.625417
0.362012	1.625374
0.362109	1.625811
0.362207	1.626611
0.362305	1.627774
0.362402	1.629150
0.362500	1.630793
0.362598	1.632690
0.362695	1.634700
0.362793	1.636857
0.362891	1.638887
0.362988	1.640601
0.363086	1.641871
0.363184	1.642687
0.363281	1.642646
0.363379	1.641826
0.363477	1.640890
0.363574	1.638618
0.363672	1.635692
0.363770	1.633562
0.363867	1.631123
0.363965	1.627444
0.364062	1.623740
0.364160	1.621009
0.364258	1.619694
0.364355	1.620017
0.364453	1.620915
0.364551	1.622415
0.364648	1.623837
0.364746	1.625750
0.364844	1.627409
0.364941	1.629761
0.365039	1.631657
0.365137	1.634396
0.365234	1.636665
0.365332	1.640367
0.365430	1.644279
0.365527	1.652283
0.365625	1.657583
0.365723	1.659973
0.365820	1.650066
0.365918	1.638630
0.366016	1.627576
0.366113	1.618027
0.366211	1.619518
0.366309	1.618448
0.366406	1.618085
0.366504	1.616605
0.366602	1.616049
0.366699	1.615795
0.366797	1.616747
0.366895	1.618147
0.366992	1.620227
0.367090	1.622398
0.367187	1.624935
0.367285	1.627478
0.367383	1.630069
0.367480	1.632812
0.367578	1.635483
0.367676	1.638110
0.367773	1.640347
0.367871	1.641790
0.367969	1.642213
0.368066	1.641203
0.368164	1.639241
0.368262	1.636117
0.368359	1.632552
0.368457	1.629059
0.368555	1.625972
0.368652	1.623544
0.368750	1.622001
0.368848	1.620877
0.368945	1.620459
0.369043	1.620299
0.369141	1.620634
0.369238	1.621468
0.369336	1.622541
0.369434	1.623976
0.369531	1.625771
0.369629	1.627774
0.369727	1.629899
0.369824	1.632161
0.369922	1.634582
0.370020	1.636863
0.370117	1.639030
0.370215	1.641107
0.370312	1.642819
0.370410	1.643856
0.370508	1.644069
0.370605	1.642470
0.370703	1.639848
0.370801	1.636867
0.370898	1.633693
0.370996	1.630365
0.371094	1.627387
0.371191	1.624746
0.371289	1.622801
0.371387	1.621541
0.371484	1.621036
0.371582	1.621210
0.371680	1.621853
0.371777	1.623043
0.371875	1.624286
0.371973	1.626152
0.372070	1.628033
0.372168	1.630197
0.372266	1.632352
0.372363	1.634622
0.372461	1.636896
0.372559	1.638708
0.372656	1.640290
0.372754	1.641234
0.372852	1.641449
0.372949	1.640742
0.373047	1.639192
0.373145	1.637291
0.373242	1.635168
0.373340	1.632887
0.373437	1.630342
0.373535	1.627425
0.373633	1.624863
0.373730	1.623125
0.373828	1.622232
0.373926	1.622068
0.374023	1.622409
0.374121	1.623231
0.374219	1.624556
0.374316	1.626141
0.374414	1.627890
0.374512	1.630025
0.374609	1.632467
0.374707	1.634859
0.374805	1.637519
0.374902	1.639840
0.375000	1.641648
0.375098	1.642699
0.375195	1.642800
0.375293	1.642194
0.375391	1.640722
0.375488	1.639643
0.375586	1.638401
0.375684	1.635607
0.375781	1.630865
0.375879	1.627747
0.375977	1.625520
0.376074	1.623677
0.376172	1.622182
0.376270	1.621111
0.376367	1.620915
0.376465	1.621295
0.376562	1.622265
0.376660	1.623715
0.376758	1.625502
0.376855	1.627576
0.376953	1.629724
0.377051	1.632196
0.377148	1.634737
0.377246	1.637093
0.377344	1.639037
0.377441	1.640429
0.377539	1.641013
0.377637	1.640704
0.377734	1.639289
0.377832	1.637180
0.377930	1.635268
0.378027	1.633480
0.378125	1.631682
0.378223	1.629981
0.378320	1.628255
0.378418	1.626858
0.378516	1.625363
0.378613	1.624111
0.378711	1.623179
0.378809	1.623114
0.378906	1.623434
0.379004	1.624473
0.379102	1.625453
0.379199	1.627272
0.379297	1.628692
0.379395	1.631175
0.379492	1.632811
0.379590	1.635938
0.379687	1.637943
0.379785	1.641817
0.379883	1.644716
0.379980	1.646828
0.380078	1.638171
0.380176	1.640541
0.380273	1.636074
0.380371	1.640282
0.380469	1.639067
0.380566	1.617268
0.380664	1.608586
0.380762	1.600542
0.380859	1.601264
0.380957	1.596641
0.381055	1.597951
0.381152	1.599597
0.381250	1.604307
0.381348	1.608248
0.381445	1.613111
0.381543	1.617013
0.381641	1.621134
0.381738	1.624416
0.381836	1.627856
0.381934	1.630718
0.382031	1.633753
0.382129	1.636306
0.382227	1.638862
0.382324	1.640695
0.382422	1.642286
0.382520	1.642805
0.382617	1.642558
0.382715	1.641079
0.382812	1.638841
0.382910	1.635883
0.383008	1.632190
0.383105	1.628502
0.383203	1.625655
0.383301	1.623509
0.383398	1.621492
0.383496	1.619970
0.383594	1.619492
0.383691	1.619862
0.383789	1.620961
0.383887	1.622429
0.383984	1.624242
0.384082	1.626211
0.384180	1.628308
0.384277	1.630507
0.384375	1.632619
0.384473	1.634736
0.384570	1.636586
0.384668	1.638173
0.384766	1.639250
0.384863	1.640010
0.384961	1.640217
0.385059	1.639997
0.385156	1.639262
0.385254	1.637616
0.385352	1.635138
0.385449	1.632522
0.385547	1.630061
0.385645	1.628108
0.385742	1.626333
0.385840	1.624806
0.385937	1.623647
0.386035	1.622975
0.386133	1.623049
0.386230	1.623760
0.386328	1.624961
0.386426	1.626565
0.386523	1.628381
0.386621	1.630487
0.386719	1.632676
0.386816	1.635091
0.386914	1.637333
0.387012	1.639593
0.387109	1.641482
0.387207	1.642078
0.387305	1.641350
0.387402	1.640591
0.387500	1.640984
0.387598	1.639158
0.387695	1.635193
0.387793	1.631292
0.387891	1.627387
0.387988	1.624100
0.388086	1.621711
0.388184	1.620292
0.388281	1.619551
0.388379	1.619749
0.388477	1.620695
0.388574	1.622140
0.388672	1.623974
0.388770	1.625937
0.388867	1.628094
0.388965	1.630370
0.389062	1.632641
0.389160	1.634824
0.389258	1.636875
0.389355	1.638580
0.389453	1.639759
0.389551	1.640281
0.389648	1.640045
0.389746	1.639220
0.389844	1.638033
0.389941	1.636739
0.390039	1.635941
0.390137	1.636010
0.390234	1.633769
0.390332	1.629832
0.390430	1.626707
0.390527	1.624058
0.390625	1.622960
0.390723	1.622705
0.390820	1.623054
0.390918	1.623917
0.391016	1.625178
0.391113	1.626793
0.391211	1.628645
0.391309	1.630719
0.391406	1.632670
0.391504	1.634615
0.391602	1.636469
0.391699	1.638042
0.391797	1.639166
0.391895	1.639817
0.391992	1.639219
0.392090	1.637322
0.392187	1.635382
0.392285	1.633627
0.392383	1.631691
0.392480	1.629826
0.392578	1.627899
0.392676	1.626204
0.392773	1.624717
0.392871	1.623678
0.392969	1.623079
0.393066	1.623122
0.393164	1.623589
0.393262	1.624567
0.393359	1.625735
0.393457	1.627160
0.393555	1.628903
0.393652	1.630809
0.393750	1.632819
0.393848	1.635149
0.393945	1.637660
0.394043	1.640281
0.394141	1.642850
0.394238	1.645083
0.394336	1.646469
0.394434	1.646754
0.394531	1.645682
0.394629	1.643230
0.394727	1.639767
0.394824	1.635531
0.394922	1.630944
0.395020	1.626567
0.395117	1.623141
0.395215	1.621205
0.395312	1.620260
0.395410	1.620075
0.395508	1.620285
0.395605	1.621056
0.395703	1.622197
0.395801	1.623686
0.395898	1.625476
0.395996	1.627385
0.396094	1.629422
0.396191	1.631505
0.396289	1.633732
0.396387	1.635829
0.396484	1.637875
0.396582	1.639642
0.396680	1.640788
0.396777	1.641188
0.396875	1.640350
0.396973	1.638341
0.397070	1.635504
0.397168	1.632222
0.397266	1.628981
0.397363	1.626263
0.397461	1.624374
0.397559	1.623257
0.397656	1.622672
0.397754	1.622564
0.397852	1.622832
0.397949	1.623453
0.398047	1.624205
0.398145	1.625296
0.398242	1.626663
0.398340	1.628181
0.398437	1.629911
0.398535	1.631962
0.398633	1.633910
0.398730	1.636070
0.398828	1.638034
0.398926	1.639852
0.399023	1.641206
0.399121	1.641911
0.399219	1.641979
0.399316	1.641295
0.399414	1.639911
0.399512	1.637878
0.399609	1.635404
0.399707	1.632442
0.399805	1.629252
0.399902	1.626470
0.400000	1.624119
0.400098	1.622555
0.400195	1.621883
0.400293	1.621980
0.400391	1.622497
0.400488	1.623615
0.400586	1.624926
0.400684	1.626492
0.400781	1.628066
0.400879	1.629783
0.400977	1.631696
0.401074	1.633468
0.401172	1.635282
0.401270	1.636840
0.401367	1.638285
0.401465	1.639339
0.401562	1.640090
0.401660	1.640561
0.401758	1.640896
0.401855	1.640806
0.401953	1.640143
0.402051	1.638281
0.402148	1.635570
0.402246	1.632165
0.402344	1.628864
0.402441	1.626212
0.402539	1.624196
0.402637	1.623344
0.402734	1.623107
0.402832	1.623433
0.402930	1.624321
0.403027	1.625485
0.403125	1.626963
0.403223	1.628583
0.403320	1.630461
0.403418	1.632473
0.403516	1.634476
0.403613	1.636272
0.403711	1.638062
0.403809	1.639588
0.403906	1.640708
0.404004	1.641336
0.404102	1.641695
0.404199	1.641767
0.404297	1.642715
0.404395	1.639928
0.404492	1.635064
0.404590	1.629538
0.404687	1.624336
0.404785	1.622988
0.404883	1.622186
0.404980	1.621740
0.405078	1.621414
0.405176	1.621933
0.405273	1.622658
0.405371	1.624006
0.405469	1.625662
0.405566	1.627530
0.405664	1.629625
0.405762	1.631790
0.405859	1.634021
0.405957	1.636218
0.406055	1.638014
0.406152	1.639228
0.406250	1.639510
0.406348	1.638743
0.406445	1.637362
0.406543	1.636004
0.406641	1.634775
0.406738	1.633606
0.406836	1.632073
0.406934	1.629766
0.407031	1.627608
0.407129	1.625580
0.407227	1.624072
0.407324	1.622875
0.407422	1.622226
0.407520	1.622265
0.407617	1.622947
0.407715	1.624071
0.407812	1.625576
0.407910	1.627453
0.408008	1.629319
0.408105	1.631449
0.408203	1.633623
0.408301	1.635633
0.408398	1.637426
0.408496	1.639078
0.408594	1.640278
0.408691	1.641005
0.408789	1.641129
0.408887	1.640731
0.408984	1.639735
0.409082	1.638274
0.409180	1.636248
0.409277	1.633828
0.409375	1.631151
0.409473	1.628675
0.409570	1.626573
0.409668	1.624742
0.409766	1.623204
0.409863	1.622246
0.409961	1.622027
0.410059	1.622519
0.410156	1.623558
0.410254	1.625253
0.410352	1.627111
0.410449	1.629008
0.410547	1.631115
0.410645	1.633144
0.410742	1.635173
0.410840	1.636917
0.410937	1.638396
0.411035	1.639514
0.411133	1.641080
0.411230	1.642403
0.411328	1.640065
0.411426	1.637259
0.411523	1.633283
0.411621	1.629758
0.411719	1.627601
0.411816	1.623297
0.411914	1.621036
0.412012	1.620478
0.412109	1.620442
0.412207	1.620725
0.412305	1.621676
0.412402	1.623041
0.412500	1.624674
0.412598	1.626458
0.412695	1.628444
0.412793	1.630539
0.412891	1.632895
0.412988	1.635085
0.413086	1.637403
0.413184	1.639748
0.413281	1.642024
0.413379	1.643725
0.413477	1.644797
0.413574	1.644624
0.413672	1.644481
0.413770	1.642873
0.413867	1.642188
0.413965	1.632093
0.414062	1.628867
0.414160	1.632904
0.414258	1.626639
0.414355	1.618895
0.414453	1.617974
0.414551	1.618220
0.414648	1.618674
0.414746	1.619510
0.414844	1.620732
0.414941	1.622121
0.415039	1.623833
0.415137	1.625516
0.415234	1.627459
0.415332	1.629066
0.415430	1.630847
0.415527	1.632447
0.415625	1.633839
0.415723	1.634911
0.415820	1.635880
0.415918	1.636311
0.416016	1.636312
0.416113	1.635966
0.416211	1.634915
0.416309	1.633511
0.416406	1.631987
0.416504	1.630576
0.416602	1.629346
0.416699	1.628456
0.416797	1.627755
0.416895	1.627472
0.416992	1.627337
0.417090	1.627530
0.417187	1.627952
0.417285	1.628544
0.417383	1.629333
0.417480	1.630450
0.417578	1.631722
0.417676	1.633177
0.417773	1.634855
0.417871	1.636689
0.417969	1.638293
0.418066	1.639600
0.418164	1.640456
0.418262	1.640680
0.418359	1.640374
0.418457	1.639467
0.418555	1.637646
0.418652	1.634038
0.418750	1.629488
0.418848	1.625722
0.418945	1.623283
0.419043	1.621747
0.419141	1.620803
0.419238	1.620639
0.419336	1.621008
0.419434	1.621913
0.419531	1.623184
0.419629	1.624785
0.419727	1.626515
0.419824	1.628462
0.419922	1.630591
0.420020	1.633022
0.420117	1.635593
0.420215	1.638597
0.420312	1.641702
0.420410	1.644705
0.420508	1.646099
0.420605	1.647163
0.420703	1.649112
0.420801	1.653393
0.420898	1.649203
0.420996	1.639616
0.421094	1.630949
0.421191	1.626112
0.421289	1.625172
0.421387	1.622754
0.421484	1.620532
0.421582	1.618524
0.421680	1.618054
0.421777	1.618486
0.421875	1.619574
0.421973	1.621088
0.422070	1.623015
0.422168	1.625274
0.422266	1.627642
0.422363	1.630326
0.422461	1.632704
0.422559	1.635148
0.422656	1.636998
0.422754	1.638567
0.422852	1.639271
0.422949	1.639385
0.423047	1.638347
0.423145	1.636856
0.423242	1.634820
0.423340	1.633847
0.423437	1.633201
0.423535	1.638603
0.423633	1.629181
0.423730	1.624574
0.423828	1.623766
0.423926	1.623932
0.424023	1.624849
0.424121	1.622990
0.424219	1.622396
0.424316	1.622556
0.424414	1.623955
0.424512	1.625303
0.424609	1.627152
0.424707	1.628821
0.424805	1.630764
0.424902	1.632522
0.425000	1.634497
0.425098	1.636093
0.425195	1.637738
0.425293	1.639005
0.425391	1.640002
0.425488	1.640502
0.425586	1.640151
0.425684	1.638576
0.425781	1.636603
0.425879	1.634244
0.425977	1.631561
0.426074	1.629042
0.426172	1.627047
0.426270	1.625881
0.426367	1.625277
0.426465	1.625103
0.426562	1.625216
0.426660	1.625596
0.426758	1.626074
0.426855	1.626893
0.426953	1.627956
0.427051	1.629302
0.427148	1.630967
0.427246	1.632632
0.427344	1.634356
0.427441	1.636076
0.427539	1.637661
0.427637	1.639083
0.427734	1.640367
0.427832	1.641264
0.427930	1.640888
0.428027	1.635656
0.428125	1.634177
0.428223	1.633405
0.428320	1.630768
0.428418	1.628032
0.428516	1.625606
0.428613	1.623912
0.428711	1.622550
0.428809	1.622058
0.428906	1.621849
0.429004	1.622541
0.429102	1.623287
0.429199	1.625003
0.429297	1.626367
0.429395	1.628728
0.429492	1.630456
0.429590	1.633195
0.429687	1.635086
0.429785	1.637976
0.429883	1.639193
0.429980	1.641674
0.430078	1.641453
0.430176	1.643254
0.430273	1.640165
0.430371	1.642017
0.430469	1.635422
0.430566	1.633940
0.430664	1.635951
0.430762	1.643839
0.430859	1.630161
0.430957	1.617524
0.431055	1.625689
0.431152	1.622451
0.431250	1.623977
0.431348	1.622003
0.431445	1.623785
0.431543	1.623641
0.431641	1.626063
0.431738	1.626892
0.431836	1.629623
0.431934	1.631278
0.432031	1.634202
0.432129	1.636057
0.432227	1.639366
0.432324	1.641662
0.432422	1.645722
0.432520	1.648171
0.432617	1.645140
0.432715	1.632265
0.432812	1.628464
0.432910	1.630828
0.433008	1.625016
0.433105	1.626004
0.433203	1.622079
0.433301	1.620949
0.433398	1.619479
0.433496	1.619799
0.433594	1.619795
0.433691	1.620923
0.433789	1.621794
0.433887	1.623389
0.433984	1.624802
0.434082	1.626622
0.434180	1.628427
0.434277	1.630428
0.434375	1.632405
0.434473	1.634526
0.434570	1.636518
0.434668	1.638307
0.434766	1.639836
0.434863	1.641094
0.434961	1.641433
0.435059	1.640998
0.435156	1.639403
0.435254	1.637198
0.435352	1.634253
0.435449	1.631303
0.435547	1.628193
0.435645	1.625532
0.435742	1.623480
0.435840	1.622195
0.435937	1.621446
0.436035	1.621324
0.436133	1.621617
0.436230	1.622381
0.436328	1.623481
0.436426	1.624852
0.436523	1.626418
0.436621	1.628266
0.436719	1.630208
0.436816	1.632132
0.436914	1.634166
0.437012	1.635971
0.437109	1.637864
0.437207	1.639338
0.437305	1.640650
0.437402	1.641688
0.437500	1.642563
0.437598	1.640391
0.437695	1.635960
0.437793	1.632668
0.437891	1.629273
0.437988	1.625850
0.438086	1.623261
0.438184	1.621783
0.438281	1.620790
0.438379	1.620884
0.438477	1.621307
0.438574	1.622708
0.438672	1.623938
0.438770	1.625993
0.438867	1.627643
0.438965	1.630371
0.439062	1.632294
0.439160	1.635556
0.439258	1.637685
0.439355	1.641673
0.439453	1.643531
0.439551	1.646649
0.439648	1.642984
0.439746	1.640395
0.439844	1.632713
0.439941	1.652639
0.440039	1.648843
0.440137	1.619751
0.440234	1.617744
0.440332	1.615490
0.440430	1.620459
0.440527	1.620487
0.440625	1.622011
0.440723	1.621462
0.440820	1.622652
0.440918	1.622998
0.441016	1.624669
0.441113	1.625652
0.441211	1.627829
0.441309	1.629578
0.441406	1.632012
0.441504	1.634092
0.441602	1.636581
0.441699	1.638275
0.441797	1.639930
0.441895	1.640774
0.441992	1.641745
0.442090	1.642648
0.442187	1.643603
0.442285	1.641887
0.442383	1.640827
0.442480	1.639581
0.442578	1.639221
0.442676	1.631269
0.442773	1.626562
0.442871	1.629610
0.442969	1.620540
0.443066	1.615292
0.443164	1.615375
0.443262	1.616766
0.443359	1.618673
0.443457	1.620802
0.443555	1.623053
0.443652	1.625366
0.443750	1.627635
0.443848	1.630328
0.443945	1.632785
0.444043	1.635555
0.444141	1.638123
0.444238	1.641067
0.444336	1.643519
0.444434	1.646090
0.444531	1.648415
0.444629	1.651858
0.444727	1.649530
0.444824	1.643842
0.444922	1.641435
0.445020	1.637987
0.445117	1.632021
0.445215	1.624078
0.445312	1.619811
0.445410	1.616923
0.445508	1.615526
0.445605	1.615393
0.445703	1.616149
0.445801	1.617428
0.445898	1.619058
0.445996	1.621056
0.446094	1.623228
0.446191	1.625321
0.446289	1.627706
0.446387	1.630038
0.446484	1.632200
0.446582	1.634340
0.446680	1.636012
0.446777	1.637353
0.446875	1.637931
0.446973	1.637883
0.447070	1.637270
0.447168	1.636155
0.447266	1.634780
0.447363	1.633518
0.447461	1.632194
0.447559	1.631195
0.447656	1.629898
0.447754	1.628947
0.447852	1.627749
0.447949	1.627227
0.448047	1.626703
0.448145	1.626988
0.448242	1.627088
0.448340	1.628327
0.448437	1.628790
0.448535	1.630834
0.448633	1.631713
0.448730	1.634517
0.448828	1.635494
0.448926	1.639116
0.449023	1.640059
0.449121	1.645676
0.449219	1.650100
0.449316	1.667885
0.449414	1.636876
0.449512	1.629008
0.449609	1.650929
0.449707	1.636874
0.449805	1.634020
0.449902	1.609326
0.450000	1.608397
0.450098	1.608699
0.450195	1.610956
0.450293	1.611212
0.450391	1.613706
0.450488	1.615490
0.450586	1.618459
0.450684	1.620552
0.450781	1.623595
0.450879	1.625928
0.450977	1.628810
0.451074	1.631185
0.451172	1.633793
0.451270	1.636081
0.451367	1.638343
0.451465	1.640135
0.451562	1.641621
0.451660	1.642640
0.451758	1.642845
0.451855	1.641565
0.451953	1.639195
0.452051	1.635562
0.452148	1.632184
0.452246	1.629442
0.452344	1.627164
0.452441	1.625421
0.452539	1.624248
0.452637	1.623622
0.452734	1.623411
0.452832	1.623336
0.452930	1.623347
0.453027	1.623856
0.453125	1.624906
0.453223	1.626371
0.453320	1.628297
0.453418	1.630332
0.453516	1.632542
0.453613	1.634878
0.453711	1.637173
0.453809	1.639223
0.453906	1.640859
0.454004	1.641964
0.454102	1.641992
0.454199	1.641349
0.454297	1.640037
0.454395	1.638351
0.454492	1.636289
0.454590	1.633692
0.454687	1.630591
0.454785	1.627363
0.454883	1.624991
0.454980	1.623522
0.455078	1.622817
0.455176	1.622694
0.455273	1.623166
0.455371	1.623918
0.455469	1.625112
0.455566	1.626399
0.455664	1.628065
0.455762	1.629520
0.455859	1.631203
0.455957	1.632672
0.456055	1.634139
0.456152	1.635279
0.456250	1.636167
0.456348	1.636733
0.456445	1.636941
0.456543	1.636866
0.456641	1.636325
0.456738	1.635385
0.456836	1.634161
0.456934	1.632480
0.457031	1.630716
0.457129	1.628973
0.457227	1.627492
0.457324	1.626238
0.457422	1.625510
0.457520	1.625291
0.457617	1.625605
0.457715	1.626273
0.457812	1.627457
0.457910	1.628873
0.458008	1.630573
0.458105	1.632568
0.458203	1.634670
0.458301	1.636788
0.458398	1.638960
0.458496	1.640973
0.458594	1.642559
0.458691	1.643694
0.458789	1.644188
0.458887	1.643648
0.458984	1.641608
0.459082	1.638059
0.459180	1.633236
0.459277	1.629972
0.459375	1.627780
0.459473	1.625091
0.459570	1.622649
0.459668	1.621554
0.459766	1.621282
0.459863	1.621504
0.459961	1.622172
0.460059	1.623147
0.460156	1.624486
0.460254	1.625931
0.460352	1.627704
0.460449	1.629507
0.460547	1.631628
0.460645	1.633703
0.460742	1.635993
0.460840	1.638170
0.460937	1.640467
0.461035	1.642225
0.461133	1.643943
0.461230	1.644367
0.461328	1.644068
0.461426	1.641679
0.461523	1.639567
0.461621	1.635647
0.461719	1.644434
0.461816	1.644699
0.461914	1.622217
0.462012	1.613680
0.462109	1.625011
0.462207	1.621561
0.462305	1.621190
0.462402	1.620706
0.462500	1.620853
0.462598	1.621529
0.462695	1.623082
0.462793	1.624901
0.462891	1.627203
0.462988	1.629546
0.463086	1.631898
0.463184	1.634113
0.463281	1.636002
0.463379	1.637372
0.463477	1.638269
0.463574	1.638424
0.463672	1.638017
0.463770	1.637090
0.463867	1.635813
0.463965	1.634201
0.464062	1.632617
0.464160	1.631457
0.464258	1.631240
0.464355	1.629955
0.464453	1.626655
0.464551	1.624436
0.464648	1.624011
0.464746	1.624278
0.464844	1.625034
0.464941	1.625844
0.465039	1.626844
0.465137	1.628156
0.465234	1.629404
0.465332	1.630923
0.465430	1.632490
0.465527	1.634089
0.465625	1.635450
0.465723	1.636692
0.465820	1.637573
0.465918	1.637871
0.466016	1.637587
0.466113	1.636659
0.466211	1.635443
0.466309	1.634071
0.466406	1.632566
0.466504	1.630957
0.466602	1.629389
0.466699	1.628276
0.466797	1.627517
0.466895	1.627054
0.466992	1.626823
0.467090	1.627148
0.467187	1.627559
0.467285	1.628295
0.467383	1.629149
0.467480	1.630230
0.467578	1.631508
0.467676	1.633223
0.467773	1.635058
0.467871	1.636967
0.467969	1.639013
0.468066	1.641089
0.468164	1.642759
0.468262	1.644115
0.468359	1.644492
0.468457	1.643375
0.468555	1.640850
0.468652	1.637318
0.468750	1.633495
0.468848	1.629880
0.468945	1.626522
0.469043	1.623830
0.469141	1.621929
0.469238	1.620791
0.469336	1.620396
0.469434	1.620721
0.469531	1.621515
0.469629	1.622594
0.469727	1.624148
0.469824	1.625825
0.469922	1.627705
0.470020	1.629686
0.470117	1.631912
0.470215	1.634134
0.470312	1.636428
0.470410	1.638714
0.470508	1.640860
0.470605	1.642803
0.470703	1.644141
0.470801	1.644583
0.470898	1.643294
0.470996	1.640999
0.471094	1.638951
0.471191	1.636940
0.471289	1.634810
0.471387	1.632792
0.471484	1.630849
0.471582	1.628378
0.471680	1.625912
0.471777	1.624355
0.471875	1.623499
0.471973	1.623233
0.472070	1.623569
0.472168	1.624249
0.472266	1.625169
0.472363	1.626495
0.472461	1.628222
0.472559	1.630183
0.472656	1.632523
0.472754	1.634951
0.472852	1.637645
0.472949	1.640505
0.473047	1.643185
0.473145	1.645362
0.473242	1.645883
0.473340	1.644906
0.473437	1.641706
0.473535	1.635950
0.473633	1.631735
0.473730	1.631035
0.473828	1.630058
0.473926	1.628170
0.474023	1.625935
0.474121	1.623874
0.474219	1.621946
0.474316	1.620086
0.474414	1.619516
0.474512	1.620099
0.474609	1.621741
0.474707	1.623726
0.474805	1.625876
0.474902	1.627986
0.475000	1.629884
0.475098	1.631700
0.475195	1.633280
0.475293	1.634810
0.475391	1.636038
0.475488	1.636931
0.475586	1.637389
0.475684	1.637007
0.475781	1.635985
0.475879	1.634617
0.475977	1.632907
0.476074	1.631247
0.476172	1.629574
0.476270	1.628043
0.476367	1.626713
0.476465	1.625692
0.476562	1.625097
0.476660	1.624805
0.476758	1.625057
0.476855	1.625661
0.476953	1.626478
0.477051	1.627771
0.477148	1.629282
0.477246	1.630899
0.477344	1.632574
0.477441	1.634355
0.477539	1.636103
0.477637	1.637580
0.477734	1.638828
0.477832	1.639680
0.477930	1.640051
0.478027	1.639738
0.478125	1.638656
0.478223	1.636830
0.478320	1.634388
0.478418	1.631973
0.478516	1.629814
0.478613	1.628012
0.478711	1.626479
0.478809	1.625412
0.478906	1.624782
0.479004	1.624643
0.479102	1.624761
0.479199	1.625474
0.479297	1.626578
0.479395	1.627990
0.479492	1.629742
0.479590	1.631777
0.479687	1.634064
0.479785	1.636559
0.479883	1.638994
0.479980	1.641353
0.480078	1.643250
0.480176	1.643883
0.480273	1.643580
0.480371	1.642620
0.480469	1.641173
0.480566	1.639107
0.480664	1.635581
0.480762	1.629584
0.480859	1.623261
0.480957	1.619565
0.481055	1.618039
0.481152	1.617533
0.481250	1.617838
0.481348	1.618727
0.481445	1.619985
0.481543	1.621608
0.481641	1.623446
0.481738	1.625413
0.481836	1.627402
0.481934	1.629640
0.482031	1.632041
0.482129	1.634485
0.482227	1.637204
0.482324	1.639853
0.482422	1.641782
0.482520	1.642631
0.482617	1.642219
0.482715	1.641380
0.482812	1.640905
0.482910	1.639255
0.483008	1.635949
0.483105	1.631860
0.483203	1.628329
0.483301	1.625836
0.483398	1.624070
0.483496	1.623008
0.483594	1.622635
0.483691	1.622771
0.483789	1.623218
0.483887	1.623943
0.483984	1.624844
0.484082	1.625837
0.484180	1.627114
0.484277	1.628570
0.484375	1.630208
0.484473	1.632176
0.484570	1.634313
0.484668	1.636628
0.484766	1.639121
0.484863	1.641394
0.484961	1.643433
0.485059	1.644481
0.485156	1.644378
0.485254	1.643199
0.485352	1.641414
0.485449	1.638560
0.485547	1.634078
0.485645	1.629060
0.485742	1.624812
0.485840	1.621871
0.485937	1.620203
0.486035	1.619461
0.486133	1.619606
0.486230	1.620225
0.486328	1.621515
0.486426	1.622974
0.486523	1.624861
0.486621	1.626659
0.486719	1.628983
0.486816	1.631008
0.486914	1.633411
0.487012	1.635516
0.487109	1.637894
0.487207	1.639273
0.487305	1.640813
0.487402	1.641583
0.487500	1.643863
0.487598	1.644627
0.487695	1.653228
0.487793	1.639608
0.487891	1.633142
0.487988	1.635289
0.488086	1.620936
0.488184	1.619409
0.488281	1.619192
0.488379	1.618744
0.488477	1.617940
0.488574	1.618116
0.488672	1.618772
0.488770	1.619925
0.488867	1.621562
0.488965	1.623447
0.489062	1.625711
0.489160	1.627998
0.489258	1.630821
0.489355	1.633788
0.489453	1.637474
0.489551	1.640890
0.489648	1.645349
0.489746	1.648779
0.489844	1.652343
0.489941	1.652716
0.490039	1.652848
0.490137	1.647335
0.490234	1.649762
0.490332	1.642720
0.490430	1.625225
0.490527	1.622395
0.490625	1.616135
0.490723	1.617683
0.490820	1.615853
0.490918	1.615436
0.491016	1.614623
0.491113	1.615808
0.491211	1.616722
0.491309	1.618880
0.491406	1.620694
0.491504	1.623027
0.491602	1.625069
0.491699	1.627300
0.491797	1.629252
0.491895	1.631210
0.491992	1.632797
0.492090	1.634101
0.492187	1.635074
0.492285	1.635624
0.492383	1.635628
0.492480	1.635029
0.492578	1.633828
0.492676	1.632281
0.492773	1.630612
0.492871	1.629098
0.492969	1.627685
0.493066	1.626551
0.493164	1.625683
0.493262	1.625052
0.493359	1.624834
0.493457	1.624998
0.493555	1.625578
0.493652	1.626290
0.493750	1.627431
0.493848	1.628652
0.493945	1.630033
0.494043	1.631394
0.494141	1.632967
0.494238	1.634386
0.494336	1.635752
0.494434	1.637074
0.494531	1.638291
0.494629	1.639405
0.494727	1.640239
0.494824	1.641112
0.494922	1.641588
0.495020	1.641601
0.495117	1.640724
0.495215	1.639288
0.495312	1.637747
0.495410	1.635572
0.495508	1.631517
0.495605	1.626483
0.495703	1.623681
0.495801	1.622616
0.495898	1.622696
0.495996	1.623355
0.496094	1.624362
0.496191	1.625753
0.496289	1.627415
0.496387	1.629541
0.496484	1.631804
0.496582	1.634283
0.496680	1.637144
0.496777	1.640046
0.496875	1.642982
0.496973	1.645946
0.497070	1.649458
0.497168	1.650292
0.497266	1.644882
0.497363	1.637965
0.497461	1.632332
0.497559	1.627466
0.497656	1.623270
0.497754	1.619751
0.497852	1.617287
0.497949	1.615711
0.498047	1.615202
0.498145	1.615323
0.498242	1.616369
0.498340	1.617656
0.498437	1.619614
0.498535	1.621258
0.498633	1.623559
0.498730	1.625503
0.498828	1.628012
0.498926	1.629717
0.499023	1.632576
0.499121	1.634123
0.499219	1.637654
0.499316	1.639548
0.499414	1.645036
0.499512	1.648180
0.499609	1.655282
0.499707	1.628301
0.499805	1.635409
0.499902	1.649995
0.500000	1.633910
0.500098	1.629595
0.500195	1.620907
0.500293	1.619052
0.500391	1.618787
0.500488	1.618468
0.500586	1.618463
0.500684	1.618605
0.500781	1.618519
0.500879	1.619609
0.500977	1.621235
0.501074	1.623445
0.501172	1.625714
0.501270	1.628069
0.501367	1.630305
0.501465	1.632318
0.501562	1.634105
0.501660	1.635555
0.501758	1.636568
0.501855	1.637247
0.501953	1.637609
0.502051	1.637292
0.502148	1.636207
0.502246	1.634706
0.502344	1.633192
0.502441	1.631549
0.502539	1.629472
0.502637	1.627599
0.502734	1.625795
0.502832	1.624714
0.502930	1.624069
0.503027	1.624143
0.503125	1.624726
0.503223	1.625668
0.503320	1.626899
0.503418	1.628319
0.503516	1.629933
0.503613	1.631707
0.503711	1.633326
0.503809	1.634911
0.503906	1.636335
0.504004	1.637461
0.504102	1.638248
0.504199	1.638538
0.504297	1.638444
0.504395	1.637948
0.504492	1.636803
0.504590	1.633876
0.504687	1.630265
0.504785	1.628060
0.504883	1.626418
0.504980	1.625119
0.505078	1.623975
0.505176	1.623327
0.505273	1.623090
0.505371	1.623314
0.505469	1.624113
0.505566	1.625303
0.505664	1.626808
0.505762	1.628567
0.505859	1.630468
0.505957	1.632494
0.506055	1.634791
0.506152	1.636915
0.506250	1.638864
0.506348	1.640359
0.506445	1.641028
0.506543	1.640928
0.506641	1.640334
0.506738	1.639295
0.506836	1.638939
0.506934	1.638678
0.507031	1.637967
0.507129	1.636971
0.507227	1.633502
0.507324	1.628360
0.507422	1.625640
0.507520	1.623464
0.507617	1.621197
0.507715	1.620311
0.507812	1.620481
0.507910	1.621431
0.508008	1.622752
0.508105	1.624472
0.508203	1.626500
0.508301	1.628562
0.508398	1.630777
0.508496	1.633053
0.508594	1.635346
0.508691	1.637304
0.508789	1.639077
0.508887	1.640268
0.508984	1.640932
0.509082	1.640931
0.509180	1.640524
0.509277	1.639778
0.509375	1.638831
0.509473	1.637906
0.509570	1.638112
0.509668	1.638381
0.509766	1.628790
0.509863	1.617819
0.509961	1.615195
0.510059	1.615637
0.510156	1.616716
0.510254	1.618192
0.510352	1.619945
0.510449	1.622028
0.510547	1.624228
0.510645	1.626581
0.510742	1.628927
0.510840	1.631217
0.510937	1.633527
0.511035	1.635365
0.511133	1.636713
0.511230	1.637466
0.511328	1.637601
0.511426	1.637166
0.511523	1.636227
0.511621	1.634712
0.511719	1.632857
0.511816	1.630694
0.511914	1.628539
0.512012	1.626366
0.512109	1.624568
0.512207	1.623134
0.512305	1.622606
0.512402	1.622436
0.512500	1.622781
0.512598	1.623595
0.512695	1.624619
0.512793	1.626031
0.512891	1.627583
0.512988	1.629438
0.513086	1.631434
0.513184	1.633408
0.513281	1.635426
0.513379	1.637291
0.513477	1.639178
0.513574	1.640708
0.513672	1.641409
0.513770	1.637899
0.513867	1.634189
0.513965	1.634578
0.514062	1.633056
0.514160	1.630284
0.514258	1.627153
0.514355	1.624954
0.514453	1.623414
0.514551	1.622559
0.514648	1.622128
0.514746	1.622264
0.514844	1.622811
0.514941	1.623604
0.515039	1.624671
0.515137	1.625943
0.515234	1.627530
0.515332	1.629108
0.515430	1.630875
0.515527	1.632552
0.515625	1.634211
0.515723	1.635786
0.515820	1.637332
0.515918	1.638439
0.516016	1.639157
0.516113	1.639533
0.516211	1.639085
0.516309	1.638138
0.516406	1.636355
0.516504	1.634313
0.516602	1.631964
0.516699	1.629864
0.516797	1.628214
0.516895	1.626858
0.516992	1.626064
0.517090	1.625622
0.517187	1.625658
0.517285	1.625781
0.517383	1.626461
0.517480	1.627333
0.517578	1.628581
0.517676	1.630047
0.517773	1.631717
0.517871	1.633751
0.517969	1.635921
0.518066	1.638250
0.518164	1.640228
0.518262	1.641936
0.518359	1.642757
0.518457	1.641893
0.518555	1.639324
0.518652	1.635574
0.518750	1.631779
0.518848	1.628555
0.518945	1.625933
0.519043	1.623957
0.519141	1.622437
0.519238	1.621575
0.519336	1.621146
0.519434	1.621118
0.519531	1.621489
0.519629	1.622241
0.519727	1.623229
0.519824	1.624429
0.519922	1.625851
0.520020	1.627539
0.520117	1.629524
0.520215	1.631714
0.520312	1.634096
0.520410	1.636654
0.520508	1.639335
0.520605	1.641607
0.520703	1.643366
0.520801	1.644289
0.520898	1.643704
0.520996	1.642775
0.521094	1.641855
0.521191	1.640990
0.521289	1.640066
0.521387	1.638641
0.521484	1.636525
0.521582	1.633752
0.521680	1.630507
0.521777	1.627286
0.521875	1.624631
0.521973	1.622823
0.522070	1.621977
0.522168	1.622094
0.522266	1.622818
0.522363	1.624094
0.522461	1.625778
0.522559	1.627686
0.522656	1.629940
0.522754	1.632228
0.522852	1.634634
0.522949	1.636903
0.523047	1.638853
0.523145	1.640436
0.523242	1.641590
0.523340	1.642269
0.523437	1.643120
0.523535	1.643475
0.523633	1.641307
0.523730	1.637061
0.523828	1.633379
0.523926	1.629786
0.524023	1.625876
0.524121	1.622652
0.524219	1.620727
0.524316	1.620181
0.524414	1.620995
0.524512	1.622036
0.524609	1.622909
0.524707	1.623893
0.524805	1.625105
0.524902	1.626623
0.525000	1.628434
0.525098	1.630268
0.525195	1.632170
0.525293	1.633952
0.525391	1.635658
0.525488	1.637056
0.525586	1.638327
0.525684	1.639063
0.525781	1.639290
0.525879	1.639063
0.525977	1.638333
0.526074	1.637122
0.526172	1.635262
0.526270	1.632905
0.526367	1.630201
0.526465	1.627680
0.526562	1.625658
0.526660	1.624332
0.526758	1.623799
0.526855	1.623618
0.526953	1.624034
0.527051	1.624917
0.527148	1.626156
0.527246	1.627591
0.527344	1.629282
0.527441	1.631198
0.527539	1.633301
0.527637	1.635505
0.527734	1.637552
0.527832	1.639791
0.527930	1.641748
0.528027	1.643544
0.528125	1.644904
0.528223	1.645650
0.528320	1.645002
0.528418	1.642576
0.528516	1.638908
0.528613	1.635169
0.528711	1.629956
0.528809	1.624700
0.528906	1.622038
0.529004	1.620906
0.529102	1.620062
0.529199	1.619244
0.529297	1.619187
0.529395	1.619833
0.529492	1.621049
0.529590	1.622707
0.529687	1.624576
0.529785	1.626740
0.529883	1.629073
0.529980	1.631490
0.530078	1.634228
0.530176	1.637026
0.530273	1.640171
0.530371	1.643354
0.530469	1.646269
0.530566	1.648133
0.530664	1.648612
0.530762	1.647402
0.530859	1.643695
0.530957	1.637078
0.531055	1.630919
0.531152	1.624764
0.531250	1.621120
0.531348	1.601481
0.531445	1.561914
0.531543	1.585920
0.531641	1.602448
0.531738	1.611968
0.531836	1.615949
0.531934	1.614970
0.532031	1.618524
0.532129	1.622056
0.532227	1.625715
0.532324	1.628767
0.532422	1.631660
0.532520	1.634116
0.532617	1.636350
0.532715	1.637925
0.532812	1.639005
0.532910	1.639414
0.533008	1.638956
0.533105	1.637714
0.533203	1.636148
0.533301	1.634628
0.533398	1.632804
0.533496	1.631724
0.533594	1.627948
0.533691	1.623682
0.533789	1.622129
0.533887	1.620980
0.533984	1.620726
0.534082	1.620999
0.534180	1.621974
0.534277	1.623181
0.534375	1.624684
0.534473	1.626393
0.534570	1.628136
0.534668	1.630047
0.534766	1.632023
0.534863	1.633815
0.534961	1.635611
0.535059	1.637483
0.535156	1.639211
0.535254	1.640829
0.535352	1.642431
0.535449	1.643512
0.535547	1.643374
0.535645	1.641931
0.535742	1.638261
0.535840	1.634132
0.535937	1.630669
0.536035	1.627445
0.536133	1.625072
0.536230	1.623552
0.536328	1.622948
0.536426	1.623080
0.536523	1.623746
0.536621	1.624776
0.536719	1.626152
0.536816	1.627803
0.536914	1.629672
0.537012	1.631843
0.537109	1.634302
0.537207	1.636754
0.537305	1.639021
0.537402	1.641438
0.537500	1.643466
0.537598	1.645980
0.537695	1.648498
0.537793	1.652457
0.537891	1.654403
0.537988	1.648418
0.538086	1.638759
0.538184	1.622797
0.538281	1.615804
0.538379	1.612861
0.538477	1.613095
0.538574	1.614972
0.538672	1.617014
0.538770	1.617486
0.538867	1.617702
0.538965	1.618467
0.539062	1.620160
0.539160	1.622227
0.539258	1.624508
0.539355	1.626818
0.539453	1.629115
0.539551	1.631435
0.539648	1.633853
0.539746	1.636383
0.539844	1.638751
0.539941	1.640902
0.540039	1.642917
0.540137	1.644534
0.540234	1.646007
0.540332	1.645896
0.540430	1.640595
0.540527	1.633211
0.540625	1.629102
0.540723	1.626376
0.540820	1.624461
0.540918	1.623017
0.541016	1.622052
0.541113	1.621352
0.541211	1.621109
0.541309	1.621399
0.541406	1.622207
0.541504	1.623484
0.541602	1.624997
0.541699	1.626822
0.541797	1.628698
0.541895	1.630770
0.541992	1.632887
0.542090	1.635215
0.542187	1.637249
0.542285	1.639285
0.542383	1.640879
0.542480	1.641937
0.542578	1.642120
0.542676	1.640999
0.542773	1.639037
0.542871	1.636384
0.542969	1.633127
0.543066	1.629342
0.543164	1.625878
0.543262	1.623237
0.543359	1.621459
0.543457	1.620538
0.543555	1.620382
0.543652	1.620782
0.543750	1.621556
0.543848	1.622838
0.543945	1.624361
0.544043	1.625947
0.544141	1.627716
0.544238	1.629526
0.544336	1.631485
0.544434	1.633405
0.544531	1.635095
0.544629	1.636680
0.544727	1.637970
0.544824	1.638925
0.544922	1.639436
0.545020	1.639514
0.545117	1.638883
0.545215	1.637246
0.545312	1.634776
0.545410	1.631844
0.545508	1.628933
0.545605	1.626440
0.545703	1.624831
0.545801	1.623766
0.545898	1.623508
0.545996	1.623563
0.546094	1.624069
0.546191	1.624899
0.546289	1.626027
0.546387	1.627300
0.546484	1.628863
0.546582	1.630503
0.546680	1.632587
0.546777	1.634626
0.546875	1.637230
0.546973	1.640223
0.547070	1.643387
0.547168	1.645890
0.547266	1.648578
0.547363	1.651491
0.547461	1.643253
0.547559	1.610699
0.547656	1.592532
0.547754	1.632527
0.547852	1.635696
0.547949	1.618209
0.548047	1.614371
0.548145	1.610442
0.548242	1.608847
0.548340	1.610393
0.548437	1.612486
0.548535	1.615609
0.548633	1.618390
0.548730	1.621734
0.548828	1.624584
0.548926	1.627633
0.549023	1.630462
0.549121	1.633217
0.549219	1.635555
0.549316	1.637709
0.549414	1.638999
0.549512	1.639817
0.549609	1.639861
0.549707	1.639357
0.549805	1.638477
0.549902	1.637565
0.550000	1.637247
0.550098	1.637234
0.550195	1.634121
0.550293	1.629954
0.550391	1.626765
0.550488	1.623789
0.550586	1.624629
0.550684	1.625714
0.550781	1.623942
0.550879	1.622318
0.550977	1.622409
0.551074	1.623406
0.551172	1.624898
0.551270	1.626639
0.551367	1.628469
0.551465	1.630456
0.551562	1.632291
0.551660	1.634244
0.551758	1.635787
0.551855	1.637106
0.551953	1.637887
0.552051	1.638113
0.552148	1.637839
0.552246	1.636911
0.552344	1.635753
0.552441	1.634479
0.552539	1.633214
0.552637	1.631766
0.552734	1.630251
0.552832	1.628281
0.552930	1.626012
0.553027	1.623860
0.553125	1.622671
0.553223	1.622428
0.553320	1.623018
0.553418	1.624079
0.553516	1.625440
0.553613	1.627108
0.553711	1.628839
0.553809	1.630850
0.553906	1.632875
0.554004	1.635176
0.554102	1.637668
0.554199	1.640371
0.554297	1.643342
0.554395	1.646295
0.554492	1.647845
0.554590	1.646215
0.554687	1.642294
0.554785	1.639111
0.554883	1.637890
0.554980	1.639130
0.555078	1.634193
0.555176	1.624923
0.555273	1.620164
0.555371	1.617049
0.555469	1.616292
0.555566	1.616546
0.555664	1.617575
0.555762	1.618851
0.555859	1.620632
0.555957	1.622422
0.556055	1.624460
0.556152	1.626545
0.556250	1.628696
0.556348	1.630839
0.556445	1.632843
0.556543	1.634628
0.556641	1.636021
0.556738	1.636967
0.556836	1.637123
0.556934	1.636265
0.557031	1.634833
0.557129	1.633035
0.557227	1.631228
0.557324	1.629515
0.557422	1.627837
0.557520	1.626295
0.557617	1.624970
0.557715	1.624163
0.557812	1.623671
0.557910	1.623786
0.558008	1.624252
0.558105	1.625091
0.558203	1.626290
0.558301	1.627668
0.558398	1.629216
0.558496	1.631030
0.558594	1.632965
0.558691	1.634841
0.558789	1.636865
0.558887	1.638552
0.558984	1.640054
0.559082	1.641087
0.559180	1.641503
0.559277	1.641458
0.559375	1.640898
0.559473	1.639712
0.559570	1.638390
0.559668	1.636499
0.559766	1.633825
0.559863	1.631091
0.559961	1.628389
0.560059	1.626046
0.560156	1.624236
0.560254	1.623292
0.560352	1.623128
0.560449	1.623483
0.560547	1.624352
0.560645	1.625749
0.560742	1.627374
0.560840	1.629342
0.560937	1.631235
0.561035	1.633402
0.561133	1.635469
0.561230	1.637216
0.561328	1.638751
0.561426	1.639688
0.561523	1.640151
0.561621	1.640057
0.561719	1.639064
0.561816	1.637692
0.561914	1.636081
0.562012	1.634160
0.562109	1.631912
0.562207	1.629707
0.562305	1.628043
0.562402	1.626588
0.562500	1.625656
0.562598	1.625061
0.562695	1.624610
0.562793	1.624456
0.562891	1.624802
0.562988	1.625416
0.563086	1.626474
0.563184	1.627800
0.563281	1.629363
0.563379	1.631322
0.563477	1.633491
0.563574	1.636023
0.563672	1.638857
0.563770	1.641684
0.563867	1.644472
0.563965	1.646801
0.564062	1.648967
0.564160	1.650932
0.564258	1.651161
0.564355	1.645387
0.564453	1.639740
0.564551	1.636882
0.564648	1.632276
0.564746	1.626567
0.564844	1.622383
0.564941	1.617874
0.565039	1.613579
0.565137	1.611737
0.565234	1.612000
0.565332	1.613608
0.565430	1.615870
0.565527	1.618533
0.565625	1.621315
0.565723	1.624167
0.565820	1.626972
0.565918	1.629786
0.566016	1.632701
0.566113	1.635440
0.566211	1.638352
0.566309	1.640903
0.566406	1.642746
0.566504	1.643168
0.566602	1.643048
0.566699	1.641918
0.566797	1.639657
0.566895	1.636206
0.566992	1.633138
0.567090	1.631458
0.567187	1.630094
0.567285	1.628154
0.567383	1.625072
0.567480	1.622605
0.567578	1.621251
0.567676	1.620842
0.567773	1.621208
0.567871	1.622160
0.567969	1.623734
0.568066	1.625515
0.568164	1.627539
0.568262	1.629833
0.568359	1.632330
0.568457	1.634888
0.568555	1.637543
0.568652	1.640317
0.568750	1.642701
0.568848	1.644095
0.568945	1.644207
0.569043	1.641979
0.569141	1.639036
0.569238	1.635702
0.569336	1.631890
0.569434	1.627862
0.569531	1.625105
0.569629	1.623140
0.569727	1.622045
0.569824	1.621177
0.569922	1.621144
0.570020	1.620989
0.570117	1.622231
0.570215	1.622849
0.570312	1.624805
0.570410	1.625645
0.570508	1.628462
0.570605	1.629404
0.570703	1.633048
0.570801	1.633941
0.570898	1.639057
0.570996	1.640457
0.571094	1.651607
0.571191	1.653867
0.571289	1.659787
0.571387	1.653008
0.571484	1.636522
0.571582	1.637881
0.571680	1.624795
0.571777	1.633127
0.571875	1.631093
0.571973	1.614936
0.572070	1.608600
0.572168	1.612904
0.572266	1.614135
0.572363	1.617124
0.572461	1.618204
0.572559	1.620728
0.572656	1.622115
0.572754	1.624646
0.572852	1.626426
0.572949	1.628803
0.573047	1.630902
0.573145	1.633417
0.573242	1.635466
0.573340	1.637718
0.573437	1.639590
0.573535	1.641039
0.573633	1.642429
0.573730	1.643218
0.573828	1.642695
0.573926	1.640796
0.574023	1.638662
0.574121	1.636884
0.574219	1.636171
0.574316	1.634922
0.574414	1.629741
0.574512	1.622738
0.574609	1.618099
0.574707	1.615941
0.574805	1.616305
0.574902	1.617782
0.575000	1.619925
0.575098	1.622154
0.575195	1.624472
0.575293	1.626911
0.575391	1.629018
0.575488	1.631002
0.575586	1.632817
0.575684	1.634386
0.575781	1.635502
0.575879	1.636290
0.575977	1.636581
0.576074	1.636586
0.576172	1.636067
0.576270	1.635017
0.576367	1.633402
0.576465	1.631675
0.576562	1.629927
0.576660	1.628388
0.576758	1.627369
0.576855	1.626984
0.576953	1.626750
0.577051	1.626043
0.577148	1.624616
0.577246	1.624135
0.577344	1.624840
0.577441	1.626243
0.577539	1.627867
0.577637	1.629437
0.577734	1.631146
0.577832	1.632807
0.577930	1.634274
0.578027	1.635602
0.578125	1.636568
0.578223	1.637211
0.578320	1.637450
0.578418	1.637266
0.578516	1.636886
0.578613	1.636213
0.578711	1.635494
0.578809	1.634662
0.578906	1.633782
0.579004	1.632812
0.579102	1.631956
0.579199	1.630988
0.579297	1.629590
0.579395	1.628294
0.579492	1.627484
0.579590	1.627292
0.579687	1.627535
0.579785	1.627943
0.579883	1.628734
0.579980	1.629776
0.580078	1.631029
0.580176	1.632573
0.580273	1.634403
0.580371	1.636253
0.580469	1.637678
0.580566	1.638481
0.580664	1.638551
0.580762	1.637954
0.580859	1.636537
0.580957	1.634345
0.581055	1.631527
0.581152	1.629225
0.581250	1.627506
0.581348	1.626359
0.581445	1.625317
0.581543	1.624254
0.581641	1.623284
0.581738	1.622694
0.581836	1.622729
0.581934	1.623258
0.582031	1.624151
0.582129	1.625261
0.582227	1.626707
0.582324	1.628366
0.582422	1.630055
0.582520	1.631851
0.582617	1.633540
0.582715	1.635113
0.582812	1.636535
0.582910	1.637629
0.583008	1.638411
0.583105	1.638937
0.583203	1.639040
0.583301	1.638379
0.583398	1.636065
0.583496	1.632259
0.583594	1.629689
0.583691	1.627546
0.583789	1.625483
0.583887	1.624019
0.583984	1.622947
0.584082	1.622298
0.584180	1.622241
0.584277	1.622575
0.584375	1.623409
0.584473	1.624566
0.584570	1.625911
0.584668	1.627636
0.584766	1.629422
0.584863	1.631458
0.584961	1.633648
0.585059	1.636179
0.585156	1.638731
0.585254	1.640993
0.585352	1.642730
0.585449	1.643718
0.585547	1.644152
0.585645	1.643376
0.585742	1.640759
0.585840	1.637694
0.585937	1.635012
0.586035	1.631398
0.586133	1.627913
0.586230	1.624703
0.586328	1.622086
0.586426	1.620328
0.586523	1.619345
0.586621	1.619396
0.586719	1.619845
0.586816	1.620972
0.586914	1.622447
0.587012	1.624371
0.587109	1.626293
0.587207	1.628533
0.587305	1.630655
0.587402	1.632821
0.587500	1.634696
0.587598	1.636414
0.587695	1.637499
0.587793	1.637948
0.587891	1.637910
0.587988	1.637235
0.588086	1.636195
0.588184	1.634670
0.588281	1.632646
0.588379	1.630263
0.588477	1.627946
0.588574	1.625916
0.588672	1.624274
0.588770	1.623267
0.588867	1.622727
0.588965	1.622732
0.589062	1.623312
0.589160	1.624180
0.589258	1.625357
0.589355	1.626810
0.589453	1.628550
0.589551	1.630278
0.589648	1.632286
0.589746	1.634290
0.589844	1.636290
0.589941	1.638028
0.590039	1.639326
0.590137	1.640363
0.590234	1.640829
0.590332	1.640727
0.590430	1.639312
0.590527	1.637172
0.590625	1.634603
0.590723	1.631978
0.590820	1.629153
0.590918	1.626587
0.591016	1.624404
0.591113	1.622617
0.591211	1.621470
0.591309	1.621060
0.591406	1.621377
0.591504	1.622293
0.591602	1.623657
0.591699	1.625456
0.591797	1.627473
0.591895	1.629702
0.591992	1.632075
0.592090	1.634631
0.592187	1.637195
0.592285	1.639673
0.592383	1.642065
0.592480	1.643618
0.592578	1.643636
0.592676	1.642147
0.592773	1.640817
0.592871	1.641527
0.592969	1.634069
0.593066	1.627798
0.593164	1.626406
0.593262	1.625596
0.593359	1.622788
0.593457	1.618962
0.593555	1.617570
0.593652	1.617323
0.593750	1.618597
0.593848	1.620092
0.593945	1.621847
0.594043	1.623661
0.594141	1.625568
0.594238	1.627548
0.594336	1.629689
0.594434	1.631802
0.594531	1.634117
0.594629	1.636219
0.594727	1.638395
0.594824	1.640236
0.594922	1.641887
0.595020	1.643033
0.595117	1.643263
0.595215	1.642172
0.595312	1.639486
0.595410	1.635930
0.595508	1.632449
0.595605	1.629826
0.595703	1.627466
0.595801	1.625247
0.595898	1.623276
0.595996	1.621720
0.596094	1.621087
0.596191	1.621044
0.596289	1.621507
0.596387	1.622353
0.596484	1.623444
0.596582	1.624764
0.596680	1.626259
0.596777	1.628114
0.596875	1.629917
0.596973	1.631802
0.597070	1.633739
0.597168	1.635469
0.597266	1.636818
0.597363	1.637720
0.597461	1.638172
0.597559	1.638051
0.597656	1.637490
0.597754	1.636483
0.597852	1.635047
0.597949	1.633211
0.598047	1.631315
0.598145	1.629382
0.598242	1.627401
0.598340	1.625769
0.598437	1.624517
0.598535	1.623756
0.598633	1.623370
0.598730	1.623607
0.598828	1.624204
0.598926	1.625202
0.599023	1.626559
0.599121	1.628174
0.599219	1.630132
0.599316	1.632144
0.599414	1.634357
0.599512	1.636542
0.599609	1.638713
0.599707	1.640710
0.599805	1.642132
0.599902	1.642865
0.600000	1.642626
0.600098	1.641545
0.600195	1.639681
0.600293	1.637461
0.600391	1.634697
0.600488	1.631667
0.600586	1.628498
0.600684	1.625373
0.600781	1.622821
0.600879	1.621299
0.600977	1.620734
0.601074	1.620823
0.601172	1.621595
0.601270	1.622805
0.601367	1.624265
0.601465	1.626061
0.601562	1.627809
0.601660	1.629780
0.601758	1.631783
0.601855	1.633705
0.601953	1.635533
0.602051	1.637447
0.602148	1.638910
0.602246	1.640206
0.602344	1.640778
0.602441	1.640700
0.602539	1.639984
0.602637	1.638542
0.602734	1.636357
0.602832	1.633216
0.602930	1.629768
0.603027	1.626507
0.603125	1.623653
0.603223	1.621590
0.603320	1.620562
0.603418	1.620381
0.603516	1.620828
0.603613	1.621774
0.603711	1.623208
0.603809	1.624744
0.603906	1.626551
0.604004	1.628379
0.604102	1.630603
0.604199	1.632748
0.604297	1.635470
0.604395	1.637756
0.604492	1.640787
0.604590	1.643398
0.604687	1.646278
0.604785	1.649353
0.604883	1.649189
0.604980	1.640002
0.605078	1.644711
0.605176	1.643038
0.605273	1.635094
0.605371	1.636029
0.605469	1.630398
0.605566	1.621932
0.605664	1.607967
0.605762	1.600373
0.605859	1.600470
0.605957	1.604957
0.606055	1.608552
0.606152	1.613068
0.606250	1.616571
0.606348	1.620404
0.606445	1.623352
0.606543	1.626559
0.606641	1.629083
0.606738	1.631854
0.606836	1.634255
0.606934	1.636629
0.607031	1.638936
0.607129	1.640937
0.607227	1.642439
0.607324	1.643296
0.607422	1.643065
0.607520	1.641152
0.607617	1.637560
0.607715	1.633471
0.607812	1.629062
0.607910	1.625112
0.608008	1.622249
0.608105	1.620392
0.608203	1.619380
0.608301	1.619104
0.608398	1.619521
0.608496	1.620543
0.608594	1.622023
0.608691	1.623752
0.608789	1.625816
0.608887	1.628051
0.608984	1.630339
0.609082	1.632799
0.609180	1.635217
0.609277	1.637514
0.609375	1.639375
0.609473	1.640889
0.609570	1.641884
0.609668	1.642133
0.609766	1.641458
0.609863	1.639725
0.609961	1.636910
0.610059	1.633540
0.610156	1.630691
0.610254	1.628423
0.610352	1.626743
0.610449	1.625471
0.610547	1.623679
0.610645	1.621553
0.610742	1.619749
0.610840	1.619921
0.610937	1.621227
0.611035	1.623162
0.611133	1.625171
0.611230	1.627270
0.611328	1.629595
0.611426	1.631999
0.611523	1.634449
0.611621	1.637089
0.611719	1.639533
0.611816	1.641711
0.611914	1.643070
0.612012	1.643507
0.612109	1.642675
0.612207	1.641270
0.612305	1.639096
0.612402	1.635324
0.612500	1.632469
0.612598	1.630021
0.612695	1.627301
0.612793	1.625141
0.612891	1.623195
0.612988	1.621991
0.613086	1.621423
0.613184	1.621326
0.613281	1.621945
0.613379	1.623031
0.613477	1.624420
0.613574	1.626029
0.613672	1.627897
0.613770	1.629753
0.613867	1.631716
0.613965	1.633646
0.614062	1.635503
0.614160	1.637299
0.614258	1.638959
0.614355	1.640154
0.614453	1.641089
0.614551	1.641038
0.614648	1.639852
0.614746	1.637568
0.614844	1.634650
0.614941	1.631644
0.615039	1.628868
0.615137	1.626251
0.615234	1.624331
0.615332	1.623146
0.615430	1.622616
0.615527	1.622876
0.615625	1.623617
0.615723	1.624906
0.615820	1.626481
0.615918	1.628297
0.616016	1.630375
0.616113	1.632416
0.616211	1.634327
0.616309	1.636149
0.616406	1.637565
0.616504	1.638363
0.616602	1.638637
0.616699	1.638351
0.616797	1.637641
0.616895	1.636513
0.616992	1.635106
0.617090	1.633427
0.617187	1.631088
0.617285	1.628485
0.617383	1.626175
0.617480	1.624234
0.617578	1.622893
0.617676	1.622188
0.617773	1.622030
0.617871	1.622594
0.617969	1.623399
0.618066	1.624750
0.618164	1.626246
0.618262	1.628068
0.618359	1.630014
0.618457	1.632209
0.618555	1.634328
0.618652	1.636916
0.618750	1.639141
0.618848	1.641849
0.618945	1.643623
0.619043	1.645780
0.619141	1.645396
0.619238	1.650110
0.619336	1.639946
0.619434	1.628868
0.619531	1.631533
0.619629	1.628522
0.619727	1.625460
0.619824	1.625942
0.619922	1.616926
0.620020	1.617849
0.620117	1.617057
0.620215	1.618409
0.620312	1.619325
0.620410	1.621251
0.620508	1.622808
0.620605	1.625142
0.620703	1.627106
0.620801	1.629439
0.620898	1.631343
0.620996	1.633292
0.621094	1.634420
0.621191	1.634983
0.621289	1.634781
0.621387	1.634047
0.621484	1.633001
0.621582	1.631949
0.621680	1.630854
0.621777	1.630117
0.621875	1.629525
0.621973	1.629141
0.622070	1.628638
0.622168	1.627733
0.622266	1.626843
0.622363	1.626290
0.622461	1.626173
0.622559	1.626360
0.622656	1.626876
0.622754	1.627831
0.622852	1.629179
0.622949	1.630641
0.623047	1.632375
0.623145	1.634335
0.623242	1.636372
0.623340	1.638421
0.623437	1.640233
0.623535	1.641900
0.623633	1.642926
0.623730	1.643171
0.623828	1.642120
0.623926	1.639031
0.624023	1.635543
0.624121	1.631995
0.624219	1.628030
0.624316	1.625043
0.624414	1.623443
0.624512	1.622080
0.624609	1.621182
0.624707	1.620692
0.624805	1.620704
0.624902	1.621188
0.625000	1.622247
0.625098	1.623770
0.625195	1.625561
0.625293	1.627685
0.625391	1.630043
0.625488	1.632455
0.625586	1.634979
0.625684	1.637615
0.625781	1.639954
0.625879	1.641906
0.625977	1.642793
0.626074	1.642383
0.626172	1.639532
0.626270	1.636094
0.626367	1.633438
0.626465	1.631289
0.626562	1.629009
0.626660	1.626547
0.626758	1.624463
0.626855	1.622821
0.626953	1.621786
0.627051	1.621539
0.627148	1.621772
0.627246	1.622314
0.627344	1.623263
0.627441	1.624375
0.627539	1.625827
0.627637	1.627283
0.627734	1.629083
0.627832	1.630897
0.627930	1.632972
0.628027	1.635202
0.628125	1.637566
0.628223	1.640081
0.628320	1.642620
0.628418	1.644949
0.628516	1.646738
0.628613	1.647580
0.628711	1.647740
0.628809	1.644144
0.628906	1.636642
0.629004	1.630249
0.629102	1.625569
0.629199	1.622098
0.629297	1.619720
0.629395	1.618506
0.629492	1.617932
0.629590	1.617891
0.629687	1.618421
0.629785	1.619405
0.629883	1.620759
0.629980	1.622802
0.630078	1.625006
0.630176	1.627561
0.630273	1.630082
0.630371	1.632713
0.630469	1.635123
0.630566	1.637213
0.630664	1.638888
0.630762	1.639839
0.630859	1.640117
0.630957	1.639522
0.631055	1.638239
0.631152	1.636279
0.631250	1.634050
0.631348	1.631870
0.631445	1.629955
0.631543	1.628314
0.631641	1.626544
0.631738	1.625027
0.631836	1.623762
0.631934	1.623101
0.632031	1.622945
0.632129	1.623339
0.632227	1.624279
0.632324	1.625264
0.632422	1.626835
0.632520	1.628488
0.632617	1.630255
0.632715	1.632131
0.632812	1.634221
0.632910	1.636312
0.633008	1.638427
0.633105	1.640345
0.633203	1.641689
0.633301	1.641993
0.633398	1.641303
0.633496	1.639827
0.633594	1.638164
0.633691	1.636469
0.633789	1.633608
0.633887	1.632375
0.633984	1.635716
0.634082	1.624392
0.634180	1.623127
0.634277	1.621828
0.634375	1.619853
0.634473	1.619398
0.634570	1.620142
0.634668	1.621478
0.634766	1.623058
0.634863	1.624994
0.634961	1.627032
0.635059	1.629222
0.635156	1.631431
0.635254	1.633664
0.635352	1.635724
0.635449	1.637497
0.635547	1.638973
0.635645	1.640059
0.635742	1.640166
0.635840	1.639016
0.635937	1.636765
0.636035	1.633806
0.636133	1.630106
0.636230	1.626916
0.636328	1.624274
0.636426	1.622733
0.636523	1.621770
0.636621	1.621786
0.636719	1.621949
0.636816	1.622871
0.636914	1.623636
0.637012	1.625308
0.637109	1.626521
0.637207	1.628765
0.637305	1.630049
0.637402	1.632780
0.637500	1.634053
0.637598	1.637362
0.637695	1.638166
0.637793	1.641787
0.637891	1.640763
0.637988	1.643176
0.638086	1.639217
0.638184	1.653762
0.638281	1.643058
0.638379	1.622610
0.638477	1.630928
0.638574	1.623815
0.638672	1.623369
0.638770	1.619111
0.638867	1.619414
0.638965	1.617732
0.639062	1.619167
0.639160	1.619332
0.639258	1.621507
0.639355	1.622659
0.639453	1.625044
0.639551	1.626770
0.639648	1.629101
0.639746	1.631116
0.639844	1.633502
0.639941	1.635416
0.640039	1.637763
0.640137	1.639828
0.640234	1.642115
0.640332	1.643266
0.640430	1.642062
0.640527	1.639843
0.640625	1.638662
0.640723	1.636229
0.640820	1.633618
0.640918	1.632051
0.641016	1.630768
0.641113	1.628216
0.641211	1.624685
0.641309	1.622143
0.641406	1.621050
0.641504	1.620966
0.641602	1.621543
0.641699	1.622565
0.641797	1.623824
0.641895	1.625308
0.641992	1.627110
0.642090	1.629022
0.642187	1.631004
0.642285	1.633105
0.642383	1.635398
0.642480	1.637604
0.642578	1.639934
0.642676	1.642336
0.642773	1.645113
0.642871	1.648575
0.642969	1.652789
0.643066	1.653694
0.643164	1.648158
0.643262	1.635723
0.643359	1.627663
0.643457	1.624435
0.643555	1.621653
0.643652	1.619566
0.643750	1.617783
0.643848	1.616902
0.643945	1.616688
0.644043	1.617185
0.644141	1.618238
0.644238	1.619601
0.644336	1.621384
0.644434	1.623319
0.644531	1.625461
0.644629	1.627676
0.644727	1.629895
0.644824	1.632201
0.644922	1.634395
0.645020	1.636510
0.645117	1.638376
0.645215	1.639944
0.645312	1.640913
0.645410	1.641195
0.645508	1.641171
0.645605	1.641085
0.645703	1.640442
0.645801	1.637266
0.645898	1.631545
0.645996	1.627460
0.646094	1.625009
0.646191	1.622988
0.646289	1.621399
0.646387	1.620914
0.646484	1.621305
0.646582	1.622197
0.646680	1.623328
0.646777	1.624684
0.646875	1.626086
0.646973	1.627618
0.647070	1.629376
0.647168	1.631147
0.647266	1.632920
0.647363	1.634518
0.647461	1.636151
0.647559	1.637636
0.647656	1.639025
0.647754	1.640187
0.647852	1.640901
0.647949	1.640959
0.648047	1.639368
0.648145	1.636715
0.648242	1.634710
0.648340	1.632580
0.648437	1.630511
0.648535	1.628600
0.648633	1.627463
0.648730	1.626338
0.648828	1.624388
0.648926	1.622717
0.649023	1.622263
0.649121	1.622901
0.649219	1.624369
0.649316	1.626249
0.649414	1.628382
0.649512	1.630703
0.649609	1.633044
0.649707	1.635366
0.649805	1.637600
0.649902	1.639737
0.650000	1.641427
0.650098	1.642673
0.650195	1.642714
0.650293	1.641119
0.650391	1.638286
0.650488	1.634546
0.650586	1.630876
0.650684	1.627898
0.650781	1.625385
0.650879	1.623294
0.650977	1.621831
0.651074	1.620994
0.651172	1.620826
0.651270	1.621085
0.651367	1.621936
0.651465	1.623078
0.651562	1.624562
0.651660	1.626383
0.651758	1.628335
0.651855	1.630604
0.651953	1.633024
0.652051	1.635672
0.652148	1.638296
0.652246	1.640951
0.652344	1.642717
0.652441	1.642641
0.652539	1.640862
0.652637	1.640231
0.652734	1.636193
0.652832	1.632075
0.652930	1.629506
0.653027	1.626168
0.653125	1.623892
0.653223	1.622093
0.653320	1.621089
0.653418	1.620575
0.653516	1.620732
0.653613	1.621226
0.653711	1.622289
0.653809	1.623563
0.653906	1.625175
0.654004	1.626895
0.654102	1.628860
0.654199	1.630979
0.654297	1.633328
0.654395	1.635667
0.654492	1.638117
0.654590	1.640337
0.654687	1.642109
0.654785	1.642572
0.654883	1.641125
0.654980	1.638403
0.655078	1.635575
0.655176	1.632375
0.655273	1.629258
0.655371	1.627137
0.655469	1.626022
0.655566	1.625923
0.655664	1.626156
0.655762	1.625783
0.655859	1.624478
0.655957	1.622945
0.656055	1.622467
0.656152	1.622930
0.656250	1.623881
0.656348	1.625191
0.656445	1.626505
0.656543	1.628349
0.656641	1.630127
0.656738	1.632137
0.656836	1.633931
0.656934	1.635609
0.657031	1.637122
0.657129	1.638202
0.657227	1.638487
0.657324	1.638206
0.657422	1.637198
0.657520	1.635752
0.657617	1.634014
0.657715	1.631887
0.657812	1.629310
0.657910	1.626773
0.658008	1.624706
0.658105	1.623284
0.658203	1.622447
0.658301	1.622098
0.658398	1.622154
0.658496	1.622838
0.658594	1.623868
0.658691	1.625132
0.658789	1.626782
0.658887	1.628624
0.658984	1.630462
0.659082	1.632701
0.659180	1.634946
0.659277	1.637180
0.659375	1.639066
0.659473	1.640505
0.659570	1.641117
0.659668	1.641023
0.659766	1.640224
0.659863	1.638695
0.659961	1.636671
0.660059	1.634029
0.660156	1.631071
0.660254	1.628091
0.660352	1.625722
0.660449	1.623807
0.660547	1.622641
0.660645	1.621767
0.660742	1.621425
0.660840	1.621674
0.660937	1.622425
0.661035	1.623643
0.661133	1.625068
0.661230	1.626953
0.661328	1.628790
0.661426	1.630832
0.661523	1.632757
0.661621	1.634507
0.661719	1.635936
0.661816	1.636994
0.661914	1.637675
0.662012	1.637835
0.662109	1.637226
0.662207	1.635478
0.662305	1.634205
0.662402	1.631270
0.662500	1.625271
0.662598	1.624397
0.662695	1.622960
0.662793	1.621964
0.662891	1.621413
0.662988	1.621203
0.663086	1.621404
0.663184	1.621964
0.663281	1.623084
0.663379	1.624330
0.663477	1.626007
0.663574	1.627789
0.663672	1.629790
0.663770	1.631922
0.663867	1.634160
0.663965	1.636235
0.664062	1.638243
0.664160	1.639974
0.664258	1.641288
0.664355	1.641810
0.664453	1.641416
0.664551	1.640088
0.664648	1.636769
0.664746	1.632179
0.664844	1.628993
0.664941	1.626707
0.665039	1.624768
0.665137	1.623337
0.665234	1.622465
0.665332	1.622107
0.665430	1.622257
0.665527	1.622927
0.665625	1.623836
0.665723	1.625067
0.665820	1.626576
0.665918	1.628016
0.666016	1.629670
0.666113	1.631239
0.666211	1.632707
0.666309	1.634135
0.666406	1.635207
0.666504	1.636070
0.666602	1.636550
0.666699	1.636552
0.666797	1.636074
0.666895	1.635088
0.666992	1.633808
0.667090	1.632007
0.667187	1.629909
0.667285	1.627721
0.667383	1.625787
0.667480	1.624150
0.667578	1.623344
0.667676	1.622976
0.667773	1.623214
0.667871	1.623738
0.667969	1.624665
0.668066	1.625773
0.668164	1.627048
0.668262	1.628490
0.668359	1.630066
0.668457	1.631613
0.668555	1.633175
0.668652	1.634731
0.668750	1.636085
0.668848	1.637015
0.668945	1.637632
0.669043	1.637612
0.669141	1.636920
0.669238	1.635898
0.669336	1.634609
0.669434	1.633206
0.669531	1.631838
0.669629	1.630357
0.669727	1.629098
0.669824	1.627935
0.669922	1.627017
0.670020	1.626393
0.670117	1.626177
0.670215	1.626316
0.670312	1.626760
0.670410	1.627651
0.670508	1.628793
0.670605	1.630187
0.670703	1.631983
0.670801	1.633967
0.670898	1.636059
0.670996	1.638338
0.671094	1.640482
0.671191	1.642304
0.671289	1.643690
0.671387	1.644747
0.671484	1.645765
0.671582	1.645551
0.671680	1.641314
0.671777	1.635156
0.671875	1.630790
0.671973	1.628897
0.672070	1.629952
0.672168	1.621521
0.672266	1.615569
0.672363	1.615457
0.672461	1.616056
0.672559	1.617526
0.672656	1.618967
0.672754	1.621080
0.672852	1.622932
0.672949	1.625258
0.673047	1.627361
0.673145	1.630287
0.673242	1.632745
0.673340	1.636320
0.673437	1.639479
0.673535	1.643846
0.673633	1.647714
0.673730	1.652562
0.673828	1.653245
0.673926	1.647532
0.674023	1.638349
0.674121	1.631580
0.674219	1.601297
0.674316	1.549034
0.674414	1.502943
0.674512	1.542389
0.674609	1.607867
0.674707	1.629360
0.674805	1.627793
0.674902	1.615998
0.675000	1.613062
0.675098	1.610223
0.675195	1.611829
0.675293	1.613584
0.675391	1.617243
0.675488	1.619965
0.675586	1.623272
0.675684	1.625579
0.675781	1.628403
0.675879	1.630233
0.675977	1.632417
0.676074	1.633805
0.676172	1.635180
0.676270	1.635998
0.676367	1.636714
0.676465	1.637078
0.676562	1.637219
0.676660	1.636948
0.676758	1.636198
0.676855	1.634648
0.676953	1.632500
0.677051	1.630178
0.677148	1.627873
0.677246	1.625962
0.677344	1.624679
0.677441	1.624103
0.677539	1.624100
0.677637	1.624638
0.677734	1.625520
0.677832	1.626893
0.677930	1.628371
0.678027	1.630073
0.678125	1.631942
0.678223	1.633925
0.678320	1.636020
0.678418	1.638032
0.678516	1.639847
0.678613	1.641491
0.678711	1.642689
0.678809	1.643198
0.678906	1.642746
0.679004	1.640181
0.679102	1.636046
0.679199	1.631763
0.679297	1.628328
0.679395	1.625914
0.679492	1.624202
0.679590	1.622981
0.679687	1.622363
0.679785	1.622411
0.679883	1.622862
0.679980	1.623548
0.680078	1.624498
0.680176	1.625673
0.680273	1.627101
0.680371	1.628742
0.680469	1.630653
0.680566	1.632703
0.680664	1.634748
0.680762	1.636614
0.680859	1.638061
0.680957	1.639013
0.681055	1.639636
0.681152	1.639478
0.681250	1.639196
0.681348	1.638767
0.681445	1.641122
0.681543	1.644738
0.681641	1.636217
0.681738	1.628142
0.681836	1.625114
0.681934	1.623733
0.682031	1.622771
0.682129	1.621986
0.682227	1.621532
0.682324	1.621478
0.682422	1.622019
0.682520	1.623084
0.682617	1.624539
0.682715	1.626356
0.682812	1.628277
0.682910	1.630409
0.683008	1.632693
0.683105	1.634786
0.683203	1.636937
0.683301	1.638793
0.683398	1.640365
0.683496	1.641279
0.683594	1.641322
0.683691	1.640060
0.683789	1.637494
0.683887	1.634634
0.683984	1.631868
0.684082	1.629246
0.684180	1.626846
0.684277	1.624595
0.684375	1.623049
0.684473	1.621974
0.684570	1.621390
0.684668	1.621526
0.684766	1.622232
0.684863	1.623436
0.684961	1.624921
0.685059	1.626801
0.685156	1.628950
0.685254	1.631403
0.685352	1.633988
0.685449	1.636621
0.685547	1.639251
0.685645	1.641489
0.685742	1.643311
0.685840	1.644759
0.685937	1.645610
0.686035	1.645727
0.686133	1.644483
0.686230	1.641469
0.686328	1.636461
0.686426	1.630589
0.686523	1.625782
0.686621	1.622369
0.686719	1.620191
0.686816	1.618812
0.686914	1.618193
0.687012	1.618242
0.687109	1.618766
0.687207	1.619693
0.687305	1.620940
0.687402	1.622445
0.687500	1.624236
0.687598	1.626030
0.687695	1.627989
0.687793	1.629876
0.687891	1.631844
0.687988	1.633632
0.688086	1.635320
0.688184	1.636748
0.688281	1.637968
0.688379	1.638820
0.688477	1.639232
0.688574	1.639050
0.688672	1.638424
0.688770	1.637190
0.688867	1.635288
0.688965	1.632793
0.689062	1.629845
0.689160	1.626789
0.689258	1.624314
0.689355	1.622819
0.689453	1.622176
0.689551	1.622198
0.689648	1.622655
0.689746	1.623752
0.689844	1.625186
0.689941	1.626828
0.690039	1.628933
0.690137	1.631207
0.690234	1.633646
0.690332	1.636217
0.690430	1.638707
0.690527	1.640850
0.690625	1.642473
0.690723	1.643262
0.690820	1.643036
0.690918	1.642907
0.691016	1.641381
0.691113	1.634105
0.691211	1.631516
0.691309	1.629451
0.691406	1.626252
0.691504	1.623487
0.691602	1.621578
0.691699	1.620465
0.691797	1.619995
0.691895	1.620206
0.691992	1.621119
0.692090	1.622484
0.692187	1.624175
0.692285	1.626113
0.692383	1.628444
0.692480	1.630900
0.692578	1.633590
0.692676	1.636522
0.692773	1.639575
0.692871	1.642332
0.692969	1.643371
0.693066	1.642668
0.693164	1.639831
0.693262	1.637596
0.693359	1.635465
0.693457	1.631433
0.693555	1.627943
0.693652	1.625910
0.693750	1.624342
0.693848	1.622926
0.693945	1.621963
0.694043	1.621390
0.694141	1.621412
0.694238	1.621871
0.694336	1.622785
0.694434	1.624144
0.694531	1.625741
0.694629	1.627757
0.694727	1.629938
0.694824	1.632406
0.694922	1.635112
0.695020	1.638151
0.695117	1.641275
0.695215	1.644090
0.695312	1.646022
0.695410	1.646948
0.695508	1.647092
0.695605	1.643377
0.695703	1.632928
0.695801	1.624058
0.695898	1.622423
0.695996	1.622157
0.696094	1.621019
0.696191	1.620273
0.696289	1.619939
0.696387	1.619951
0.696484	1.620327
0.696582	1.621110
0.696680	1.621936
0.696777	1.623136
0.696875	1.624610
0.696973	1.626376
0.697070	1.628458
0.697168	1.630496
0.697266	1.632617
0.697363	1.634525
0.697461	1.636256
0.697559	1.637507
0.697656	1.638342
0.697754	1.638427
0.697852	1.637869
0.697949	1.636710
0.698047	1.634912
0.698145	1.632688
0.698242	1.630204
0.698340	1.627889
0.698437	1.625911
0.698535	1.624418
0.698633	1.623373
0.698730	1.622747
0.698828	1.622573
0.698926	1.622727
0.699023	1.623383
0.699121	1.624232
0.699219	1.625317
0.699316	1.626634
0.699414	1.628170
0.699512	1.629806
0.699609	1.631660
0.699707	1.633659
0.699805	1.635772
0.699902	1.638006
0.700000	1.640242
0.700098	1.642563
0.700195	1.644276
0.700293	1.643138
0.700391	1.638730
0.700488	1.635676
0.700586	1.634568
0.700684	1.632722
0.700781	1.630591
0.700879	1.628463
0.700977	1.626201
0.701074	1.624227
0.701172	1.622686
0.701270	1.621811
0.701367	1.621784
0.701465	1.622317
0.701562	1.623240
0.701660	1.624496
0.701758	1.625983
0.701855	1.627563
0.701953	1.629335
0.702051	1.631200
0.702148	1.633185
0.702246	1.635276
0.702344	1.637596
0.702441	1.640600
0.702539	1.644083
0.702637	1.646479
0.702734	1.646125
0.702832	1.644204
0.702930	1.638050
0.703027	1.631763
0.703125	1.630341
0.703223	1.628291
0.703320	1.618749
0.703418	1.616444
0.703516	1.618445
0.703613	1.619674
0.703711	1.620856
0.703809	1.621759
0.703906	1.622891
0.704004	1.624157
0.704102	1.625742
0.704199	1.627552
0.704297	1.629616
0.704395	1.631754
0.704492	1.634260
0.704590	1.636657
0.704687	1.639057
0.704785	1.640992
0.704883	1.642202
0.704980	1.642289
0.705078	1.641220
0.705176	1.639182
0.705273	1.636598
0.705371	1.634005
0.705469	1.632355
0.705566	1.631726
0.705664	1.630852
0.705762	1.628550
0.705859	1.626165
0.705957	1.624357
0.706055	1.623100
0.706152	1.622850
0.706250	1.622615
0.706348	1.621590
0.706445	1.621638
0.706543	1.623159
0.706641	1.624939
0.706738	1.627082
0.706836	1.628952
0.706934	1.630855
0.707031	1.632873
0.707129	1.634520
0.707227	1.636019
0.707324	1.637084
0.707422	1.637821
0.707520	1.638161
0.707617	1.638369
0.707715	1.638131
0.707812	1.637129
0.707910	1.635180
0.708008	1.632779
0.708105	1.630832
0.708203	1.628601
0.708301	1.626505
0.708398	1.624892
0.708496	1.623937
0.708594	1.623498
0.708691	1.623779
0.708789	1.624503
0.708887	1.625705
0.708984	1.627151
0.709082	1.628842
0.709180	1.630814
0.709277	1.632772
0.709375	1.634947
0.709473	1.637081
0.709570	1.639114
0.709668	1.641034
0.709766	1.642640
0.709863	1.643008
0.709961	1.641813
0.710059	1.639169
0.710156	1.635819
0.710254	1.632318
0.710352	1.629174
0.710449	1.626520
0.710547	1.624433
0.710645	1.623042
0.710742	1.622247
0.710840	1.622132
0.710937	1.622461
0.711035	1.623286
0.711133	1.624461
0.711230	1.626055
0.711328	1.627864
0.711426	1.629924
0.711523	1.632211
0.711621	1.634644
0.711719	1.637013
0.711816	1.639556
0.711914	1.641918
0.712012	1.643913
0.712109	1.644550
0.712207	1.643673
0.712305	1.641300
0.712402	1.637528
0.712500	1.632017
0.712598	1.629863
0.712695	1.631278
0.712793	1.619359
0.712891	1.617743
0.712988	1.616203
0.713086	1.616171
0.713184	1.617404
0.713281	1.618290
0.713379	1.619993
0.713477	1.621189
0.713574	1.623353
0.713672	1.624681
0.713770	1.627344
0.713867	1.628602
0.713965	1.631761
0.714062	1.632680
0.714160	1.636649
0.714258	1.637275
0.714355	1.642397
0.714453	1.641651
0.714551	1.646304
0.714648	1.640008
0.714746	1.647045
0.714844	1.607699
0.714941	1.559511
0.715039	1.602078
0.715137	1.607311
0.715234	1.606357
0.715332	1.604616
0.715430	1.591543
0.715527	1.603973
0.715625	1.611721
0.715723	1.610069
0.715820	1.605881
0.715918	1.606036
0.716016	1.612029
0.716113	1.615870
0.716211	1.620328
0.716309	1.623210
0.716406	1.626685
0.716504	1.629064
0.716602	1.631690
0.716699	1.633548
0.716797	1.635445
0.716895	1.636457
0.716992	1.637247
0.717090	1.637382
0.717187	1.636791
0.717285	1.635739
0.717383	1.634246
0.717480	1.632666
0.717578	1.631018
0.717676	1.629407
0.717773	1.628072
0.717871	1.626749
0.717969	1.625853
0.718066	1.625373
0.718164	1.625290
0.718262	1.625579
0.718359	1.626388
0.718457	1.627497
0.718555	1.628922
0.718652	1.630501
0.718750	1.632284
0.718848	1.634189
0.718945	1.636126
0.719043	1.637931
0.719141	1.639489
0.719238	1.640744
0.719336	1.641562
0.719434	1.641961
0.719531	1.641566
0.719629	1.639720
0.719727	1.636703
0.719824	1.633505
0.719922	1.630623
0.720020	1.628062
0.720117	1.625579
0.720215	1.623705
0.720312	1.622371
0.720410	1.621623
0.720508	1.621646
0.720605	1.622244
0.720703	1.623156
0.720801	1.624575
0.720898	1.626158
0.720996	1.627907
0.721094	1.630025
0.721191	1.632238
0.721289	1.634820
0.721387	1.637547
0.721484	1.640426
0.721582	1.643097
0.721680	1.644896
0.721777	1.645693
0.721875	1.645705
0.721973	1.644715
0.722070	1.641997
0.722168	1.636211
0.722266	1.630325
0.722363	1.626293
0.722461	1.623793
0.722559	1.621777
0.722656	1.619922
0.722754	1.618657
0.722852	1.618566
0.722949	1.619222
0.723047	1.620180
0.723145	1.621712
0.723242	1.623371
0.723340	1.625273
0.723437	1.627390
0.723535	1.629578
0.723633	1.631752
0.723730	1.633796
0.723828	1.635699
0.723926	1.637170
0.724023	1.638178
0.724121	1.638811
0.724219	1.638835
0.724316	1.638125
0.724414	1.636566
0.724512	1.634294
0.724609	1.631757
0.724707	1.629151
0.724805	1.626168
0.724902	1.623696
0.725000	1.621939
0.725098	1.621337
0.725195	1.621198
0.725293	1.621712
0.725391	1.622691
0.725488	1.623899
0.725586	1.625423
0.725684	1.627051
0.725781	1.628829
0.725879	1.630680
0.725977	1.632520
0.726074	1.634290
0.726172	1.635764
0.726270	1.637039
0.726367	1.637842
0.726465	1.638164
0.726562	1.637822
0.726660	1.636932
0.726758	1.635673
0.726855	1.634087
0.726953	1.632357
0.727051	1.630304
0.727148	1.628112
0.727246	1.626494
0.727344	1.625101
0.727441	1.624305
0.727539	1.623995
0.727637	1.624175
0.727734	1.624709
0.727832	1.625526
0.727930	1.626450
0.728027	1.627671
0.728125	1.629091
0.728223	1.630514
0.728320	1.632126
0.728418	1.633670
0.728516	1.635010
0.728613	1.636180
0.728711	1.636932
0.728809	1.637341
0.728906	1.637348
0.729004	1.637072
0.729102	1.636668
0.729199	1.636006
0.729297	1.635218
0.729395	1.634006
0.729492	1.632798
0.729590	1.631559
0.729687	1.630101
0.729785	1.628526
0.729883	1.626743
0.729980	1.625596
0.730078	1.625377
0.730176	1.625867
0.730273	1.626825
0.730371	1.628215
0.730469	1.629850
0.730566	1.631586
0.730664	1.633419
0.730762	1.635065
0.730859	1.636611
0.730957	1.637460
0.731055	1.638169
0.731152	1.638269
0.731250	1.637990
0.731348	1.637280
0.731445	1.636148
0.731543	1.634475
0.731641	1.632604
0.731738	1.630470
0.731836	1.628509
0.731934	1.626555
0.732031	1.624950
0.732129	1.623373
0.732227	1.622400
0.732324	1.621825
0.732422	1.622224
0.732520	1.622677
0.732617	1.624109
0.732715	1.625198
0.732812	1.627359
0.732910	1.628884
0.733008	1.631687
0.733105	1.633154
0.733203	1.636198
0.733301	1.637435
0.733398	1.640665
0.733496	1.640881
0.733594	1.644935
0.733691	1.643778
0.733789	1.654856
0.733887	1.643823
0.733984	1.632368
0.734082	1.634565
0.734180	1.625312
0.734277	1.625775
0.734375	1.624584
0.734473	1.627628
0.734570	1.619516
0.734668	1.616242
0.734766	1.615692
0.734863	1.616490
0.734961	1.617614
0.735059	1.619892
0.735156	1.621919
0.735254	1.624591
0.735352	1.626786
0.735449	1.629174
0.735547	1.631163
0.735645	1.633328
0.735742	1.635034
0.735840	1.636616
0.735937	1.637186
0.736035	1.636739
0.736133	1.635190
0.736230	1.633513
0.736328	1.631497
0.736426	1.629577
0.736523	1.627996
0.736621	1.626697
0.736719	1.625592
0.736816	1.624747
0.736914	1.624208
0.737012	1.624044
0.737109	1.624015
0.737207	1.624502
0.737305	1.625416
0.737402	1.626749
0.737500	1.628264
0.737598	1.630091
0.737695	1.631922
0.737793	1.633827
0.737891	1.635683
0.737988	1.637462
0.738086	1.638811
0.738184	1.639786
0.738281	1.640085
0.738379	1.639616
0.738477	1.638334
0.738574	1.636365
0.738672	1.634125
0.738770	1.631743
0.738867	1.629387
0.738965	1.627350
0.739062	1.625769
0.739160	1.624485
0.739258	1.623747
0.739355	1.623538
0.739453	1.623762
0.739551	1.624399
0.739648	1.625318
0.739746	1.626586
0.739844	1.628111
0.739941	1.629830
0.740039	1.631832
0.740137	1.634009
0.740234	1.636337
0.740332	1.638659
0.740430	1.640880
0.740527	1.642898
0.740625	1.644195
0.740723	1.644675
0.740820	1.644341
0.740918	1.643033
0.741016	1.639772
0.741113	1.635148
0.741211	1.631743
0.741309	1.629945
0.741406	1.628229
0.741504	1.621705
0.741602	1.618635
0.741699	1.617891
0.741797	1.617155
0.741895	1.617594
0.741992	1.618494
0.742090	1.620070
0.742187	1.621844
0.742285	1.624025
0.742383	1.626222
0.742480	1.628702
0.742578	1.631353
0.742676	1.634362
0.742773	1.637605
0.742871	1.640884
0.742969	1.643640
0.743066	1.645125
0.743164	1.645026
0.743262	1.643994
0.743359	1.641401
0.743457	1.637284
0.743555	1.633596
0.743652	1.629784
0.743750	1.626199
0.743848	1.623237
0.743945	1.620954
0.744043	1.619427
0.744141	1.618899
0.744238	1.618841
0.744336	1.619570
0.744434	1.620790
0.744531	1.622291
0.744629	1.623906
0.744727	1.625916
0.744824	1.627815
0.744922	1.629919
0.745020	1.631859
0.745117	1.633897
0.745215	1.635512
0.745312	1.637200
0.745410	1.638335
0.745508	1.639921
0.745605	1.641024
0.745703	1.642979
0.745801	1.642956
0.745898	1.648229
0.745996	1.655916
0.746094	1.624291
0.746191	1.624422
0.746289	1.622187
0.746387	1.618124
0.746484	1.614110
0.746582	1.612887
0.746680	1.613121
0.746777	1.614254
0.746875	1.616552
0.746973	1.618999
0.747070	1.622018
0.747168	1.624644
0.747266	1.627511
0.747363	1.630014
0.747461	1.632647
0.747559	1.634958
0.747656	1.637159
0.747754	1.638935
0.747852	1.640290
0.747949	1.641095
0.748047	1.641213
0.748145	1.640830
0.748242	1.639874
0.748340	1.638407
0.748437	1.635898
0.748535	1.632874
0.748633	1.630064
0.748730	1.628352
0.748828	1.627083
0.748926	1.625404
0.749023	1.623842
0.749121	1.622597
0.749219	1.622087
0.749316	1.622310
0.749414	1.623154
0.749512	1.624514
0.749609	1.626262
0.749707	1.628214
0.749805	1.630310
0.749902	1.632468
0.750000	1.634591
0.750098	1.636493
0.750195	1.638015
0.750293	1.638959
0.750391	1.639309
0.750488	1.639140
0.750586	1.638579
0.750684	1.637941
0.750781	1.636690
0.750879	1.634451
0.750977	1.631709
0.751074	1.629318
0.751172	1.627051
0.751270	1.624887
0.751367	1.623501
0.751465	1.622739
0.751562	1.622847
0.751660	1.623039
0.751758	1.623961
0.751855	1.624974
0.751953	1.626597
0.752051	1.628159
0.752148	1.630280
0.752246	1.632357
0.752344	1.635098
0.752441	1.637806
0.752539	1.641475
0.752637	1.644445
0.752734	1.648564
0.752832	1.650621
0.752930	1.653653
0.753027	1.653517
0.753125	1.661268
0.753223	1.655802
0.753320	1.625381
0.753418	1.618866
0.753516	1.616173
0.753613	1.612924
0.753711	1.610350
0.753809	1.609262
0.753906	1.609416
0.754004	1.610759
0.754102	1.612701
0.754199	1.615317
0.754297	1.618135
0.754395	1.621147
0.754492	1.624153
0.754590	1.627183
0.754687	1.630284
0.754785	1.633150
0.754883	1.635829
0.754980	1.638241
0.755078	1.640074
0.755176	1.641111
0.755273	1.641493
0.755371	1.641900
0.755469	1.641942
0.755566	1.640067
0.755664	1.634772
0.755762	1.634682
0.755859	1.634968
0.755957	1.623572
0.756055	1.618566
0.756152	1.617249
0.756250	1.617290
0.756348	1.617877
0.756445	1.619157
0.756543	1.620729
0.756641	1.622461
0.756738	1.624548
0.756836	1.626681
0.756934	1.628890
0.757031	1.631384
0.757129	1.633872
0.757227	1.636396
0.757324	1.639008
0.757422	1.641527
0.757520	1.643531
0.757617	1.644200
0.757715	1.644046
0.757812	1.643334
0.757910	1.641474
0.758008	1.636715
0.758105	1.632422
0.758203	1.629584
0.758301	1.627135
0.758398	1.625065
0.758496	1.623106
0.758594	1.621675
0.758691	1.620936
0.758789	1.620930
0.758887	1.621584
0.758984	1.622738
0.759082	1.624399
0.759180	1.626431
0.759277	1.628599
0.759375	1.630964
0.759473	1.633453
0.759570	1.635908
0.759668	1.638168
0.759766	1.640192
0.759863	1.641948
0.759961	1.643291
0.760059	1.643182
0.760156	1.642158
0.760254	1.637927
0.760352	1.633763
0.760449	1.631539
0.760547	1.629349
0.760645	1.627242
0.760742	1.624901
0.760840	1.623192
0.760937	1.622003
0.761035	1.621613
0.761133	1.621808
0.761230	1.622666
0.761328	1.624022
0.761426	1.625594
0.761523	1.627730
0.761621	1.630022
0.761719	1.632519
0.761816	1.635299
0.761914	1.638211
0.762012	1.640968
0.762109	1.643139
0.762207	1.644143
0.762305	1.645218
0.762402	1.645171
0.762500	1.643170
0.762598	1.639733
0.762695	1.638435
0.762793	1.636882
0.762891	1.633549
0.762988	1.630398
0.763086	1.619572
0.763184	1.615249
0.763281	1.614621
0.763379	1.615203
0.763477	1.616277
0.763574	1.617759
0.763672	1.619521
0.763770	1.621624
0.763867	1.623790
0.763965	1.625914
0.764062	1.628220
0.764160	1.630683
0.764258	1.633085
0.764355	1.635708
0.764453	1.638358
0.764551	1.641113
0.764648	1.643763
0.764746	1.645910
0.764844	1.646757
0.764941	1.645326
0.765039	1.641759
0.765137	1.636973
0.765234	1.632178
0.765332	1.627826
0.765430	1.624280
0.765527	1.621559
0.765625	1.620020
0.765723	1.619147
0.765820	1.619167
0.765918	1.619670
0.766016	1.620745
0.766113	1.622027
0.766211	1.623679
0.766309	1.625504
0.766406	1.627370
0.766504	1.629456
0.766602	1.631481
0.766699	1.633460
0.766797	1.635383
0.766895	1.637288
0.766992	1.638950
0.767090	1.640375
0.767187	1.641153
0.767285	1.641236
0.767383	1.640497
0.767480	1.638639
0.767578	1.634809
0.767676	1.631221
0.767773	1.628610
0.767871	1.626529
0.767969	1.624923
0.768066	1.623616
0.768164	1.622663
0.768262	1.622209
0.768359	1.622256
0.768457	1.622901
0.768555	1.623917
0.768652	1.625208
0.768750	1.626806
0.768848	1.628566
0.768945	1.630526
0.769043	1.632535
0.769141	1.634727
0.769238	1.636816
0.769336	1.638938
0.769434	1.640632
0.769531	1.641848
0.769629	1.642310
0.769727	1.641744
0.769824	1.640156
0.769922	1.637609
0.770020	1.634421
0.770117	1.630762
0.770215	1.627179
0.770312	1.624556
0.770410	1.622866
0.770508	1.621809
0.770605	1.621406
0.770703	1.621572
0.770801	1.622285
0.770898	1.623416
0.770996	1.624749
0.771094	1.626489
0.771191	1.628256
0.771289	1.630387
0.771387	1.632391
0.771484	1.634598
0.771582	1.636785
0.771680	1.638898
0.771777	1.640398
0.771875	1.641680
0.771973	1.641988
0.772070	1.643246
0.772168	1.641046
0.772266	1.634627
0.772363	1.631516
0.772461	1.628525
0.772559	1.626749
0.772656	1.624522
0.772754	1.622516
0.772852	1.621770
0.772949	1.621764
0.773047	1.622062
0.773145	1.622701
0.773242	1.623563
0.773340	1.624806
0.773437	1.626404
0.773535	1.628061
0.773633	1.629983
0.773730	1.631934
0.773828	1.634077
0.773926	1.636111
0.774023	1.638232
0.774121	1.640300
0.774219	1.642321
0.774316	1.643294
0.774414	1.641510
0.774512	1.638733
0.774609	1.637457
0.774707	1.634667
0.774805	1.631818
0.774902	1.629146
0.775000	1.627402
0.775098	1.621905
0.775195	1.617730
0.775293	1.617889
0.775391	1.618051
0.775488	1.619439
0.775586	1.620864
0.775684	1.623123
0.775781	1.624897
0.775879	1.627506
0.775977	1.629646
0.776074	1.632502
0.776172	1.634633
0.776270	1.637713
0.776367	1.639545
0.776465	1.642147
0.776562	1.642507
0.776660	1.644393
0.776758	1.640973
0.776855	1.639867
0.776953	1.631667
0.777051	1.612998
0.777148	1.625418
0.777246	1.625876
0.777344	1.620778
0.777441	1.620715
0.777539	1.620852
0.777637	1.619552
0.777734	1.619731
0.777832	1.620043
0.777930	1.621240
0.778027	1.622506
0.778125	1.624385
0.778223	1.626162
0.778320	1.628385
0.778418	1.630531
0.778516	1.632854
0.778613	1.634730
0.778711	1.636812
0.778809	1.638302
0.778906	1.639476
0.779004	1.640048
0.779102	1.639943
0.779199	1.638759
0.779297	1.636792
0.779395	1.634006
0.779492	1.631441
0.779590	1.630110
0.779687	1.628111
0.779785	1.623611
0.779883	1.621087
0.779980	1.620565
0.780078	1.620615
0.780176	1.621338
0.780273	1.622464
0.780371	1.623815
0.780469	1.625493
0.780566	1.627295
0.780664	1.629256
0.780762	1.631146
0.780859	1.632941
0.780957	1.634576
0.781055	1.635918
0.781152	1.637006
0.781250	1.637726
0.781348	1.638194
0.781445	1.638388
0.781543	1.638379
0.781641	1.637221
0.781738	1.634566
0.781836	1.631439
0.781934	1.628882
0.782031	1.627084
0.782129	1.625975
0.782227	1.625111
0.782324	1.624828
0.782422	1.624800
0.782520	1.625509
0.782617	1.626126
0.782715	1.627300
0.782812	1.628350
0.782910	1.630165
0.783008	1.631406
0.783105	1.633623
0.783203	1.635071
0.783301	1.637782
0.783398	1.639096
0.783496	1.642654
0.783594	1.644644
0.783691	1.650274
0.783789	1.647050
0.783887	1.645298
0.783984	1.635304
0.784082	1.627297
0.784180	1.623029
0.784277	1.620545
0.784375	1.624172
0.784473	1.621834
0.784570	1.622736
0.784668	1.621631
0.784766	1.622785
0.784863	1.622727
0.784961	1.624394
0.785059	1.625462
0.785156	1.627613
0.785254	1.629437
0.785352	1.632032
0.785449	1.634591
0.785547	1.637692
0.785645	1.640677
0.785742	1.643947
0.785840	1.647085
0.785937	1.649196
0.786035	1.646956
0.786133	1.643159
0.786230	1.639281
0.786328	1.636632
0.786426	1.636453
0.786523	1.636646
0.786621	1.636575
0.786719	1.632626
0.786816	1.623848
0.786914	1.617264
0.787012	1.615484
0.787109	1.615430
0.787207	1.616169
0.787305	1.617495
0.787402	1.619100
0.787500	1.620983
0.787598	1.622997
0.787695	1.625128
0.787793	1.627320
0.787891	1.629628
0.787988	1.631923
0.788086	1.634304
0.788184	1.636632
0.788281	1.638772
0.788379	1.640627
0.788477	1.641996
0.788574	1.642551
0.788672	1.642362
0.788770	1.641358
0.788867	1.639648
0.788965	1.637052
0.789062	1.634107
0.789160	1.630484
0.789258	1.626746
0.789355	1.623996
0.789453	1.622424
0.789551	1.621539
0.789648	1.621142
0.789746	1.621301
0.789844	1.621903
0.789941	1.622920
0.790039	1.624267
0.790137	1.625958
0.790234	1.627765
0.790332	1.629733
0.790430	1.631855
0.790527	1.634094
0.790625	1.636402
0.790723	1.638623
0.790820	1.640694
0.790918	1.642308
0.791016	1.643237
0.791113	1.643104
0.791211	1.641937
0.791309	1.639709
0.791406	1.636712
0.791504	1.633438
0.791602	1.630401
0.791699	1.627495
0.791797	1.624996
0.791895	1.623089
0.791992	1.622020
0.792090	1.621807
0.792187	1.622140
0.792285	1.622966
0.792383	1.624028
0.792480	1.625462
0.792578	1.627052
0.792676	1.628961
0.792773	1.631027
0.792871	1.633239
0.792969	1.635351
0.793066	1.637522
0.793164	1.638884
0.793262	1.640104
0.793359	1.640479
0.793457	1.640459
0.793555	1.638714
0.793652	1.638262
0.793750	1.635559
0.793848	1.632740
0.793945	1.628535
0.794043	1.642391
0.794141	1.656159
0.794238	1.628281
0.794336	1.621365
0.794434	1.631748
0.794531	1.622680
0.794629	1.614491
0.794727	1.614624
0.794824	1.617320
0.794922	1.621011
0.795020	1.624752
0.795117	1.628500
0.795215	1.632067
0.795312	1.635570
0.795410	1.638531
0.795508	1.641058
0.795605	1.642266
0.795703	1.642294
0.795801	1.641049
0.795898	1.637665
0.795996	1.633578
0.796094	1.630329
0.796191	1.627638
0.796289	1.625344
0.796387	1.623472
0.796484	1.622296
0.796582	1.621656
0.796680	1.621483
0.796777	1.621814
0.796875	1.622220
0.796973	1.623225
0.797070	1.624413
0.797168	1.625784
0.797266	1.627225
0.797363	1.628856
0.797461	1.630772
0.797559	1.632619
0.797656	1.634537
0.797754	1.636448
0.797852	1.638222
0.797949	1.639682
0.798047	1.640794
0.798145	1.641473
0.798242	1.641417
0.798340	1.640696
0.798437	1.639235
0.798535	1.637083
0.798633	1.634450
0.798730	1.631567
0.798828	1.628663
0.798926	1.626262
0.799023	1.624410
0.799121	1.623326
0.799219	1.622680
0.799316	1.622837
0.799414	1.623485
0.799512	1.624485
0.799609	1.625857
0.799707	1.627414
0.799805	1.629247
0.799902	1.630966
0.800000	1.632712
0.800098	1.634415
0.800195	1.635861
0.800293	1.636837
0.800391	1.637408
0.800488	1.637117
0.800586	1.636395
0.800684	1.635123
0.800781	1.633684
0.800879	1.632197
0.800977	1.630913
0.801074	1.629551
0.801172	1.628751
0.801270	1.628134
0.801367	1.627627
0.801465	1.627431
0.801562	1.627175
0.801660	1.627234
0.801758	1.627464
0.801855	1.628061
0.801953	1.628690
0.802051	1.629873
0.802148	1.631242
0.802246	1.633114
0.802344	1.635411
0.802441	1.638060
0.802539	1.640851
0.802637	1.643493
0.802734	1.645421
0.802832	1.646937
0.802930	1.645125
0.803027	1.640101
0.803125	1.636693
0.803223	1.633882
0.803320	1.630734
0.803418	1.627326
0.803516	1.624268
0.803613	1.622256
0.803711	1.621331
0.803809	1.620799
0.803906	1.620848
0.804004	1.621165
0.804102	1.622049
0.804199	1.623228
0.804297	1.624584
0.804395	1.626239
0.804492	1.628131
0.804590	1.630007
0.804687	1.632083
0.804785	1.634091
0.804883	1.636179
0.804980	1.638284
0.805078	1.640261
0.805176	1.641561
0.805273	1.641237
0.805371	1.639910
0.805469	1.638582
0.805566	1.636362
0.805664	1.633227
0.805762	1.629541
0.805859	1.626030
0.805957	1.623123
0.806055	1.621411
0.806152	1.620541
0.806250	1.620429
0.806348	1.620919
0.806445	1.621851
0.806543	1.623146
0.806641	1.624801
0.806738	1.626697
0.806836	1.628844
0.806934	1.631168
0.807031	1.633626
0.807129	1.635979
0.807227	1.638180
0.807324	1.640106
0.807422	1.641601
0.807520	1.642543
0.807617	1.642651
0.807715	1.641818
0.807812	1.639274
0.807910	1.635025
0.808008	1.631116
0.808105	1.628513
0.808203	1.626390
0.808301	1.624847
0.808398	1.623680
0.808496	1.623126
0.808594	1.622921
0.808691	1.623114
0.808789	1.623448
0.808887	1.623995
0.808984	1.624794
0.809082	1.625924
0.809180	1.627452
0.809277	1.629070
0.809375	1.630867
0.809473	1.632751
0.809570	1.634653
0.809668	1.636540
0.809766	1.638173
0.809863	1.639507
0.809961	1.639974
0.810059	1.639673
0.810156	1.638385
0.810254	1.636397
0.810352	1.634014
0.810449	1.631450
0.810547	1.629048
0.810645	1.626885
0.810742	1.625139
0.810840	1.623880
0.810937	1.623056
0.811035	1.622862
0.811133	1.622993
0.811230	1.623656
0.811328	1.624478
0.811426	1.625824
0.811523	1.627311
0.811621	1.628968
0.811719	1.630969
0.811816	1.633018
0.811914	1.635293
0.812012	1.637530
0.812109	1.639971
0.812207	1.642148
0.812305	1.644259
0.812402	1.645981
0.812500	1.646917
0.812598	1.645625
0.812695	1.643443
0.812793	1.641513
0.812891	1.638202
0.812988	1.631777
0.813086	1.627675
0.813184	1.625937
0.813281	1.623333
0.813379	1.620032
0.813477	1.617733
0.813574	1.617324
0.813672	1.618148
0.813770	1.619845
0.813867	1.621944
0.813965	1.624217
0.814062	1.626743
0.814160	1.629196
0.814258	1.631610
0.814355	1.633991
0.814453	1.636064
0.814551	1.637864
0.814648	1.639221
0.814746	1.639782
0.814844	1.639549
0.814941	1.638471
0.815039	1.636414
0.815137	1.633545
0.815234	1.630652
0.815332	1.628180
0.815430	1.626006
0.815527	1.624422
0.815625	1.623399
0.815723	1.622388
0.815820	1.621824
0.815918	1.621767
0.816016	1.622312
0.816113	1.623193
0.816211	1.624551
0.816309	1.626192
0.816406	1.627871
0.816504	1.629690
0.816602	1.631677
0.816699	1.633558
0.816797	1.635387
0.816895	1.636872
0.816992	1.638379
0.817090	1.639232
0.817187	1.639581
0.817285	1.639340
0.817383	1.638368
0.817480	1.636788
0.817578	1.634856
0.817676	1.632749
0.817773	1.630564
0.817871	1.628614
0.817969	1.626841
0.818066	1.625570
0.818164	1.624670
0.818262	1.624208
0.818359	1.624097
0.818457	1.624643
0.818555	1.625418
0.818652	1.626642
0.818750	1.627906
0.818848	1.629783
0.818945	1.631522
0.819043	1.633776
0.819141	1.635925
0.819238	1.638139
0.819336	1.639836
0.819434	1.641336
0.819531	1.641761
0.819629	1.641923
0.819727	1.640929
0.819824	1.639702
0.819922	1.636263
0.820020	1.633471
0.820117	1.629591
0.820215	1.632857
0.820312	1.635359
0.820410	1.623746
0.820508	1.617955
0.820605	1.612858
0.820703	1.615069
0.820801	1.618301
0.820898	1.621043
0.820996	1.623035
0.821094	1.625247
0.821191	1.627483
0.821289	1.629573
0.821387	1.632126
0.821484	1.634369
0.821582	1.637294
0.821680	1.639454
0.821777	1.642447
0.821875	1.644113
0.821973	1.646776
0.822070	1.647723
0.822168	1.649912
0.822266	1.645469
0.822363	1.638343
0.822461	1.616423
0.822559	1.597635
0.822656	1.579649
0.822754	1.581000
0.822852	1.585218
0.822949	1.592624
0.823047	1.606003
0.823145	1.607753
0.823242	1.614823
0.823340	1.615984
0.823437	1.619653
0.823535	1.620934
0.823633	1.624411
0.823730	1.626121
0.823828	1.629325
0.823926	1.631235
0.824023	1.633973
0.824121	1.635902
0.824219	1.638152
0.824316	1.639536
0.824414	1.640955
0.824512	1.641270
0.824609	1.640784
0.824707	1.639166
0.824805	1.637336
0.824902	1.633975
0.825000	1.629897
0.825098	1.627027
0.825195	1.624588
0.825293	1.622855
0.825391	1.622045
0.825488	1.621903
0.825586	1.622011
0.825684	1.622534
0.825781	1.623319
0.825879	1.624459
0.825977	1.625753
0.826074	1.627283
0.826172	1.628939
0.826270	1.630645
0.826367	1.632395
0.826465	1.633978
0.826562	1.635501
0.826660	1.636809
0.826758	1.637920
0.826855	1.638551
0.826953	1.639010
0.827051	1.638979
0.827148	1.638391
0.827246	1.637210
0.827344	1.635541
0.827441	1.633509
0.827539	1.631354
0.827637	1.629642
0.827734	1.628253
0.827832	1.627291
0.827930	1.626562
0.828027	1.626122
0.828125	1.626200
0.828223	1.626540
0.828320	1.627302
0.828418	1.628390
0.828516	1.629853
0.828613	1.631422
0.828711	1.633283
0.828809	1.635286
0.828906	1.637350
0.829004	1.639170
0.829102	1.640495
0.829199	1.641176
0.829297	1.640941
0.829395	1.639742
0.829492	1.637389
0.829590	1.634104
0.829687	1.630499
0.829785	1.627684
0.829883	1.625464
0.829980	1.624021
0.830078	1.623054
0.830176	1.622762
0.830273	1.622943
0.830371	1.623490
0.830469	1.624490
0.830566	1.625749
0.830664	1.627195
0.830762	1.628976
0.830859	1.630906
0.830957	1.632937
0.831055	1.634931
0.831152	1.637015
0.831250	1.638620
0.831348	1.640193
0.831445	1.641149
0.831543	1.641424
0.831641	1.640920
0.831738	1.639891
0.831836	1.638689
0.831934	1.637924
0.832031	1.635496
0.832129	1.630609
0.832227	1.628850
0.832324	1.626923
0.832422	1.623570
0.832520	1.622486
0.832617	1.622265
0.832715	1.622268
0.832812	1.622544
0.832910	1.623181
0.833008	1.624094
0.833105	1.625412
0.833203	1.627138
0.833301	1.628942
0.833398	1.631223
0.833496	1.633427
0.833594	1.636171
0.833691	1.638626
0.833789	1.641794
0.833887	1.644937
0.833984	1.647986
0.834082	1.640962
0.834180	1.639321
0.834277	1.641752
0.834375	1.638783
0.834473	1.635377
0.834570	1.630825
0.834668	1.627668
0.834766	1.624439
0.834863	1.622412
0.834961	1.620805
0.835059	1.620146
0.835156	1.619770
0.835254	1.620044
0.835352	1.620782
0.835449	1.622152
0.835547	1.623916
0.835645	1.625883
0.835742	1.627970
0.835840	1.630164
0.835937	1.632302
0.836035	1.634465
0.836133	1.636395
0.836230	1.638191
0.836328	1.639452
0.836426	1.640472
0.836523	1.640937
0.836621	1.640653
0.836719	1.639975
0.836816	1.638234
0.836914	1.634143
0.837012	1.629844
0.837109	1.626767
0.837207	1.623635
0.837305	1.621273
0.837402	1.620448
0.837500	1.620437
0.837598	1.621108
0.837695	1.622177
0.837793	1.623538
0.837891	1.624992
0.837988	1.626681
0.838086	1.628628
0.838184	1.630735
0.838281	1.632784
0.838379	1.635109
0.838477	1.637078
0.838574	1.639301
0.838672	1.640703
0.838770	1.641776
0.838867	1.641583
0.838965	1.641275
0.839062	1.638981
0.839160	1.636270
0.839258	1.632297
0.839355	1.632283
0.839453	1.632928
0.839551	1.638387
0.839648	1.626798
0.839746	1.615747
0.839844	1.618903
0.839941	1.618207
0.840039	1.619892
0.840137	1.620673
0.840234	1.622907
0.840332	1.624541
0.840430	1.626853
0.840527	1.628860
0.840625	1.631181
0.840723	1.633491
0.840820	1.635682
0.840918	1.638113
0.841016	1.639966
0.841113	1.642032
0.841211	1.642553
0.841309	1.645653
0.841406	1.648443
0.841504	1.648157
0.841602	1.634313
0.841699	1.628070
0.841797	1.624674
0.841895	1.622764
0.841992	1.622910
0.842090	1.621207
0.842187	1.620355
0.842285	1.619652
0.842383	1.620251
0.842480	1.620933
0.842578	1.622325
0.842676	1.623699
0.842773	1.625416
0.842871	1.627220
0.842969	1.629306
0.843066	1.631200
0.843164	1.633337
0.843262	1.635074
0.843359	1.636665
0.843457	1.637724
0.843555	1.638369
0.843652	1.638557
0.843750	1.638226
0.843848	1.637575
0.843945	1.636019
0.844043	1.633612
0.844141	1.631383
0.844238	1.629269
0.844336	1.627380
0.844434	1.625675
0.844531	1.624358
0.844629	1.623451
0.844727	1.623287
0.844824	1.623164
0.844922	1.623925
0.845020	1.624834
0.845117	1.626282
0.845215	1.627655
0.845312	1.629537
0.845410	1.630921
0.845508	1.632939
0.845605	1.634150
0.845703	1.636095
0.845801	1.636787
0.845898	1.638412
0.845996	1.638320
0.846094	1.639681
0.846191	1.639520
0.846289	1.644855
0.846387	1.625324
0.846484	1.626743
0.846582	1.630305
0.846680	1.621712
0.846777	1.625495
0.846875	1.619394
0.846973	1.616841
0.847070	1.615358
0.847168	1.616137
0.847266	1.617199
0.847363	1.620421
0.847461	1.622623
0.847559	1.625679
0.847656	1.627978
0.847754	1.630808
0.847852	1.633073
0.847949	1.635707
0.848047	1.637936
0.848145	1.640331
0.848242	1.642480
0.848340	1.644472
0.848437	1.644358
0.848535	1.640537
0.848633	1.636825
0.848730	1.634434
0.848828	1.631970
0.848926	1.629458
0.849023	1.626498
0.849121	1.623575
0.849219	1.621581
0.849316	1.620387
0.849414	1.620074
0.849512	1.620493
0.849609	1.621331
0.849707	1.622531
0.849805	1.624053
0.849902	1.625684
0.850000	1.627501
0.850098	1.629438
0.850195	1.631264
0.850293	1.633401
0.850391	1.635443
0.850488	1.637749
0.850586	1.640020
0.850684	1.641956
0.850781	1.643057
0.850879	1.643138
0.850977	1.642274
0.851074	1.641946
0.851172	1.637344
0.851270	1.630875
0.851367	1.628469
0.851465	1.628879
0.851562	1.627609
0.851660	1.624648
0.851758	1.623059
0.851855	1.621725
0.851953	1.621876
0.852051	1.622614
0.852148	1.624081
0.852246	1.625828
0.852344	1.627890
0.852441	1.630027
0.852539	1.632338
0.852637	1.634532
0.852734	1.636584
0.852832	1.638236
0.852930	1.639014
0.853027	1.639116
0.853125	1.638303
0.853223	1.636588
0.853320	1.634171
0.853418	1.631497
0.853516	1.628781
0.853613	1.626688
0.853711	1.624897
0.853809	1.623796
0.853906	1.622952
0.854004	1.622550
0.854102	1.622624
0.854199	1.622937
0.854297	1.623701
0.854395	1.624587
0.854492	1.625761
0.854590	1.627008
0.854687	1.628428
0.854785	1.629898
0.854883	1.631648
0.854980	1.633487
0.855078	1.635491
0.855176	1.637665
0.855273	1.639822
0.855371	1.641940
0.855469	1.643789
0.855566	1.644152
0.855664	1.642438
0.855762	1.637730
0.855859	1.632007
0.855957	1.629761
0.856055	1.628696
0.856152	1.627154
0.856250	1.625892
0.856348	1.625093
0.856445	1.624599
0.856543	1.624588
0.856641	1.624825
0.856738	1.625528
0.856836	1.626445
0.856934	1.627675
0.857031	1.629096
0.857129	1.630685
0.857227	1.632151
0.857324	1.633719
0.857422	1.635054
0.857520	1.636255
0.857617	1.637137
0.857715	1.637472
0.857812	1.637482
0.857910	1.636866
0.858008	1.635819
0.858105	1.634363
0.858203	1.632825
0.858301	1.631403
0.858398	1.630180
0.858496	1.629258
0.858594	1.628538
0.858691	1.627950
0.858789	1.627618
0.858887	1.627236
0.858984	1.627057
0.859082	1.627280
0.859180	1.627713
0.859277	1.628920
0.859375	1.630342
0.859473	1.632422
0.859570	1.634667
0.859668	1.637590
0.859766	1.640141
0.859863	1.642912
0.859961	1.644294
0.860059	1.645520
0.860156	1.646186
0.860254	1.649486
0.860352	1.652359
0.860449	1.648966
0.860547	1.636510
0.860645	1.634974
0.860742	1.622499
0.860840	1.611282
0.860937	1.621648
0.861035	1.621985
0.861133	1.620078
0.861230	1.615974
0.861328	1.614723
0.861426	1.615098
0.861523	1.617394
0.861621	1.619591
0.861719	1.622370
0.861816	1.624646
0.861914	1.627284
0.862012	1.629532
0.862109	1.631953
0.862207	1.633854
0.862305	1.635875
0.862402	1.637397
0.862500	1.638655
0.862598	1.639468
0.862695	1.639946
0.862793	1.640234
0.862891	1.640166
0.862988	1.638886
0.863086	1.635771
0.863184	1.631547
0.863281	1.627635
0.863379	1.624649
0.863477	1.622811
0.863574	1.621754
0.863672	1.621482
0.863770	1.621815
0.863867	1.622579
0.863965	1.623670
0.864062	1.624983
0.864160	1.626569
0.864258	1.628337
0.864355	1.630190
0.864453	1.632183
0.864551	1.634298
0.864648	1.636474
0.864746	1.638529
0.864844	1.640493
0.864941	1.641803
0.865039	1.642098
0.865137	1.641109
0.865234	1.638773
0.865332	1.636802
0.865430	1.634796
0.865527	1.632620
0.865625	1.630388
0.865723	1.628261
0.865820	1.626164
0.865918	1.624681
0.866016	1.623762
0.866113	1.623558
0.866211	1.623918
0.866309	1.624743
0.866406	1.625984
0.866504	1.627462
0.866602	1.629210
0.866699	1.631048
0.866797	1.633092
0.866895	1.635143
0.866992	1.637356
0.867090	1.639317
0.867187	1.640965
0.867285	1.641925
0.867383	1.642097
0.867480	1.641198
0.867578	1.639515
0.867676	1.637462
0.867773	1.634905
0.867871	1.632319
0.867969	1.629734
0.868066	1.627078
0.868164	1.625072
0.868262	1.623737
0.868359	1.623105
0.868457	1.623089
0.868555	1.623445
0.868652	1.624261
0.868750	1.625395
0.868848	1.626811
0.868945	1.628468
0.869043	1.630340
0.869141	1.632384
0.869238	1.634474
0.869336	1.636896
0.869434	1.639476
0.869531	1.642274
0.869629	1.644649
0.869727	1.646507
0.869824	1.647033
0.869922	1.646699
0.870020	1.644336
0.870117	1.639399
0.870215	1.634298
0.870312	1.631981
0.870410	1.629152
0.870508	1.622759
0.870605	1.619569
0.870703	1.617358
0.870801	1.615667
0.870898	1.615964
0.870996	1.617493
0.871094	1.619557
0.871191	1.622008
0.871289	1.624232
0.871387	1.626631
0.871484	1.629079
0.871582	1.631415
0.871680	1.633822
0.871777	1.636389
0.871875	1.638855
0.871973	1.641461
0.872070	1.643939
0.872168	1.645753
0.872266	1.646735
0.872363	1.647290
0.872461	1.647473
0.872559	1.645527
0.872656	1.639788
0.872754	1.632445
0.872852	1.626032
0.872949	1.621931
0.873047	1.620554
0.873145	1.620328
0.873242	1.619250
0.873340	1.618057
0.873437	1.618275
0.873535	1.619712
0.873633	1.621705
0.873730	1.624092
0.873828	1.626724
0.873926	1.629325
0.874023	1.631926
0.874121	1.634547
0.874219	1.637131
0.874316	1.639615
0.874414	1.641889
0.874512	1.643493
0.874609	1.644351
0.874707	1.644206
0.874805	1.642449
0.874902	1.638933
0.875000	1.634507
0.875098	1.630522
0.875195	1.627367
0.875293	1.625169
0.875391	1.623577
0.875488	1.622326
0.875586	1.621427
0.875684	1.621273
0.875781	1.621625
0.875879	1.622336
0.875977	1.623476
0.876074	1.624880
0.876172	1.626566
0.876270	1.628430
0.876367	1.630370
0.876465	1.632364
0.876562	1.634421
0.876660	1.636588
0.876758	1.638565
0.876855	1.640405
0.876953	1.642108
0.877051	1.643648
0.877148	1.645351
0.877246	1.647809
0.877344	1.648911
0.877441	1.645708
0.877539	1.639250
0.877637	1.631038
0.877734	1.625949
0.877832	1.620705
0.877930	1.616696
0.878027	1.616648
0.878125	1.616629
0.878223	1.617539
0.878320	1.618962
0.878418	1.621054
0.878516	1.623331
0.878613	1.625776
0.878711	1.628270
0.878809	1.630792
0.878906	1.633333
0.879004	1.635699
0.879102	1.637966
0.879199	1.639794
0.879297	1.640930
0.879395	1.641186
0.879492	1.640564
0.879590	1.639454
0.879687	1.638013
0.879785	1.634047
0.879883	1.629326
0.879980	1.626323
0.880078	1.624726
0.880176	1.623706
0.880273	1.622658
0.880371	1.621958
0.880469	1.621600
0.880566	1.622047
0.880664	1.623171
0.880762	1.624501
0.880859	1.626061
0.880957	1.627828
0.881055	1.629546
0.881152	1.631564
0.881250	1.633264
0.881348	1.635113
0.881445	1.636729
0.881543	1.638278
0.881641	1.639363
0.881738	1.640168
0.881836	1.640065
0.881934	1.639135
0.882031	1.636424
0.882129	1.632541
0.882227	1.630100
0.882324	1.628180
0.882422	1.628552
0.882520	1.634642
0.882617	1.638321
0.882715	1.626351
0.882812	1.618239
0.882910	1.618336
0.883008	1.620120
0.883105	1.622287
0.883203	1.624266
0.883301	1.626677
0.883398	1.628939
0.883496	1.631375
0.883594	1.633693
0.883691	1.636144
0.883789	1.638344
0.883887	1.640806
0.883984	1.642768
0.884082	1.645817
0.884180	1.650281
0.884277	1.656931
0.884375	1.647258
0.884473	1.633358
0.884570	1.629604
0.884668	1.627951
0.884766	1.626680
0.884863	1.623607
0.884961	1.620565
0.885059	1.618761
0.885156	1.618471
0.885254	1.618945
0.885352	1.620075
0.885449	1.621554
0.885547	1.623361
0.885645	1.625279
0.885742	1.627559
0.885840	1.629866
0.885937	1.632468
0.886035	1.634982
0.886133	1.637448
0.886230	1.639459
0.886328	1.641160
0.886426	1.641997
0.886523	1.642539
0.886621	1.642325
0.886719	1.641485
0.886816	1.638252
0.886914	1.633482
0.887012	1.630164
0.887109	1.627892
0.887207	1.625738
0.887305	1.624084
0.887402	1.622682
0.887500	1.621978
0.887598	1.621783
0.887695	1.622055
0.887793	1.622765
0.887891	1.623839
0.887988	1.625089
0.888086	1.626727
0.888184	1.628483
0.888281	1.630542
0.888379	1.632699
0.888477	1.635050
0.888574	1.637625
0.888672	1.640237
0.888770	1.642609
0.888867	1.644374
0.888965	1.644880
0.889062	1.644032
0.889160	1.641678
0.889258	1.636660
0.889355	1.633756
0.889453	1.633180
0.889551	1.628672
0.889648	1.625216
0.889746	1.626301
0.889844	1.624022
0.889941	1.619605
0.890039	1.618277
0.890137	1.618951
0.890234	1.619868
0.890332	1.621633
0.890430	1.623189
0.890527	1.625631
0.890625	1.627521
0.890723	1.630302
0.890820	1.632296
0.890918	1.635440
0.891016	1.637279
0.891113	1.640968
0.891211	1.641914
0.891309	1.645507
0.891406	1.639108
0.891504	1.637541
0.891602	1.631492
0.891699	1.633022
0.891797	1.625678
0.891895	1.630271
0.891992	1.594547
0.892090	1.524303
0.892187	1.615826
0.892285	1.625361
0.892383	1.624105
0.892480	1.617071
0.892578	1.616155
0.892676	1.618473
0.892773	1.620419
0.892871	1.622337
0.892969	1.624743
0.893066	1.627065
0.893164	1.629640
0.893262	1.631962
0.893359	1.634222
0.893457	1.636182
0.893555	1.637604
0.893652	1.638548
0.893750	1.638831
0.893848	1.638427
0.893945	1.636804
0.894043	1.634542
0.894141	1.631902
0.894238	1.629387
0.894336	1.627497
0.894434	1.625889
0.894531	1.624874
0.894629	1.624330
0.894727	1.624184
0.894824	1.624519
0.894922	1.625000
0.895020	1.625792
0.895117	1.626964
0.895215	1.628095
0.895312	1.629617
0.895410	1.631131
0.895508	1.632797
0.895605	1.634479
0.895703	1.636032
0.895801	1.637473
0.895898	1.638519
0.895996	1.639058
0.896094	1.639363
0.896191	1.639245
0.896289	1.638793
0.896387	1.637895
0.896484	1.636643
0.896582	1.635047
0.896680	1.633512
0.896777	1.631943
0.896875	1.629396
0.896973	1.626974
0.897070	1.625306
0.897168	1.624384
0.897266	1.624085
0.897363	1.624350
0.897461	1.625188
0.897559	1.626492
0.897656	1.628014
0.897754	1.629754
0.897852	1.631714
0.897949	1.633679
0.898047	1.635556
0.898145	1.637372
0.898242	1.638902
0.898340	1.640120
0.898437	1.640983
0.898535	1.641411
0.898633	1.641440
0.898730	1.641059
0.898828	1.639702
0.898926	1.637117
0.899023	1.633624
0.899121	1.630587
0.899219	1.628383
0.899316	1.626664
0.899414	1.625438
0.899512	1.624479
0.899609	1.623317
0.899707	1.622507
0.899805	1.622690
0.899902	1.623699
0.900000	1.625324
0.900098	1.627384
0.900195	1.629878
0.900293	1.632505
0.900391	1.635566
0.900488	1.638785
0.900586	1.641991
0.900684	1.644687
0.900781	1.645988
0.900879	1.644819
0.900977	1.641771
0.901074	1.638852
0.901172	1.636781
0.901270	1.633961
0.901367	1.630590
0.901465	1.627766
0.901562	1.627907
0.901660	1.628829
0.901758	1.628229
0.901855	1.623399
0.901953	1.619217
0.902051	1.618461
0.902148	1.618948
0.902246	1.620611
0.902344	1.622722
0.902441	1.625174
0.902539	1.627608
0.902637	1.630247
0.902734	1.632837
0.902832	1.635204
0.902930	1.637318
0.903027	1.638886
0.903125	1.639505
0.903223	1.639232
0.903320	1.638166
0.903418	1.636720
0.903516	1.635094
0.903613	1.633471
0.903711	1.632006
0.903809	1.630582
0.903906	1.629414
0.904004	1.628323
0.904102	1.627448
0.904199	1.626718
0.904297	1.626357
0.904395	1.626343
0.904492	1.626769
0.904590	1.627676
0.904687	1.628706
0.904785	1.630066
0.904883	1.631862
0.904980	1.633791
0.905078	1.636195
0.905176	1.638602
0.905273	1.640664
0.905371	1.641824
0.905469	1.641790
0.905566	1.640997
0.905664	1.639727
0.905762	1.637764
0.905859	1.635542
0.905957	1.633194
0.906055	1.631017
0.906152	1.628668
0.906250	1.626577
0.906348	1.624812
0.906445	1.623412
0.906543	1.622766
0.906641	1.622477
0.906738	1.622752
0.906836	1.623445
0.906934	1.624498
0.907031	1.625930
0.907129	1.627430
0.907227	1.629197
0.907324	1.631126
0.907422	1.633255
0.907520	1.635350
0.907617	1.637591
0.907715	1.639843
0.907812	1.641846
0.907910	1.643337
0.908008	1.644103
0.908105	1.643785
0.908203	1.642317
0.908301	1.639896
0.908398	1.637114
0.908496	1.634386
0.908594	1.631739
0.908691	1.629163
0.908789	1.626603
0.908887	1.624171
0.908984	1.622502
0.909082	1.621584
0.909180	1.621454
0.909277	1.621883
0.909375	1.622916
0.909473	1.624310
0.909570	1.626127
0.909668	1.627947
0.909766	1.630091
0.909863	1.632278
0.909961	1.634540
0.910059	1.636583
0.910156	1.638283
0.910254	1.639208
0.910352	1.638737
0.910449	1.637170
0.910547	1.634971
0.910645	1.632815
0.910742	1.630809
0.910840	1.628976
0.910937	1.627184
0.911035	1.625591
0.911133	1.623784
0.911230	1.622505
0.911328	1.621867
0.911426	1.622018
0.911523	1.622401
0.911621	1.623466
0.911719	1.624427
0.911816	1.626123
0.911914	1.627257
0.912012	1.629379
0.912109	1.630655
0.912207	1.633148
0.912305	1.634420
0.912402	1.637206
0.912500	1.638450
0.912598	1.642145
0.912695	1.643111
0.912793	1.648690
0.912891	1.649225
0.912988	1.664187
0.913086	1.641075
0.913184	1.626808
0.913281	1.634049
0.913379	1.627497
0.913477	1.632311
0.913574	1.636887
0.913672	1.641803
0.913770	1.636866
0.913867	1.631055
0.913965	1.625490
0.914062	1.624272
0.914160	1.623483
0.914258	1.624713
0.914355	1.625791
0.914453	1.628040
0.914551	1.629700
0.914648	1.631936
0.914746	1.633748
0.914844	1.635611
0.914941	1.637053
0.915039	1.638275
0.915137	1.638854
0.915234	1.639005
0.915332	1.638531
0.915430	1.637446
0.915527	1.635974
0.915625	1.634233
0.915723	1.632179
0.915820	1.629437
0.915918	1.626825
0.916016	1.624586
0.916113	1.622989
0.916211	1.622227
0.916309	1.622367
0.916406	1.622955
0.916504	1.624029
0.916602	1.625382
0.916699	1.627016
0.916797	1.628635
0.916895	1.630651
0.916992	1.632673
0.917090	1.634869
0.917187	1.636951
0.917285	1.639355
0.917383	1.641303
0.917480	1.643922
0.917578	1.644287
0.917676	1.642457
0.917773	1.643183
0.917871	1.647061
0.917969	1.638882
0.918066	1.636174
0.918164	1.639558
0.918262	1.634989
0.918359	1.627710
0.918457	1.620834
0.918555	1.616795
0.918652	1.614833
0.918750	1.615223
0.918848	1.616363
0.918945	1.618410
0.919043	1.620472
0.919141	1.622904
0.919238	1.625168
0.919336	1.627616
0.919434	1.629811
0.919531	1.632057
0.919629	1.634268
0.919727	1.636441
0.919824	1.638224
0.919922	1.639778
0.920020	1.640888
0.920117	1.641503
0.920215	1.641416
0.920312	1.640702
0.920410	1.639528
0.920508	1.637228
0.920605	1.633864
0.920703	1.630351
0.920801	1.627087
0.920898	1.624461
0.920996	1.622834
0.921094	1.622145
0.921191	1.622085
0.921289	1.622771
0.921387	1.623752
0.921484	1.625154
0.921582	1.626845
0.921680	1.628575
0.921777	1.630595
0.921875	1.632669
0.921973	1.634990
0.922070	1.637261
0.922168	1.639834
0.922266	1.642011
0.922363	1.642916
0.922461	1.641798
0.922559	1.640435
0.922656	1.638496
0.922754	1.635130
0.922852	1.631001
0.922949	1.627052
0.923047	1.624172
0.923145	1.622292
0.923242	1.621377
0.923340	1.621077
0.923437	1.621460
0.923535	1.622244
0.923633	1.623384
0.923730	1.624858
0.923828	1.626548
0.923926	1.628335
0.924023	1.630510
0.924121	1.632938
0.924219	1.635465
0.924316	1.638189
0.924414	1.640948
0.924512	1.643122
0.924609	1.644151
0.924707	1.643247
0.924805	1.641472
0.924902	1.640352
0.925000	1.639500
0.925098	1.638563
0.925195	1.635856
0.925293	1.631647
0.925391	1.627825
0.925488	1.625133
0.925586	1.622387
0.925684	1.620199
0.925781	1.619121
0.925879	1.618760
0.925977	1.619261
0.926074	1.620234
0.926172	1.621644
0.926270	1.623397
0.926367	1.625194
0.926465	1.627243
0.926562	1.629310
0.926660	1.631363
0.926758	1.633387
0.926855	1.635217
0.926953	1.636980
0.927051	1.638464
0.927148	1.639721
0.927246	1.640541
0.927344	1.640982
0.927441	1.640909
0.927539	1.639034
0.927637	1.635375
0.927734	1.630157
0.927832	1.626659
0.927930	1.625150
0.928027	1.623937
0.928125	1.622563
0.928223	1.621636
0.928320	1.621462
0.928418	1.622046
0.928516	1.623162
0.928613	1.624718
0.928711	1.626562
0.928809	1.628660
0.928906	1.630976
0.929004	1.633183
0.929102	1.635629
0.929199	1.637710
0.929297	1.639730
0.929395	1.640849
0.929492	1.641523
0.929590	1.641175
0.929687	1.640867
0.929785	1.639540
0.929883	1.638701
0.929980	1.637552
0.930078	1.636289
0.930176	1.631844
0.930273	1.625188
0.930371	1.623911
0.930469	1.622748
0.930566	1.621918
0.930664	1.621163
0.930762	1.621687
0.930859	1.622610
0.930957	1.624196
0.931055	1.625836
0.931152	1.627860
0.931250	1.629995
0.931348	1.632367
0.931445	1.634815
0.931543	1.637341
0.931641	1.639854
0.931738	1.642080
0.931836	1.643865
0.931934	1.645171
0.932031	1.645682
0.932129	1.645079
0.932227	1.643203
0.932324	1.640046
0.932422	1.635703
0.932520	1.630875
0.932617	1.626009
0.932715	1.621406
0.932812	1.617993
0.932910	1.616086
0.933008	1.615886
0.933105	1.616653
0.933203	1.618111
0.933301	1.619887
0.933398	1.622068
0.933496	1.624319
0.933594	1.626754
0.933691	1.629231
0.933789	1.631654
0.933887	1.633884
0.933984	1.635714
0.934082	1.637294
0.934180	1.638318
0.934277	1.638869
0.934375	1.638875
0.934473	1.638601
0.934570	1.638150
0.934668	1.638045
0.934766	1.638780
0.934863	1.640621
0.934961	1.635633
0.935059	1.625932
0.935156	1.620921
0.935254	1.620262
0.935352	1.620116
0.935449	1.620244
0.935547	1.620707
0.935645	1.621659
0.935742	1.622876
0.935840	1.624322
0.935937	1.626223
0.936035	1.628193
0.936133	1.630462
0.936230	1.632836
0.936328	1.635256
0.936426	1.637543
0.936523	1.639736
0.936621	1.641465
0.936719	1.642458
0.936816	1.642293
0.936914	1.640768
0.937012	1.638268
0.937109	1.635315
0.937207	1.632193
0.937305	1.629398
0.937402	1.626769
0.937500	1.624671
0.937598	1.623101
0.937695	1.622210
0.937793	1.621846
0.937891	1.622445
0.937988	1.623021
0.938086	1.624559
0.938184	1.625778
0.938281	1.628096
0.938379	1.629662
0.938477	1.632421
0.938574	1.633963
0.938672	1.637044
0.938770	1.638342
0.938867	1.641646
0.938965	1.641953
0.939062	1.645247
0.939160	1.648232
0.939258	1.676358
0.939355	1.646896
0.939453	1.630585
0.939551	1.623345
0.939648	1.621028
0.939746	1.625060
0.939844	1.618932
0.939941	1.617871
0.940039	1.615599
0.940137	1.617131
0.940234	1.617307
0.940332	1.619643
0.940430	1.620695
0.940527	1.623266
0.940625	1.624981
0.940723	1.627658
0.940820	1.629920
0.940918	1.632754
0.941016	1.635377
0.941113	1.638444
0.941211	1.641213
0.941309	1.643784
0.941406	1.645430
0.941504	1.645904
0.941602	1.645101
0.941699	1.642067
0.941797	1.636890
0.941895	1.632857
0.941992	1.629567
0.942090	1.626689
0.942187	1.624498
0.942285	1.623096
0.942383	1.622026
0.942480	1.621532
0.942578	1.621305
0.942676	1.621393
0.942773	1.621780
0.942871	1.622702
0.942969	1.623723
0.943066	1.625201
0.943164	1.626719
0.943262	1.628534
0.943359	1.630305
0.943457	1.632128
0.943555	1.633928
0.943652	1.635691
0.943750	1.637272
0.943848	1.638385
0.943945	1.639033
0.944043	1.639003
0.944141	1.638430
0.944238	1.637292
0.944336	1.635854
0.944434	1.634119
0.944531	1.632171
0.944629	1.630295
0.944727	1.628432
0.944824	1.626616
0.944922	1.625168
0.945020	1.624422
0.945117	1.624234
0.945215	1.624766
0.945312	1.625453
0.945410	1.626576
0.945508	1.627882
0.945605	1.629395
0.945703	1.631035
0.945801	1.632774
0.945898	1.634478
0.945996	1.636223
0.946094	1.637743
0.946191	1.638965
0.946289	1.639888
0.946387	1.640379
0.946484	1.640701
0.946582	1.640874
0.946680	1.640177
0.946777	1.637438
0.946875	1.633683
0.946973	1.630437
0.947070	1.627001
0.947168	1.623932
0.947266	1.622414
0.947363	1.622129
0.947461	1.622273
0.947559	1.622455
0.947656	1.622912
0.947754	1.623887
0.947852	1.625438
0.947949	1.627329
0.948047	1.629427
0.948145	1.631718
0.948242	1.634069
0.948340	1.636612
0.948437	1.639142
0.948535	1.641668
0.948633	1.644040
0.948730	1.645521
0.948828	1.645554
0.948926	1.643947
0.949023	1.640956
0.949121	1.637018
0.949219	1.632843
0.949316	1.629054
0.949414	1.625557
0.949512	1.622699
0.949609	1.620449
0.949707	1.619271
0.949805	1.618928
0.949902	1.619491
0.950000	1.620617
0.950098	1.621988
0.950195	1.623688
0.950293	1.625465
0.950391	1.627674
0.950488	1.629614
0.950586	1.631935
0.950684	1.634305
0.950781	1.637021
0.950879	1.639564
0.950977	1.642422
0.951074	1.644446
0.951172	1.647060
0.951270	1.647282
0.951367	1.644733
0.951465	1.637557
0.951562	1.632170
0.951660	1.630729
0.951758	1.628680
0.951855	1.626598
0.951953	1.624039
0.952051	1.622306
0.952148	1.621009
0.952246	1.621052
0.952344	1.621468
0.952441	1.622665
0.952539	1.624121
0.952637	1.626023
0.952734	1.628081
0.952832	1.630432
0.952930	1.632710
0.953027	1.635455
0.953125	1.637757
0.953223	1.640052
0.953320	1.641596
0.953418	1.642357
0.953516	1.641765
0.953613	1.642209
0.953711	1.639886
0.953809	1.634919
0.953906	1.630515
0.954004	1.626275
0.954102	1.623404
0.954199	1.621572
0.954297	1.620692
0.954395	1.620293
0.954492	1.620800
0.954590	1.621359
0.954687	1.622672
0.954785	1.623870
0.954883	1.625565
0.954980	1.627192
0.955078	1.629187
0.955176	1.631182
0.955273	1.633272
0.955371	1.635276
0.955469	1.637479
0.955566	1.639360
0.955664	1.641712
0.955762	1.644395
0.955859	1.649430
0.955957	1.648814
0.956055	1.641975
0.956152	1.636996
0.956250	1.636573
0.956348	1.635665
0.956445	1.631328
0.956543	1.627592
0.956641	1.624434
0.956738	1.622725
0.956836	1.621396
0.956934	1.620950
0.957031	1.621027
0.957129	1.621561
0.957227	1.622456
0.957324	1.623674
0.957422	1.625040
0.957520	1.626659
0.957617	1.628302
0.957715	1.630028
0.957812	1.631653
0.957910	1.633152
0.958008	1.634489
0.958105	1.635796
0.958203	1.636880
0.958301	1.637720
0.958398	1.638194
0.958496	1.638462
0.958594	1.638169
0.958691	1.637563
0.958789	1.636128
0.958887	1.634008
0.958984	1.631317
0.959082	1.628685
0.959180	1.626359
0.959277	1.624902
0.959375	1.624417
0.959473	1.624679
0.959570	1.625521
0.959668	1.627008
0.959766	1.628801
0.959863	1.630903
0.959961	1.633187
0.960059	1.635553
0.960156	1.637970
0.960254	1.640188
0.960352	1.642189
0.960449	1.644150
0.960547	1.646212
0.960645	1.647440
0.960742	1.646729
0.960840	1.643205
0.960937	1.639401
0.961035	1.637152
0.961133	1.631193
0.961230	1.626083
0.961328	1.625557
0.961426	1.620964
0.961523	1.616203
0.961621	1.614872
0.961719	1.615712
0.961816	1.617517
0.961914	1.619402
0.962012	1.621399
0.962109	1.623610
0.962207	1.625773
0.962305	1.627982
0.962402	1.630068
0.962500	1.632014
0.962598	1.633902
0.962695	1.635503
0.962793	1.636983
0.962891	1.638097
0.962988	1.638779
0.963086	1.638877
0.963184	1.638379
0.963281	1.637350
0.963379	1.635861
0.963477	1.633555
0.963574	1.630935
0.963672	1.628336
0.963770	1.626251
0.963867	1.624721
0.963965	1.623843
0.964062	1.623417
0.964160	1.623554
0.964258	1.624129
0.964355	1.625092
0.964453	1.626446
0.964551	1.627865
0.964648	1.629597
0.964746	1.631476
0.964844	1.633346
0.964941	1.635171
0.965039	1.636978
0.965137	1.638368
0.965234	1.639406
0.965332	1.639869
0.965430	1.639880
0.965527	1.639357
0.965625	1.638279
0.965723	1.637017
0.965820	1.635526
0.965918	1.633732
0.966016	1.631830
0.966113	1.629507
0.966211	1.627190
0.966309	1.625240
0.966406	1.623943
0.966504	1.623420
0.966602	1.623453
0.966699	1.624069
0.966797	1.625200
0.966895	1.626743
0.966992	1.628532
0.967090	1.630542
0.967187	1.632585
0.967285	1.634563
0.967383	1.636534
0.967480	1.638173
0.967578	1.639631
0.967676	1.640646
0.967773	1.641187
0.967871	1.641245
0.967969	1.640616
0.968066	1.639275
0.968164	1.637063
0.968262	1.634240
0.968359	1.631159
0.968457	1.628493
0.968555	1.626198
0.968652	1.624452
0.968750	1.623214
0.968848	1.622657
0.968945	1.622685
0.969043	1.623217
0.969141	1.624252
0.969238	1.625679
0.969336	1.627196
0.969434	1.629077
0.969531	1.631083
0.969629	1.633234
0.969727	1.635614
0.969824	1.638407
0.969922	1.641727
0.970020	1.645964
0.970117	1.650141
0.970215	1.649410
0.970312	1.644349
0.970410	1.637386
0.970508	1.631281
0.970605	1.627744
0.970703	1.623760
0.970801	1.620771
0.970898	1.619646
0.970996	1.618979
0.971094	1.618859
0.971191	1.619165
0.971289	1.619948
0.971387	1.621100
0.971484	1.622642
0.971582	1.624253
0.971680	1.626033
0.971777	1.627741
0.971875	1.629643
0.971973	1.631587
0.972070	1.633359
0.972168	1.635148
0.972266	1.636818
0.972363	1.638401
0.972461	1.639786
0.972559	1.640902
0.972656	1.641347
0.972754	1.641489
0.972852	1.641186
0.972949	1.640539
0.973047	1.639420
0.973145	1.637131
0.973242	1.634319
0.973340	1.631115
0.973437	1.627526
0.973535	1.624643
0.973633	1.623153
0.973730	1.622459
0.973828	1.622821
0.973926	1.623476
0.974023	1.624737
0.974121	1.626200
0.974219	1.627891
0.974316	1.629893
0.974414	1.631861
0.974512	1.633994
0.974609	1.636082
0.974707	1.637904
0.974805	1.639421
0.974902	1.640414
0.975000	1.640888
0.975098	1.640906
0.975195	1.640331
0.975293	1.639025
0.975391	1.636681
0.975488	1.634330
0.975586	1.632084
0.975684	1.629738
0.975781	1.627463
0.975879	1.626072
0.975977	1.625137
0.976074	1.624733
0.976172	1.624632
0.976270	1.625186
0.976367	1.626040
0.976465	1.627320

